# Columns:
#   distance along LOS (in CHIMPs)
#   peculiar velocity  (in km/s)
#   temperature (K)
#   HI number density
# pos=(72.2118,170.275,108.955), angles=(1.59101,5.01523)
  0.00211     20.1 1.167e+04 1.068e-09
  0.01232     21.1 1.141e+04 9.073e-10
  0.02255     20.0 1.107e+04 7.663e-10
  0.03492     20.6 1.079e+04 6.102e-10
  0.05539     21.0 1.058e+04 4.879e-10
  0.07567     21.2 1.038e+04 3.998e-10
  0.08591     20.4 1.025e+04 3.391e-10
  0.10665     21.5 1.008e+04 3.191e-10
  0.13932     22.5 9.915e+03 3.011e-10
  0.15979     22.0 9.662e+03 2.511e-10
  0.18861     23.3 9.765e+03 2.774e-10
  0.22955     23.9 9.990e+03 3.330e-10
  0.26015     23.9 1.015e+04 3.978e-10
  0.27626     24.0 1.039e+04 5.121e-10
  0.28649     24.2 1.026e+04 4.722e-10
  0.30099     24.2 1.064e+04 6.542e-10
  0.32145     24.6 1.094e+04 8.339e-10
  0.35225     24.8 1.139e+04 1.098e-09
  0.39313     25.0 1.171e+04 1.332e-09
  0.43406     26.0 1.142e+04 1.132e-09
  0.47515     25.9 1.136e+04 1.049e-09
  0.51608     25.7 1.113e+04 8.707e-10
  0.54050     25.4 1.086e+04 7.095e-10
  0.56096     26.7 1.100e+04 8.271e-10
  0.59795     26.7 1.084e+04 7.409e-10
  0.63888     26.9 1.072e+04 6.920e-10
  0.66740     27.3 1.061e+04 6.641e-10
  0.68787     28.3 1.063e+04 6.780e-10
  0.72075     28.9 1.046e+04 5.874e-10
  0.76168     29.6 1.029e+04 4.888e-10
  0.79430     30.3 1.015e+04 4.137e-10
  0.81477     30.4 1.015e+04 4.120e-10
  0.84355     31.2 1.007e+04 3.849e-10
  0.88448     32.2 1.006e+04 3.872e-10
  0.92121     33.4 1.012e+04 4.142e-10
  0.94168     33.4 9.999e+03 3.833e-10
  0.96635     34.7 1.007e+04 3.926e-10
  1.00728     35.8 1.016e+04 4.105e-10
  1.04811     36.8 1.016e+04 4.256e-10
  1.08905     38.3 9.902e+03 3.435e-10
  1.13008     39.7 9.869e+03 3.387e-10
  1.17101     41.1 9.758e+03 3.129e-10
  1.19548     42.6 9.523e+03 2.551e-10
  1.21595     42.8 9.116e+03 1.697e-10
  1.25288     44.1 8.976e+03 1.395e-10
  1.29381     45.2 8.861e+03 1.126e-10
  1.32239     46.2 8.789e+03 9.355e-11
  1.34285     46.5 8.682e+03 9.574e-11
  1.37568     47.6 8.680e+03 9.627e-11
  1.41661     48.5 8.689e+03 1.002e-10
  1.44929     49.4 8.730e+03 1.101e-10
  1.46976     49.7 8.737e+03 1.233e-10
  1.49848     50.4 8.797e+03 1.337e-10
  1.53941     51.0 8.842e+03 1.400e-10
  1.57219     51.4 8.887e+03 1.434e-10
  1.58851     52.0 8.734e+03 1.194e-10
  1.59666     52.3 8.701e+03 1.133e-10
  1.62128     52.6 8.716e+03 1.127e-10
  1.66221     52.4 8.817e+03 1.197e-10
  1.70310     51.8 9.189e+03 1.558e-10
  1.74403     51.1 9.663e+03 2.763e-10
  1.77468     50.4 1.006e+04 3.872e-10
  1.78682     50.1 1.030e+04 4.988e-10
  1.79705     50.5 1.024e+04 5.106e-10
  1.82584     50.3 1.066e+04 6.503e-10
  1.85047     49.0 1.154e+04 1.038e-09
  1.87093     49.8 1.113e+04 8.953e-10
  1.90781     48.2 1.185e+04 1.268e-09
  1.94874     46.4 1.242e+04 1.725e-09
  1.97737     45.2 1.239e+04 1.720e-09
  1.99784     45.8 1.191e+04 1.389e-09
  2.03061     45.4 1.151e+04 1.168e-09
  2.07154     45.5 1.079e+04 7.247e-10
  2.10427     45.6 1.004e+04 3.859e-10
  2.12474     46.5 1.017e+04 4.690e-10
  2.15341     46.7 9.709e+03 2.818e-10
  2.19434     47.1 9.358e+03 2.189e-10
  2.23118     48.2 9.297e+03 2.178e-10
  2.25164     48.7 9.270e+03 2.165e-10
  2.27621     50.0 9.261e+03 2.224e-10
  2.31714     51.4 9.297e+03 2.477e-10
  2.35807     52.8 9.389e+03 2.836e-10
  2.39901     54.5 9.356e+03 3.035e-10
  2.43994     55.9 9.381e+03 3.148e-10
  2.48087     57.3 9.348e+03 3.089e-10
  2.50545     58.8 9.249e+03 2.807e-10
  2.52592     59.2 9.265e+03 2.876e-10
  2.56274     60.9 9.093e+03 2.450e-10
  2.60367     62.6 8.934e+03 2.044e-10
  2.63236     64.4 8.822e+03 1.733e-10
  2.65282     65.1 8.714e+03 1.508e-10
  2.68554     66.9 8.656e+03 1.244e-10
  2.72647     68.8 8.631e+03 1.081e-10
  2.75926     70.8 8.610e+03 9.760e-11
  2.77973     71.2 8.548e+03 6.897e-11
  2.80834     73.2 8.527e+03 6.229e-11
  2.84927     75.1 8.498e+03 5.835e-11
  2.88616     77.1 8.480e+03 5.766e-11
  2.90663     77.3 8.397e+03 5.267e-11
  2.93114     79.2 8.399e+03 5.625e-11
  2.97207     81.1 8.429e+03 6.447e-11
  3.01300     82.9 8.495e+03 8.063e-11
  3.05394     85.1 8.611e+03 1.062e-10
  3.09487     86.8 8.847e+03 1.494e-10
  3.13580     88.3 9.174e+03 2.116e-10
  3.16044     89.5 9.529e+03 2.706e-10
  3.18090     89.9 9.441e+03 2.599e-10
  3.21767     90.9 9.672e+03 2.741e-10
  3.25860     91.6 9.676e+03 2.683e-10
  3.28734     92.3 9.624e+03 2.383e-10
  3.30781     93.1 9.601e+03 2.427e-10
  3.34047     94.2 9.452e+03 1.989e-10
  3.38140     95.3 9.291e+03 1.547e-10
  3.41424     96.6 9.182e+03 1.227e-10
  3.43471     97.7 9.246e+03 1.404e-10
  3.46327     99.0 9.203e+03 1.164e-10
  3.50050    100.3 9.173e+03 9.793e-11
  3.52096    100.2 9.364e+03 1.421e-10
  3.54115    101.6 9.301e+03 1.256e-10
  3.56161    102.8 9.366e+03 1.522e-10
  3.58607    104.2 9.277e+03 1.252e-10
  3.62700    105.7 9.182e+03 1.062e-10
  3.66794    107.3 9.101e+03 9.634e-11
  3.70887    110.0 9.008e+03 1.014e-10
  3.74980    111.7 8.984e+03 1.005e-10
  3.79074    113.4 8.972e+03 1.024e-10
  3.81542    115.3 8.972e+03 1.075e-10
  3.83589    116.4 8.958e+03 1.152e-10
  3.87260    118.4 8.989e+03 1.216e-10
  3.91353    120.4 9.047e+03 1.319e-10
  3.94233    122.4 9.136e+03 1.456e-10
  3.96279    123.5 9.175e+03 1.422e-10
  3.99540    125.4 9.297e+03 1.558e-10
  4.03633    127.3 9.413e+03 1.685e-10
  4.06923    129.1 9.504e+03 1.779e-10
  4.08970    130.2 9.531e+03 1.832e-10
  4.11820    132.0 9.603e+03 1.908e-10
  4.15913    133.7 9.661e+03 1.994e-10
  4.19613    135.5 9.745e+03 2.168e-10
  4.21660    136.6 9.908e+03 2.357e-10
  4.24100    138.4 1.013e+04 2.573e-10
  4.28193    140.0 1.040e+04 3.011e-10
  4.32287    140.7 1.054e+04 3.460e-10
  4.35347    142.6 1.075e+04 5.117e-10
  4.37384    143.4 1.100e+04 6.242e-10
  4.39430    144.1 1.131e+04 7.725e-10
  4.40676    144.6 1.168e+04 9.798e-10
  4.41699    144.8 1.173e+04 1.037e-09
  4.43524    145.2 1.210e+04 1.344e-09
  4.45570    145.4 1.261e+04 1.799e-09
  4.47021    145.6 1.315e+04 2.581e-09
  4.47896    146.5 1.329e+04 2.346e-09
  4.48492    146.7 1.285e+04 2.236e-09
  4.49664    147.0 1.340e+04 2.832e-09
  4.51710    147.2 1.400e+04 3.522e-09
  4.53366    147.2 1.458e+04 4.194e-09
  4.54390    147.5 1.413e+04 2.844e-09
  4.55804    146.9 1.449e+04 3.107e-09
  4.57850    146.0 1.457e+04 3.153e-09
  4.59712    145.1 1.454e+04 3.115e-09
  4.60735    144.9 1.390e+04 2.234e-09
  4.61944    144.1 1.381e+04 2.215e-09
  4.63990    143.4 1.362e+04 2.124e-09
  4.66037    142.8 1.340e+04 1.948e-09
  4.67080    142.2 1.317e+04 1.723e-09
  4.68103    142.5 1.303e+04 1.692e-09
  4.70130    141.8 1.278e+04 1.553e-09
  4.72177    141.1 1.273e+04 1.523e-09
  4.73425    140.3 1.278e+04 1.549e-09
  4.74449    140.9 1.286e+04 1.669e-09
  4.76270    139.6 1.323e+04 1.893e-09
  4.78317    138.1 1.385e+04 2.442e-09
  4.79770    136.7 1.457e+04 3.463e-09
  4.80794    137.3 1.488e+04 3.833e-09
  4.82410    136.5 1.537e+04 5.170e-09
  4.84457    135.9 1.555e+04 5.971e-09
  4.86116    135.1 1.551e+04 5.972e-09
  4.87139    135.5 1.536e+04 5.398e-09
  4.88550    134.7 1.505e+04 4.942e-09
  4.90597    134.0 1.456e+04 4.280e-09
  4.92461    133.3 1.399e+04 3.591e-09
  4.93484    133.6 1.366e+04 3.095e-09
  4.94690    133.0 1.314e+04 2.579e-09
  4.96737    132.6 1.280e+04 2.246e-09
  4.98784    132.4 1.269e+04 2.068e-09
  4.99829    132.4 1.283e+04 1.968e-09
  5.00853    132.6 1.285e+04 1.639e-09
  5.02877    132.6 1.295e+04 1.565e-09
  5.04924    132.5 1.303e+04 1.519e-09
  5.06174    132.4 1.311e+04 1.495e-09
  5.07198    132.6 1.286e+04 1.188e-09
  5.09017    132.3 1.283e+04 1.158e-09
  5.11064    132.0 1.275e+04 1.127e-09
  5.12520    131.5 1.261e+04 1.074e-09
  5.13543    131.9 1.211e+04 8.653e-10
  5.15157    131.5 1.181e+04 7.947e-10
  5.17204    131.0 1.144e+04 7.103e-10
  5.18865    130.5 1.102e+04 6.240e-10
  5.19888    130.7 1.087e+04 6.145e-10
  5.21297    130.3 1.054e+04 5.493e-10
  5.23343    129.9 1.027e+04 5.018e-10
  5.25210    129.6 1.009e+04 4.754e-10
  5.26233    129.6 1.048e+04 5.594e-10
  5.27437    129.3 1.036e+04 5.354e-10
  5.29483    129.1 1.027e+04 5.182e-10
  5.31530    128.9 1.018e+04 5.019e-10
  5.32579    128.7 1.007e+04 4.822e-10
  5.33602    128.0 1.034e+04 5.509e-10
  5.35623    127.8 1.019e+04 5.056e-10
  5.37670    127.5 1.006e+04 4.631e-10
  5.38924    127.1 1.003e+04 4.479e-10
  5.39947    125.6 1.022e+04 5.760e-10
  5.41763    125.1 1.019e+04 5.776e-10
  5.43810    124.6 1.018e+04 5.862e-10
  5.44908    124.0 1.020e+04 6.203e-10
  5.45343    124.2 1.052e+04 7.288e-10
  5.46292    124.0 1.063e+04 7.716e-10
  5.47903    123.4 1.074e+04 8.404e-10
  5.49950    122.9 1.087e+04 9.330e-10
  5.51614    122.6 1.098e+04 1.033e-09
  5.52637    121.0 1.100e+04 1.047e-09
  5.54043    120.8 1.096e+04 1.037e-09
  5.56090    120.7 1.084e+04 9.904e-10
  5.59170    120.8 1.028e+04 7.314e-10
  5.63273    120.8 9.757e+03 5.143e-10
  5.65347    120.7 9.221e+03 3.526e-10
  5.67394    119.6 8.923e+03 2.668e-10
  5.71460    120.2 8.883e+03 2.675e-10
  5.75553    120.6 8.944e+03 2.890e-10
  5.78028    120.6 9.049e+03 3.166e-10
  5.79041    120.9 9.161e+03 3.473e-10
  5.80650    120.9 9.359e+03 4.109e-10
  5.82697    120.6 9.778e+03 5.401e-10
  5.84363    119.9 1.036e+04 7.624e-10
  5.85387    120.2 1.068e+04 8.589e-10
  5.86790    119.3 1.149e+04 1.281e-09
  5.88837    118.2 1.228e+04 1.857e-09
  5.90709    117.1 1.279e+04 2.254e-09
  5.91732    117.2 1.324e+04 2.560e-09
  5.92930    115.6 1.350e+04 2.600e-09
  5.94977    111.4 1.485e+04 2.719e-09
  5.97023    102.3 1.887e+04 3.328e-09
  5.98077     91.8 1.947e+04 4.613e-09
  5.99100     87.0 2.037e+04 6.737e-09
  6.01117     82.6 1.731e+04 6.603e-09
  6.03163     82.0 1.530e+04 6.294e-09
  6.04422     82.1 1.456e+04 5.467e-09
  6.05446     81.7 1.545e+04 6.055e-09
  6.07257     81.3 1.606e+04 4.442e-09
  6.09303     80.0 1.669e+04 3.383e-09
  6.10767     77.8 1.659e+04 2.714e-09
  6.11791     73.5 1.731e+04 4.612e-09
  6.13397     72.5 1.766e+04 5.890e-09
  6.15443     72.6 1.857e+04 7.465e-09
  6.17113     73.2 1.880e+04 7.719e-09
  6.18136     72.9 1.946e+04 1.465e-08
  6.19536     73.6 1.925e+04 1.298e-08
  6.21583     74.0 1.845e+04 9.884e-09
  6.23458     74.0 1.727e+04 6.890e-09
  6.24481     73.9 1.720e+04 7.195e-09
  6.25676     73.3 1.573e+04 4.475e-09
  6.27723     72.4 1.417e+04 2.797e-09
  6.29770     71.4 1.279e+04 1.883e-09
  6.30826     70.8 1.193e+04 1.436e-09
  6.31850     69.8 1.141e+04 9.462e-10
  6.33863     70.1 1.132e+04 9.166e-10
  6.35910     70.7 1.131e+04 9.194e-10
  6.37171     71.4 1.137e+04 9.484e-10
  6.38195     71.1 1.072e+04 7.021e-10
  6.40003     71.8 1.086e+04 7.511e-10
  6.41323     72.3 1.109e+04 8.250e-10
  6.42347     73.0 1.128e+04 9.549e-10
  6.43517     73.4 1.149e+04 1.040e-09
  6.44540     73.6 1.101e+04 8.378e-10
  6.46143     74.1 1.116e+04 8.969e-10
  6.48190     74.5 1.139e+04 9.732e-10
  6.49862     74.8 1.157e+04 1.055e-09
  6.50885     75.4 1.126e+04 9.406e-10
  6.52283     75.7 1.152e+04 9.924e-10
  6.54330     76.1 1.180e+04 1.065e-09
  6.56207     76.5 1.187e+04 1.121e-09
  6.57230     77.4 1.170e+04 1.034e-09
  6.58423     77.9 1.162e+04 1.025e-09
  6.60470     78.6 1.139e+04 9.831e-10
  6.62516     79.3 1.118e+04 9.057e-10
  6.63576     80.0 1.095e+04 8.269e-10
  6.64599     80.5 1.139e+04 7.052e-10
  6.66610     80.2 1.288e+04 6.780e-10
  6.68656     78.9 1.574e+04 7.796e-10
  6.69921     77.2 1.789e+04 1.297e-09
  6.70944     71.7 2.355e+04 2.309e-09
  6.72750     71.9 2.167e+04 4.497e-09
  6.74280     70.7 2.135e+04 7.524e-09
  6.75298     70.2 2.105e+04 1.081e-08
  6.76256     70.4 2.076e+04 1.442e-08
  6.76768     68.8 2.064e+04 1.894e-08
  6.77345     69.6 2.067e+04 2.252e-08
  6.78368     70.7 2.104e+04 2.564e-08
  6.79392     71.8 2.198e+04 2.790e-08
  6.79940     72.7 2.316e+04 2.965e-08
  6.80452     70.4 2.620e+04 3.600e-08
  6.81438     70.8 2.791e+04 3.493e-08
  6.82461     71.1 2.858e+04 3.483e-08
  6.83113     71.1 3.109e+04 2.894e-08
  6.83625     67.0 3.317e+04 2.679e-08
  6.84508     66.2 3.268e+04 2.059e-08
  6.85531     65.3 3.029e+04 1.694e-08
  6.86286     64.5 2.724e+04 1.467e-08
  6.86797     59.1 2.319e+04 1.318e-08
  6.87578     58.6 2.189e+04 1.256e-08
  6.88601     58.5 2.157e+04 1.304e-08
  6.89458     57.6 2.164e+04 1.413e-08
  6.89866     53.1 2.105e+04 1.374e-08
  6.90033     55.3 2.188e+04 1.531e-08
  6.90648     53.3 2.201e+04 1.700e-08
  6.91671     50.3 2.229e+04 1.886e-08
  6.92631     45.8 2.280e+04 2.077e-08
  6.93142     42.9 2.241e+04 1.981e-08
  6.93718     37.4 2.279e+04 1.984e-08
  6.94741     30.9 2.398e+04 1.878e-08
  6.95507     16.5 3.889e+04 1.381e-08
  6.96016     14.7 4.119e+04 1.280e-08
  6.96310     -9.5 6.949e+04 1.277e-08
  6.96566      4.5 4.998e+04 1.135e-08
  6.97039     -2.9 6.328e+04 9.671e-09
  6.97551    -24.6 6.816e+04 2.327e-08
  6.97896    -33.7 5.697e+04 6.303e-08
  6.98152    -21.8 7.009e+04 1.982e-08
  6.98574    -34.6 5.297e+04 8.806e-08
  6.99086    -43.0 3.842e+04 3.416e-07
  6.99483    -51.6 2.827e+04 7.873e-07
  6.99739    -40.5 3.807e+04 2.827e-07
  7.00109    -46.6 3.016e+04 6.562e-07
  7.00621    -51.3 2.596e+04 9.100e-07
  7.01069    -52.2 2.550e+04 9.141e-07
  7.01325    -47.3 2.638e+04 1.004e-06
  7.01644    -49.7 2.542e+04 9.500e-07
  7.02156    -49.7 2.824e+04 6.342e-07
  7.02655    -49.6 3.381e+04 3.006e-07
  7.02911    -47.4 2.484e+04 1.060e-06
  7.03179    -48.0 2.821e+04 5.949e-07
  7.03691    -48.8 3.147e+04 3.277e-07
  7.04202    -49.1 3.404e+04 2.067e-07
  7.04972    -49.3 3.737e+04 1.127e-07
  7.05833    -53.3 3.471e+04 4.390e-08
  7.06344    -48.9 3.130e+04 2.121e-07
  7.07021    -50.9 3.172e+04 7.623e-08
  7.08045    -50.7 3.035e+04 3.729e-08
  7.09005    -49.7 2.690e+04 1.887e-08
  7.09517    -47.2 3.121e+04 5.010e-08
  7.10091    -46.9 3.000e+04 1.973e-08
  7.11115    -47.5 2.474e+04 9.084e-09
  7.12138    -47.8 1.897e+04 5.903e-09
  7.12690    -46.9 1.664e+04 4.661e-09
  7.13201    -45.0 2.288e+04 5.967e-09
  7.14185    -45.9 1.892e+04 3.612e-09
  7.15355    -46.7 1.915e+04 2.087e-09
  7.16384    -44.0 3.044e+04 3.549e-09
  7.17776    -45.9 2.486e+04 8.775e-10
  7.19823    -48.7 1.485e+04 5.420e-10
  7.21706    -48.8 1.027e+04 5.240e-10
  7.22729    -48.6 1.205e+04 5.606e-10
  7.23916    -47.5 1.013e+04 5.581e-10
  7.25963    -46.0 9.894e+03 5.335e-10
  7.28009    -44.6 9.812e+03 5.072e-10
  7.29074    -43.5 9.746e+03 4.856e-10
  7.30097    -43.8 9.810e+03 5.534e-10
  7.32103    -42.8 9.782e+03 5.152e-10
  7.34406    -41.7 9.641e+03 4.877e-10
  7.36462    -42.2 1.015e+04 6.178e-10
  7.37758    -39.8 9.528e+03 4.796e-10
  7.39805    -40.0 9.411e+03 4.167e-10
  7.43379    -37.6 9.192e+03 3.574e-10
  7.47106    -35.4 9.030e+03 3.134e-10
  7.49152    -35.5 8.811e+03 2.568e-10
  7.51566    -33.8 8.645e+03 2.237e-10
  7.55659    -32.2 8.578e+03 2.155e-10
  7.59752    -30.8 8.603e+03 2.308e-10
  7.61843    -29.4 8.799e+03 2.816e-10
  7.63889    -28.9 8.872e+03 3.153e-10
  7.67939    -27.2 9.114e+03 3.774e-10
  7.72032    -25.7 9.340e+03 4.265e-10
  7.74533    -24.4 9.433e+03 4.456e-10
  7.76580    -24.1 9.399e+03 4.197e-10
  7.80219    -23.2 9.441e+03 4.271e-10
  7.84312    -22.3 9.404e+03 4.153e-10
  7.87224    -21.5 9.308e+03 3.878e-10
  7.89270    -22.1 9.646e+03 4.887e-10
  7.92499    -21.7 9.784e+03 5.306e-10
  7.96592    -21.3 1.008e+04 6.165e-10
  7.99914    -20.5 1.034e+04 7.281e-10
  8.01961    -21.1 1.100e+04 1.096e-09
  8.04779    -19.5 1.055e+04 9.273e-10
  8.08872    -18.2 1.004e+04 7.022e-10
  8.12604    -16.9 9.497e+03 5.225e-10
  8.14651    -17.1 8.758e+03 3.099e-10
  8.17059    -16.5 8.481e+03 2.389e-10
  8.21152    -16.0 8.422e+03 2.297e-10
  8.25245    -15.7 8.729e+03 3.060e-10
  8.27341    -15.3 9.378e+03 4.875e-10
  8.29388    -15.4 8.448e+03 2.112e-10
  8.33432    -15.6 8.972e+03 3.043e-10
  8.37525    -16.7 9.376e+03 3.932e-10
  8.40032    -18.1 9.567e+03 4.263e-10
  8.42078    -19.1 9.269e+03 3.718e-10
  8.45712    -21.6 9.384e+03 3.848e-10
  8.49805    -24.5 9.382e+03 3.629e-10
  8.52722    -27.3 9.426e+03 3.482e-10
  8.54769    -27.9 9.612e+03 3.833e-10
  8.57992    -30.4 9.531e+03 3.465e-10
  8.62085    -32.1 9.228e+03 2.843e-10
  8.65412    -32.8 8.885e+03 2.041e-10
  8.67459    -33.4 8.798e+03 1.839e-10
  8.70272    -33.8 8.472e+03 1.136e-10
  8.74365    -33.7 8.311e+03 7.181e-11
  8.78103    -33.6 8.278e+03 5.450e-11
  8.80149    -34.3 8.347e+03 6.092e-11
  8.82552    -34.0 8.339e+03 5.877e-11
  8.86645    -33.7 8.357e+03 6.565e-11
  8.90738    -33.0 8.436e+03 8.416e-11
  8.92840    -32.2 8.637e+03 1.032e-10
  8.94886    -33.3 8.974e+03 1.533e-10
  8.98925    -33.6 9.328e+03 1.946e-10
  9.03018    -34.3 9.727e+03 2.843e-10
  9.05530    -34.7 1.018e+04 4.556e-10
  9.07577    -35.9 1.076e+04 6.711e-10
  9.11205    -35.9 1.118e+04 8.569e-10
  9.15298    -36.2 1.132e+04 9.044e-10
  9.18221    -37.2 1.134e+04 8.254e-10
  9.20267    -38.9 1.130e+04 1.076e-09
  9.23485    -39.6 1.105e+04 9.323e-10
  9.27578    -40.0 1.080e+04 7.188e-10
  9.30589    -40.2 1.052e+04 4.773e-10
  9.31875    -40.2 1.056e+04 4.220e-10
  9.32958    -42.0 1.062e+04 5.067e-10
  9.35765    -42.9 1.027e+04 3.471e-10
  9.39858    -43.5 1.015e+04 3.132e-10
  9.43601    -43.8 1.020e+04 3.208e-10
  9.45648    -44.8 1.038e+04 3.589e-10
  9.48045    -46.9 1.152e+04 4.951e-10
  9.52138    -49.4 1.256e+04 1.015e-09
  9.56231    -51.1 1.319e+04 1.800e-09
  9.58329    -52.1 1.325e+04 1.884e-09
  9.59342    -53.3 1.265e+04 1.411e-09
  9.61329    -53.7 1.267e+04 1.410e-09
  9.63375    -54.4 1.250e+04 1.224e-09
  9.64664    -55.7 1.212e+04 9.028e-10
  9.65687    -57.5 1.199e+04 8.479e-10
  9.67469    -59.5 1.186e+04 7.476e-10
  9.69515    -61.1 1.179e+04 7.320e-10
  9.71009    -62.3 1.173e+04 7.328e-10
  9.72032    -63.4 1.166e+04 8.974e-10
  9.73609    -64.0 1.159e+04 8.972e-10
  9.75655    -64.4 1.149e+04 8.457e-10
  9.77354    -64.9 1.142e+04 7.857e-10
  9.78378    -65.4 1.135e+04 7.436e-10
  9.79749    -66.1 1.119e+04 6.425e-10
  9.81795    -66.8 1.101e+04 5.686e-10
  9.83699    -67.5 1.082e+04 5.183e-10
  9.84723    -68.6 1.048e+04 4.109e-10
  9.85889    -68.9 1.039e+04 3.935e-10
  9.87935    -69.0 1.033e+04 3.820e-10
  9.89982    -68.9 1.034e+04 3.764e-10
  9.91068    -68.9 1.032e+04 3.632e-10
  9.92091    -69.5 1.030e+04 3.368e-10
  9.94075    -69.4 1.033e+04 3.235e-10
  9.96400    -69.3 1.041e+04 3.083e-10
  9.98456    -71.0 1.042e+04 2.796e-10
 10.01258    -71.1 1.059e+04 2.734e-10
 10.05351    -70.8 1.074e+04 2.993e-10
 10.09100    -69.9 1.060e+04 3.459e-10
 10.11146    -70.8 1.054e+04 4.227e-10
 10.13538    -69.2 1.034e+04 4.186e-10
 10.17631    -67.4 1.013e+04 3.829e-10
 10.21725    -65.6 9.888e+03 3.390e-10
 10.23837    -63.9 9.758e+03 3.020e-10
 10.25883    -64.2 9.643e+03 2.393e-10
 10.29911    -62.7 9.613e+03 2.207e-10
 10.34005    -61.1 9.606e+03 2.160e-10
 10.36527    -59.5 9.648e+03 2.194e-10
 10.38574    -59.8 9.570e+03 1.829e-10
 10.42191    -58.1 9.653e+03 1.948e-10
 10.46284    -56.2 9.760e+03 2.075e-10
 10.49218    -54.7 1.012e+04 2.304e-10
 10.50231    -57.9 1.218e+04 2.692e-10
 10.51382    -59.0 1.312e+04 3.873e-10
 10.53428    -61.6 1.460e+04 6.558e-10
 10.55475    -64.3 1.575e+04 1.490e-09
 10.56566    -65.5 1.594e+04 3.165e-09
 10.57590    -66.7 1.595e+04 6.073e-09
 10.59568    -65.6 1.611e+04 8.314e-09
 10.61615    -64.4 1.629e+04 9.704e-09
 10.62912    -63.2 1.631e+04 1.029e-08
 10.63935    -63.2 1.616e+04 7.646e-09
 10.65708    -62.6 1.607e+04 4.932e-09
 10.67755    -63.2 1.569e+04 2.581e-09
 10.69257    -65.2 1.462e+04 1.166e-09
 10.70280    -69.7 1.118e+04 4.539e-10
 10.71848    -70.5 1.014e+04 2.844e-10
 10.73895    -70.6 9.739e+03 2.105e-10
 10.75602    -70.2 9.545e+03 1.713e-10
 10.76625    -70.0 9.511e+03 1.677e-10
 10.79021    -69.2 9.459e+03 1.381e-10
 10.83124    -68.1 9.326e+03 1.072e-10
 10.87218    -67.3 9.315e+03 9.924e-11
 10.89335    -66.9 9.731e+03 1.077e-10
 10.91382    -65.6 9.479e+03 9.733e-11
 10.95404    -64.7 9.714e+03 1.328e-10
 10.99498    -63.2 9.950e+03 1.911e-10
 11.02026    -61.4 1.026e+04 2.554e-10
 11.04072    -60.0 9.813e+03 1.747e-10
 11.07684    -58.2 1.009e+04 2.065e-10
 11.11778    -56.5 1.040e+04 2.536e-10
 11.14716    -55.0 1.062e+04 3.129e-10
 11.16763    -53.8 1.039e+04 2.420e-10
 11.19964    -52.5 1.069e+04 3.189e-10
 11.22075    -52.3 1.080e+04 3.891e-10
 11.23088    -51.9 1.079e+04 3.603e-10
 11.24424    -51.7 1.082e+04 4.016e-10
 11.25457    -52.8 1.068e+04 3.141e-10
 11.27118    -52.0 1.085e+04 3.527e-10
 11.28410    -51.8 1.095e+04 3.648e-10
 11.29433    -51.4 1.097e+04 4.049e-10
 11.31201    -51.2 1.115e+04 4.309e-10
 11.33248    -51.2 1.121e+04 4.346e-10
 11.34755    -51.3 1.131e+04 4.246e-10
 11.35779    -50.7 1.144e+04 5.586e-10
 11.37341    -50.9 1.148e+04 5.010e-10
 11.39388    -51.5 1.133e+04 4.627e-10
 11.41101    -52.2 1.109e+04 4.592e-10
 11.42124    -51.4 1.136e+04 5.062e-10
 11.43481    -52.8 1.121e+04 5.258e-10
 11.45528    -57.8 1.372e+04 9.335e-10
 11.47446    -63.8 1.691e+04 2.972e-09
 11.48469    -67.4 1.756e+04 5.914e-09
 11.49621    -68.4 1.852e+04 1.369e-08
 11.51668    -68.4 1.933e+04 2.302e-08
 11.53198    -67.7 1.934e+04 2.484e-08
 11.54216    -67.4 1.917e+04 2.472e-08
 11.54804    -65.4 1.886e+04 2.013e-08
 11.55316    -65.6 1.867e+04 1.204e-08
 11.56263    -65.8 1.894e+04 7.299e-09
 11.57286    -67.9 1.857e+04 4.218e-09
 11.57977    -71.0 1.705e+04 2.523e-09
 11.58489    -72.8 1.561e+04 1.976e-09
 11.59850    -75.2 1.460e+04 1.345e-09
 11.61159    -79.2 1.221e+04 7.138e-10
 11.62183    -81.5 1.100e+04 3.732e-10
 11.63948    -82.4 1.090e+04 3.543e-10
 11.65995    -83.8 1.139e+04 3.805e-10
 11.67505    -85.8 1.201e+04 6.268e-10
 11.68528    -86.3 1.151e+04 4.689e-10
 11.70088    -87.5 1.189e+04 8.758e-10
 11.72135    -87.9 1.245e+04 1.467e-09
 11.73850    -88.1 1.299e+04 2.055e-09
 11.74873    -88.2 1.252e+04 1.644e-09
 11.76228    -88.7 1.287e+04 1.909e-09
 11.78274    -89.7 1.293e+04 1.957e-09
 11.80195    -90.8 1.274e+04 1.796e-09
 11.81218    -91.0 1.248e+04 1.534e-09
 11.82368    -92.3 1.210e+04 1.293e-09
 11.84414    -93.8 1.167e+04 1.089e-09
 11.86461    -95.1 1.142e+04 9.891e-10
 11.87563    -96.5 1.139e+04 9.710e-10
 11.88587    -96.1 1.120e+04 8.762e-10
 11.90554    -97.6 1.126e+04 8.822e-10
 11.92601    -99.9 1.195e+04 1.105e-09
 11.93909   -102.2 1.284e+04 1.646e-09
 11.94932   -100.9 1.200e+04 1.149e-09
 11.96694   -102.9 1.271e+04 1.637e-09
 11.98741   -104.6 1.314e+04 2.172e-09
 12.00254   -105.9 1.318e+04 2.466e-09
 12.01277   -104.8 1.266e+04 1.887e-09
 12.02834   -105.8 1.264e+04 1.985e-09
 12.04881   -106.3 1.236e+04 1.962e-09
 12.06599   -106.4 1.181e+04 1.584e-09
 12.07622   -105.4 1.174e+04 1.553e-09
 12.08974   -105.4 1.125e+04 1.172e-09
 12.11021   -105.3 1.078e+04 7.761e-10
 12.12944   -105.3 1.033e+04 4.897e-10
 12.13968   -104.2 1.047e+04 5.777e-10
 12.15114   -104.6 1.007e+04 3.835e-10
 12.18194   -105.2 9.611e+03 2.720e-10
 12.20332   -104.8 9.105e+03 2.086e-10
 12.22379   -102.4 9.378e+03 2.314e-10
 12.26391   -101.5 8.987e+03 1.805e-10
 12.30484   -100.4 8.916e+03 1.713e-10
 12.33023    -99.5 8.926e+03 1.735e-10
 12.35069    -98.1 9.354e+03 2.219e-10
 12.38670    -97.7 9.510e+03 2.813e-10
 12.42764    -97.1 9.759e+03 3.764e-10
 12.45713    -96.4 9.973e+03 4.646e-10
 12.47760    -95.5 1.052e+04 6.787e-10
 12.50950    -95.0 1.056e+04 7.069e-10
 12.55044    -94.4 1.041e+04 6.819e-10
 12.58403    -93.5 9.949e+03 5.185e-10
 12.60450    -92.6 1.023e+04 6.122e-10
 12.63230    -91.5 9.595e+03 3.728e-10
 12.67324    -90.6 9.063e+03 2.195e-10
 12.71094    -89.7 8.666e+03 1.349e-10
 12.73140    -88.9 8.847e+03 1.530e-10
 12.75510    -88.1 8.603e+03 1.079e-10
 12.79604    -87.2 8.502e+03 9.117e-11
 12.83697    -86.2 8.489e+03 8.754e-11
 12.85831    -85.6 8.507e+03 8.749e-11
 12.87877    -85.2 8.683e+03 1.101e-10
 12.91884    -85.0 8.817e+03 1.121e-10
 12.95977    -85.3 9.188e+03 1.439e-10
 12.98521    -85.7 9.523e+03 2.252e-10
 13.00568    -85.2 9.557e+03 2.211e-10
 13.04164    -85.6 9.787e+03 2.992e-10
 13.08257    -85.9 9.964e+03 3.565e-10
 13.11211    -86.2 1.002e+04 3.736e-10
 13.13258    -85.8 9.999e+03 3.568e-10
 13.16251    -86.1 1.000e+04 3.580e-10
 13.18298    -86.7 1.002e+04 3.427e-10
 13.20537    -86.8 1.000e+04 3.203e-10
 13.23902    -86.8 9.963e+03 2.885e-10
 13.25949    -86.0 9.956e+03 2.879e-10
 13.28723    -85.7 9.854e+03 2.309e-10
 13.32817    -85.3 9.727e+03 1.679e-10
 13.36592    -84.8 9.602e+03 1.156e-10
 13.38639    -83.9 9.650e+03 1.061e-10
 13.41003    -83.4 9.520e+03 7.519e-11
 13.45097    -82.6 9.443e+03 6.228e-11
 13.49190    -81.6 9.436e+03 6.001e-11
 13.51329    -81.0 9.520e+03 6.058e-11
 13.53376    -80.1 9.669e+03 6.181e-11
 13.57377    -79.8 1.005e+04 8.230e-11
 13.61470    -79.4 1.024e+04 1.699e-10
 13.64020    -78.6 1.061e+04 3.389e-10
 13.66066    -77.3 1.069e+04 3.411e-10
 13.69657    -76.7 1.141e+04 6.647e-10
 13.73750    -76.3 1.215e+04 1.089e-09
 13.76710    -76.2 1.265e+04 1.333e-09
 13.77724    -75.8 1.320e+04 2.088e-09
 13.78847    -75.8 1.352e+04 2.319e-09
 13.80894    -75.8 1.361e+04 2.370e-09
 13.82940    -75.8 1.375e+04 2.155e-09
 13.84059    -75.9 1.346e+04 1.686e-09
 13.85082    -75.3 1.442e+04 2.944e-09
 13.87034    -75.5 1.399e+04 2.091e-09
 13.89080    -75.8 1.339e+04 1.496e-09
 13.90404    -76.1 1.270e+04 1.095e-09
 13.91427    -75.3 1.395e+04 1.694e-09
 13.93174    -75.5 1.316e+04 1.238e-09
 13.95220    -75.5 1.267e+04 1.032e-09
 13.98300    -75.3 1.238e+04 8.534e-10
 14.02091    -74.2 1.148e+04 5.195e-10
 14.04128    -73.5 1.206e+04 7.687e-10
 14.06487    -72.9 1.180e+04 6.500e-10
 14.10590    -70.6 1.106e+04 4.211e-10
 14.14683    -68.9 1.087e+04 3.292e-10
 14.16828    -67.0 1.083e+04 2.786e-10
 14.18874    -66.3 1.103e+04 4.267e-10
 14.22870    -64.4 1.103e+04 3.661e-10
 14.26963    -62.7 1.103e+04 3.498e-10
 14.29518    -61.3 1.115e+04 3.490e-10
 14.31565    -60.7 1.137e+04 5.004e-10
 14.35150    -59.8 1.152e+04 5.984e-10
 14.39243    -58.8 1.168e+04 7.779e-10
 14.42208    -57.8 1.175e+04 9.260e-10
 14.44255    -57.2 1.228e+04 1.566e-09
 14.47430    -56.4 1.233e+04 1.647e-09
 14.51523    -55.6 1.207e+04 1.545e-09
 14.54899    -54.5 1.152e+04 9.707e-10
 14.56945    -54.3 1.194e+04 1.357e-09
 14.59710    -53.1 1.109e+04 7.298e-10
 14.63803    -51.8 1.040e+04 3.813e-10
 14.67589    -50.3 1.009e+04 2.448e-10
 14.69636    -49.5 1.012e+04 2.783e-10
 14.71990    -47.7 9.956e+03 2.232e-10
 14.76083    -45.7 9.879e+03 2.090e-10
 14.80176    -43.5 9.863e+03 2.065e-10
 14.82326    -41.4 9.930e+03 2.194e-10
 14.84373    -40.4 9.962e+03 1.743e-10
 14.88363    -38.6 1.004e+04 2.133e-10
 14.92456    -36.6 1.015e+04 2.874e-10
 14.95017    -34.5 1.042e+04 3.846e-10
 14.97063    -33.8 1.036e+04 3.176e-10
 15.00643    -31.7 1.065e+04 4.320e-10
 15.04736    -29.5 1.094e+04 4.861e-10
 15.07707    -27.7 1.102e+04 4.814e-10
 15.09754    -26.8 1.112e+04 7.191e-10
 15.11129    -25.3 1.122e+04 6.723e-10
 15.13176    -24.8 1.122e+04 6.800e-10
 15.17016    -23.4 1.136e+04 5.666e-10
 15.20397    -22.5 1.134e+04 4.540e-10
 15.22444    -21.2 1.182e+04 1.092e-09
 15.25203    -20.2 1.179e+04 8.715e-10
 15.29296    -19.2 1.140e+04 5.473e-10
 15.33088    -18.3 1.097e+04 3.128e-10
 15.35134    -17.6 1.116e+04 4.776e-10
 15.37483    -16.6 1.072e+04 2.490e-10
 15.41576    -15.7 1.056e+04 1.578e-10
 15.45669    -14.4 1.032e+04 1.346e-10
 15.47825    -12.5 1.022e+04 1.283e-10
 15.49871    -12.1 1.013e+04 1.398e-10
 15.53856    -10.2 1.015e+04 1.380e-10
 15.57949     -8.9 1.034e+04 1.659e-10
 15.60515     -7.7 1.035e+04 2.584e-10
 15.62562     -6.8 1.020e+04 2.031e-10
 15.66136     -4.6 1.012e+04 3.306e-10
 15.70229     -2.0 1.040e+04 4.308e-10
 15.73205     -0.5 1.077e+04 4.221e-10
 15.75252     -0.3 1.059e+04 3.467e-10
 15.78416      0.9 1.066e+04 3.707e-10
 15.82509      2.2 1.051e+04 3.466e-10
 15.85896      4.1 1.031e+04 2.773e-10
 15.87942      5.7 1.021e+04 2.270e-10
 15.90696      7.0 1.074e+04 1.314e-10
 15.94789      6.9 1.091e+04 1.065e-10
 15.98586      7.4 1.033e+04 1.397e-10
 16.00633      8.3 1.064e+04 1.164e-10
 16.02976      9.7 1.002e+04 1.989e-10
 16.07069     12.0 9.681e+03 2.671e-10
 16.11162     14.2 9.658e+03 2.506e-10
 16.13323     15.4 9.726e+03 2.018e-10
 16.15370     16.4 1.016e+04 3.326e-10
 16.19349     16.9 1.022e+04 2.601e-10
 16.23442     16.3 1.037e+04 2.400e-10
 16.26014     14.4 1.065e+04 2.738e-10
 16.27027     14.4 1.089e+04 3.084e-10
 16.28540     13.5 1.122e+04 3.410e-10
 16.30586     11.7 1.124e+04 6.015e-10
 16.32339     11.2 1.150e+04 7.079e-10
 16.33363     11.1 1.125e+04 7.580e-10
 16.35713     10.0 1.189e+04 1.064e-09
 16.38704      7.8 1.227e+04 1.457e-09
 16.39718      7.8 1.211e+04 1.378e-09
 16.40820      7.5 1.199e+04 1.357e-09
 16.43899      6.0 1.163e+04 1.149e-09
 16.48002      2.7 1.108e+04 5.584e-10
 16.51394     -1.5 9.953e+03 3.700e-10
 16.53431     -1.9 9.746e+03 3.362e-10
 16.55146     -3.8 9.540e+03 2.840e-10
 16.57193     -4.7 9.712e+03 2.931e-10
 16.58743     -7.0 9.676e+03 2.858e-10
 16.59767     -8.5 1.002e+04 3.867e-10
 16.61286    -10.1 9.878e+03 4.955e-10
 16.63333    -11.3 9.940e+03 6.452e-10
 16.65088    -11.9 1.032e+04 8.192e-10
 16.66112    -11.6 1.060e+04 1.007e-09
 16.67426    -12.5 1.098e+04 1.112e-09
 16.69473    -13.7 1.114e+04 1.202e-09
 16.71434    -14.8 1.133e+04 1.276e-09
 16.72457    -15.7 1.106e+04 1.064e-09
 16.73566    -17.2 1.125e+04 1.064e-09
 16.75613    -19.3 1.133e+04 1.049e-09
 16.77659    -21.0 1.139e+04 1.058e-09
 16.78802    -22.0 1.136e+04 1.058e-09
 16.80859    -23.3 1.025e+04 6.187e-10
 16.84842    -24.9 9.942e+03 5.401e-10
 16.88936    -26.1 9.630e+03 5.011e-10
 16.91512    -26.1 9.460e+03 5.052e-10
 16.93559    -26.4 9.303e+03 4.788e-10
 16.97122    -25.4 9.229e+03 4.743e-10
 17.01216    -24.2 9.098e+03 4.349e-10
 17.03960    -22.9 8.992e+03 3.872e-10
 17.04900    -23.9 8.976e+03 3.954e-10
 17.06249    -24.7 8.727e+03 2.912e-10
 17.09402    -23.7 8.636e+03 2.680e-10
 17.13495    -22.6 8.616e+03 2.671e-10
 17.16893    -21.5 8.759e+03 3.188e-10
 17.18939    -22.7 8.685e+03 3.072e-10
 17.21682    -21.9 9.101e+03 4.034e-10
 17.25775    -21.9 9.688e+03 5.354e-10
 17.29583    -22.7 1.025e+04 7.063e-10
 17.31620    -26.1 1.071e+04 9.531e-10
 17.32919    -26.9 1.112e+04 1.079e-09
 17.34966    -28.3 1.151e+04 1.134e-09
 17.36932    -29.6 1.182e+04 1.167e-09
 17.37955    -32.6 1.204e+04 1.265e-09
 17.39059    -34.9 1.169e+04 1.048e-09
 17.41106    -37.7 1.116e+04 8.299e-10
 17.43152    -39.7 1.101e+04 7.259e-10
 17.44301    -41.2 1.086e+04 6.647e-10
 17.45324    -43.5 1.084e+04 6.601e-10
 17.47246    -44.5 1.050e+04 5.984e-10
 17.49292    -45.0 1.031e+04 5.527e-10
 17.50646    -45.1 1.022e+04 5.014e-10
 17.51669    -46.4 1.018e+04 4.711e-10
 17.54419    -46.2 1.006e+04 4.004e-10
 17.57011    -46.0 1.007e+04 3.800e-10
 17.59057    -48.2 1.011e+04 3.374e-10
 17.62615    -48.1 1.021e+04 3.319e-10
 17.66709    -47.9 1.029e+04 3.402e-10
 17.69701    -47.7 1.036e+04 3.673e-10
 17.71748    -49.8 1.038e+04 3.832e-10
 17.74895    -49.2 1.038e+04 4.266e-10
 17.78989    -48.4 1.033e+04 4.435e-10
 17.82391    -47.7 1.027e+04 4.431e-10
 17.84438    -49.1 1.004e+04 3.374e-10
 17.87175    -48.6 1.007e+04 3.364e-10
 17.91269    -48.2 1.020e+04 3.864e-10
 17.95082    -47.7 1.038e+04 4.700e-10
 17.97128    -49.3 1.032e+04 4.320e-10
 17.99455    -48.6 1.050e+04 5.005e-10
 18.03548    -47.9 1.054e+04 5.171e-10
 18.07642    -47.0 1.035e+04 4.749e-10
 18.09819    -45.9 1.004e+04 3.642e-10
 18.11865    -47.0 9.945e+03 3.424e-10
 18.15828    -45.8 9.691e+03 2.565e-10
 18.19922    -44.7 9.500e+03 2.097e-10
 18.22509    -43.3 9.403e+03 1.969e-10
 18.24556    -43.8 9.379e+03 2.031e-10
 18.28108    -42.1 9.349e+03 2.002e-10
 18.32202    -40.3 9.324e+03 1.994e-10
 18.35199    -38.6 9.270e+03 1.939e-10
 18.37246    -38.9 9.194e+03 1.864e-10
 18.40388    -37.2 9.132e+03 1.770e-10
 18.44482    -35.5 9.076e+03 1.739e-10
 18.47890    -33.6 9.008e+03 1.691e-10
 18.49936    -33.8 9.034e+03 1.717e-10
 18.52668    -31.8 8.977e+03 1.627e-10
 18.56762    -29.6 8.907e+03 1.469e-10
 18.60580    -27.4 8.831e+03 1.241e-10
 18.62627    -27.7 9.009e+03 1.864e-10
 18.64948    -25.6 8.910e+03 1.551e-10
 18.69042    -23.7 8.873e+03 1.308e-10
 18.73135    -22.0 8.898e+03 1.219e-10
 18.75317    -20.3 8.962e+03 1.329e-10
 18.77364    -20.6 9.353e+03 2.279e-10
 18.81322    -18.6 9.458e+03 2.684e-10
 18.85415    -16.4 9.561e+03 3.089e-10
 18.88008    -14.1 9.630e+03 3.213e-10
 18.90054    -14.9 9.869e+03 3.902e-10
 18.93601    -12.8 9.839e+03 3.798e-10
 18.96791    -10.6 9.824e+03 3.720e-10
 18.98837    -11.5 1.004e+04 4.574e-10
 19.00698     -9.3 9.986e+03 4.257e-10
 19.02745    -10.1 1.008e+04 4.256e-10
 19.05881     -8.0 1.005e+04 4.120e-10
 19.09975     -5.9 1.009e+04 4.242e-10
 19.13388     -3.6 1.014e+04 4.403e-10
 19.15435     -5.0 1.031e+04 4.609e-10
 19.18161     -3.0 1.045e+04 5.105e-10
 19.22255     -1.0 1.061e+04 5.757e-10
 19.26079      1.0 1.071e+04 6.218e-10
 19.28125     -0.3 1.104e+04 7.607e-10
 19.30441      1.6 1.099e+04 7.195e-10
 19.34535      3.5 1.086e+04 6.221e-10
 19.38628      5.3 1.072e+04 5.228e-10
 19.40816      7.0 1.061e+04 4.736e-10
 19.42862      5.7 1.080e+04 5.953e-10
 19.46815      7.7 1.079e+04 5.989e-10
 19.50908      9.8 1.087e+04 6.315e-10
 19.53506     11.8 1.104e+04 6.998e-10
 19.55553     11.0 1.099e+04 6.969e-10
 19.59095     13.1 1.107e+04 7.144e-10
 19.63188     15.1 1.111e+04 6.982e-10
 19.66196     17.0 1.111e+04 6.712e-10
 19.68243     16.3 1.074e+04 5.332e-10
 19.71375     18.3 1.071e+04 5.092e-10
 19.75468     20.4 1.067e+04 4.801e-10
 19.78887     22.5 1.068e+04 4.658e-10
 19.80933     22.1 1.040e+04 3.714e-10
 19.83654     24.1 1.045e+04 3.785e-10
 19.87748     26.0 1.063e+04 4.214e-10
 19.91577     27.7 1.096e+04 5.593e-10
 19.93624     26.6 1.087e+04 5.517e-10
 19.95934     28.9 1.173e+04 9.119e-10
 20.00028     29.7 1.258e+04 1.389e-09
 20.03088     28.7 1.327e+04 2.049e-09
 20.05125     29.0 1.338e+04 2.658e-09
 20.06295     29.8 1.350e+04 2.929e-09
 20.07318     29.5 1.286e+04 2.038e-09
 20.09218     30.4 1.283e+04 1.790e-09
 20.11265     30.9 1.272e+04 1.428e-09
 20.12640     31.1 1.254e+04 1.064e-09
 20.13663     29.6 1.183e+04 5.706e-10
 20.15358     29.3 1.160e+04 4.336e-10
 20.17405     29.0 1.137e+04 3.541e-10
 20.18985     29.2 1.122e+04 3.373e-10
 20.20008     28.5 1.090e+04 2.906e-10
 20.21498     28.8 1.092e+04 2.951e-10
 20.24578     30.4 1.106e+04 3.378e-10
 20.28681     32.1 1.118e+04 3.744e-10
 20.31695     33.7 1.146e+04 4.569e-10
 20.32708     32.1 1.122e+04 4.017e-10
 20.33778     32.6 1.139e+04 4.812e-10
 20.35825     32.9 1.162e+04 6.188e-10
 20.37871     33.3 1.185e+04 7.940e-10
 20.39044     33.8 1.208e+04 9.747e-10
 20.40067     33.2 1.207e+04 9.917e-10
 20.41965     33.8 1.231e+04 1.133e-09
 20.44011     34.2 1.252e+04 1.161e-09
 20.45389     34.5 1.253e+04 1.150e-09
 20.46412     33.7 1.237e+04 1.043e-09
 20.48105     33.8 1.242e+04 9.579e-10
 20.50151     33.9 1.244e+04 8.503e-10
 20.51734     33.8 1.242e+04 7.557e-10
 20.52758     32.7 1.226e+04 7.014e-10
 20.54245     32.8 1.219e+04 6.513e-10
 20.56291     33.0 1.214e+04 6.090e-10
 20.58079     33.3 1.212e+04 5.688e-10
 20.59103     32.5 1.207e+04 5.072e-10
 20.61418     32.4 1.209e+04 4.216e-10
 20.65521     32.8 1.209e+04 4.101e-10
 20.68581     32.9 1.206e+04 4.321e-10
 20.70618     33.0 1.216e+04 5.025e-10
 20.71793     33.4 1.235e+04 5.773e-10
 20.72816     32.6 1.236e+04 6.426e-10
 20.74711     32.9 1.258e+04 7.535e-10
 20.76758     33.0 1.281e+04 8.519e-10
 20.78138     32.9 1.284e+04 8.572e-10
 20.79162     32.7 1.291e+04 9.055e-10
 20.81884     32.7 1.289e+04 7.931e-10
 20.84503     31.9 1.299e+04 7.086e-10
 20.85517     31.0 1.330e+04 8.522e-10
 20.86991     29.7 1.352e+04 9.129e-10
 20.89038     28.4 1.376e+04 1.083e-09
 20.90626     27.4 1.398e+04 1.368e-09
 20.91393     26.6 1.446e+04 2.034e-09
 20.91852     25.4 1.451e+04 2.175e-09
 20.93131     24.8 1.469e+04 2.615e-09
 20.95178     24.3 1.487e+04 3.111e-09
 20.97174     24.0 1.506e+04 3.665e-09
 20.98197     23.0 1.505e+04 3.695e-09
 20.99271     22.9 1.519e+04 4.147e-09
 21.01318     22.8 1.523e+04 4.215e-09
 21.03365     22.6 1.518e+04 4.040e-09
 21.04542     22.3 1.506e+04 3.594e-09
 21.05566     21.8 1.452e+04 2.356e-09
 21.07458     21.0 1.437e+04 1.963e-09
 21.09505     20.0 1.407e+04 1.675e-09
 21.10888     19.3 1.367e+04 1.470e-09
 21.11911     18.5 1.308e+04 1.090e-09
 21.13598     18.5 1.278e+04 1.035e-09
 21.15644     18.7 1.262e+04 9.595e-10
 21.17233     19.1 1.251e+04 8.518e-10
 21.18256     19.1 1.223e+04 7.200e-10
 21.19738     19.2 1.218e+04 6.795e-10
 21.21784     19.7 1.200e+04 6.598e-10
 21.23578     19.8 1.201e+04 6.613e-10
 21.24611     19.8 1.178e+04 5.551e-10
 21.25888     20.6 1.179e+04 6.021e-10
 21.27924     20.9 1.180e+04 6.309e-10
 21.29923     21.4 1.185e+04 6.617e-10
 21.30946     21.3 1.166e+04 6.027e-10
 21.32018     21.7 1.174e+04 6.338e-10
 21.34064     22.2 1.182e+04 6.579e-10
 21.36111     22.6 1.188e+04 6.630e-10
 21.37292     23.0 1.188e+04 6.550e-10
 21.38315     23.0 1.173e+04 6.021e-10
 21.40204     23.3 1.173e+04 5.987e-10
 21.42251     23.5 1.171e+04 5.978e-10
 21.43637     23.7 1.170e+04 6.033e-10
 21.44660     23.6 1.158e+04 5.569e-10
 21.46344     23.7 1.156e+04 5.708e-10
 21.48391     23.9 1.154e+04 5.975e-10
 21.49982     24.2 1.151e+04 6.310e-10
 21.51005     24.1 1.139e+04 5.833e-10
 21.52484     24.5 1.135e+04 6.129e-10
 21.54531     24.9 1.137e+04 6.466e-10
 21.56327     25.2 1.153e+04 6.999e-10
 21.57350     25.0 1.141e+04 6.437e-10
 21.58624     25.0 1.161e+04 7.171e-10
 21.60671     24.9 1.182e+04 8.276e-10
 21.62672     24.8 1.199e+04 9.754e-10
 21.63696     24.6 1.177e+04 8.790e-10
 21.64764     24.6 1.190e+04 1.022e-09
 21.66811     24.6 1.203e+04 1.192e-09
 21.68858     24.8 1.222e+04 1.389e-09
 21.70041     25.0 1.244e+04 1.589e-09
 21.71064     25.0 1.202e+04 1.278e-09
 21.72951     25.1 1.212e+04 1.308e-09
 21.74998     25.2 1.210e+04 1.290e-09
 21.76386     25.3 1.203e+04 1.220e-09
 21.77409     25.3 1.170e+04 1.014e-09
 21.79091     25.5 1.160e+04 9.331e-10
 21.81138     25.7 1.149e+04 8.613e-10
 21.82731     26.2 1.137e+04 7.884e-10
 21.83755     26.3 1.117e+04 7.207e-10
 21.85231     26.9 1.110e+04 6.521e-10
 21.87041     27.2 1.103e+04 5.668e-10
 21.88064     27.0 1.095e+04 5.074e-10
 21.89076     27.0 1.092e+04 4.753e-10
 21.90110     27.1 1.090e+04 4.923e-10
 21.92414     27.7 1.088e+04 4.714e-10
 21.96507     28.4 1.086e+04 4.691e-10
 22.00600     29.2 1.088e+04 4.640e-10
 22.02810     30.0 1.084e+04 4.435e-10
 22.04856     30.4 1.054e+04 3.672e-10
 22.08787     31.4 1.045e+04 3.323e-10
 22.12880     32.4 1.041e+04 3.050e-10
 22.15500     33.2 1.051e+04 2.935e-10
 22.17547     33.2 1.048e+04 2.976e-10
 22.21067     33.8 1.071e+04 3.369e-10
 22.25160     34.4 1.095e+04 3.925e-10
 22.28181     34.9 1.102e+04 4.222e-10
 22.29194     34.8 1.101e+04 4.531e-10
 22.30257     34.8 1.114e+04 5.092e-10
 22.32304     34.9 1.128e+04 5.871e-10
 22.34351     34.9 1.147e+04 6.686e-10
 22.37430     34.5 1.171e+04 6.327e-10
 22.40881     34.2 1.177e+04 5.928e-10
 22.42927     34.2 1.163e+04 5.450e-10
 22.45627     34.0 1.166e+04 5.447e-10
 22.49720     33.8 1.174e+04 5.775e-10
 22.53571     33.5 1.197e+04 6.735e-10
 22.55618     33.1 1.236e+04 8.706e-10
 22.57907     32.9 1.254e+04 9.671e-10
 22.62000     32.9 1.249e+04 9.530e-10
 22.66093     33.1 1.227e+04 8.814e-10
 22.68298     33.0 1.205e+04 8.294e-10
 22.69312     32.5 1.214e+04 9.229e-10
 22.71191     32.7 1.192e+04 8.176e-10
 22.73237     33.0 1.173e+04 7.292e-10
 22.74634     33.4 1.157e+04 6.590e-10
 22.75657     33.2 1.157e+04 6.824e-10
 22.77331     33.7 1.142e+04 6.109e-10
 22.79377     34.2 1.134e+04 5.674e-10
 22.80979     34.7 1.132e+04 5.462e-10
 22.82002     34.5 1.126e+04 5.108e-10
 22.83456     34.8 1.125e+04 5.133e-10
 22.84480     35.1 1.145e+04 6.463e-10
 22.85517     35.7 1.161e+04 7.530e-10
 22.87324     35.9 1.176e+04 8.279e-10
 22.88347     35.7 1.179e+04 7.618e-10
 22.90644     36.4 1.235e+04 1.034e-09
 22.93689     37.0 1.269e+04 1.182e-09
 22.95736     36.1 1.260e+04 1.025e-09
 22.98840     37.0 1.261e+04 1.049e-09
 23.01048     37.5 1.226e+04 9.191e-10
 23.02061     37.1 1.218e+04 8.561e-10
 23.03937     37.4 1.213e+04 8.401e-10
 23.05984     37.9 1.228e+04 8.804e-10
 23.07383     38.6 1.252e+04 9.145e-10
 23.08406     37.9 1.236e+04 7.841e-10
 23.10077     38.4 1.277e+04 8.223e-10
 23.12124     38.9 1.341e+04 8.953e-10
 23.13728     39.2 1.431e+04 1.052e-09
 23.14752     37.6 1.455e+04 1.017e-09
 23.16217     36.9 1.586e+04 1.433e-09
 23.18264     35.9 1.684e+04 2.430e-09
 23.20073     35.0 1.765e+04 4.389e-09
 23.21097     33.8 1.738e+04 5.521e-09
 23.22357     34.0 1.818e+04 9.431e-09
 23.24404     34.7 1.920e+04 1.452e-08
 23.26419     34.7 2.012e+04 1.906e-08
 23.27442     33.6 1.971e+04 1.704e-08
 23.28497     32.8 1.961e+04 1.573e-08
 23.30544     32.4 1.901e+04 1.160e-08
 23.32590     30.9 1.813e+04 7.595e-09
 23.33787     27.9 1.805e+04 7.036e-09
 23.34810     26.8 1.739e+04 6.173e-09
 23.36684     22.9 1.812e+04 7.495e-09
 23.38730     19.7 1.907e+04 1.030e-08
 23.40127     15.8 2.120e+04 1.640e-08
 23.40634     13.0 2.300e+04 1.692e-08
 23.41279      7.7 2.520e+04 3.341e-08
 23.42302      3.8 2.504e+04 6.455e-08
 23.43295      1.1 2.431e+04 9.416e-08
 23.43807     -1.2 2.373e+04 1.022e-07
 23.44349     -3.0 2.334e+04 9.567e-08
 23.45372     -4.2 2.263e+04 7.039e-08
 23.46396     -5.0 2.185e+04 3.755e-08
 23.46979     -7.1 2.076e+04 1.836e-08
 23.47491     -8.0 2.040e+04 1.335e-08
 23.48959    -11.5 1.784e+04 5.505e-09
 23.51010    -15.9 1.461e+04 1.752e-09
 23.52823    -21.6 1.129e+04 5.771e-10
 23.53846    -24.3 1.020e+04 3.984e-10
 23.55104    -24.3 9.928e+03 3.730e-10
 23.57150    -23.6 9.952e+03 3.786e-10
 23.59168    -23.5 1.009e+04 4.024e-10
 23.60191    -23.4 1.008e+04 3.999e-10
 23.61244    -23.4 1.026e+04 4.577e-10
 23.63290    -23.5 1.042e+04 5.451e-10
 23.65337    -23.8 1.071e+04 6.447e-10
 23.66536    -24.3 1.115e+04 7.619e-10
 23.67560    -24.8 1.146e+04 8.824e-10
 23.69430    -25.6 1.180e+04 1.015e-09
 23.71477    -26.3 1.183e+04 1.035e-09
 23.72882    -27.1 1.181e+04 1.008e-09
 23.73905    -27.4 1.210e+04 1.212e-09
 23.75570    -28.0 1.181e+04 1.011e-09
 23.77617    -29.2 1.147e+04 8.385e-10
 23.79227    -29.4 1.092e+04 6.423e-10
 23.80250    -29.9 1.095e+04 6.502e-10
 23.80895    -30.2 1.084e+04 6.070e-10
 23.81919    -29.1 1.095e+04 6.404e-10
 23.83757    -29.3 1.056e+04 5.272e-10
 23.85572    -30.0 1.045e+04 4.700e-10
 23.86595    -30.8 1.037e+04 4.352e-10
 23.88883    -31.1 9.825e+03 3.291e-10
 23.92986    -30.3 9.510e+03 2.745e-10
 23.97080    -29.1 9.394e+03 2.568e-10
 23.99305    -27.8 9.460e+03 2.604e-10
 24.01352    -28.5 9.385e+03 2.454e-10
 24.05266    -26.8 9.411e+03 2.415e-10
 24.09360    -25.2 9.416e+03 2.294e-10
 24.11995    -23.7 9.405e+03 2.125e-10
 24.14042    -24.4 9.409e+03 2.083e-10
 24.17546    -23.0 9.389e+03 1.990e-10
 24.21640    -21.4 9.390e+03 1.953e-10
 24.24686    -19.8 9.397e+03 1.970e-10
 24.26733    -20.6 9.524e+03 2.178e-10
 24.29826    -18.9 9.598e+03 2.309e-10
 24.33920    -17.1 9.716e+03 2.509e-10
 24.37376    -15.4 9.883e+03 2.797e-10
 24.39423    -16.2 9.992e+03 3.071e-10
 24.42106    -14.3 1.008e+04 3.317e-10
 24.46200    -12.5 1.011e+04 3.556e-10
 24.49260    -11.7 1.007e+04 3.641e-10
 24.51070    -11.1 1.019e+04 4.053e-10
 24.52094    -11.8 1.017e+04 3.837e-10
 24.53343    -11.0 1.042e+04 4.528e-10
 24.55390    -10.1 1.071e+04 5.324e-10
 24.57416    -10.1 1.102e+04 6.116e-10
 24.58439    -11.1 1.097e+04 5.658e-10
 24.59483    -12.6 1.194e+04 8.038e-10
 24.61530    -16.1 1.366e+04 1.685e-09
 24.63577    -18.7 1.504e+04 3.682e-09
 24.64779    -20.2 1.566e+04 5.625e-09
 24.65803    -20.9 1.558e+04 5.901e-09
 24.67153    -21.4 1.624e+04 7.631e-09
 24.67947    -21.8 1.644e+04 7.985e-09
 24.68459    -22.2 1.621e+04 7.224e-09
 24.69712    -22.8 1.693e+04 8.291e-09
 24.71129    -25.6 1.701e+04 7.631e-09
 24.71636    -26.8 1.623e+04 5.752e-09
 24.72265    -27.4 1.611e+04 5.601e-09
 24.73805    -30.5 1.555e+04 5.083e-09
 24.75857    -32.2 1.484e+04 4.600e-09
 24.77311    -32.6 1.398e+04 3.701e-09
 24.77905    -32.5 1.351e+04 3.072e-09
 24.78498    -33.0 1.315e+04 2.600e-09
 24.79950    -33.0 1.279e+04 2.122e-09
 24.81997    -33.3 1.252e+04 1.566e-09
 24.83820    -34.5 1.244e+04 1.126e-09
 24.84843    -35.5 1.241e+04 1.096e-09
 24.86090    -38.0 1.240e+04 8.978e-10
 24.88137    -40.4 1.226e+04 9.063e-10
 24.90165    -42.0 1.210e+04 9.928e-10
 24.91188    -43.1 1.237e+04 1.191e-09
 24.92230    -44.1 1.239e+04 1.314e-09
 24.94276    -45.3 1.260e+04 1.427e-09
 24.96323    -46.7 1.271e+04 1.530e-09
 24.97533    -48.1 1.275e+04 1.642e-09
 24.98557    -49.3 1.253e+04 1.619e-09
 25.00416    -50.0 1.247e+04 1.662e-09
 25.02463    -51.2 1.278e+04 1.777e-09
 25.03879    -53.0 1.333e+04 1.940e-09
 25.04902    -54.7 1.316e+04 1.607e-09
 25.06556    -56.3 1.292e+04 1.809e-09
 25.08603    -56.5 1.257e+04 1.792e-09
 25.10224    -56.0 1.203e+04 1.552e-09
 25.11247    -56.1 1.167e+04 1.383e-09
 25.12696    -55.7 1.148e+04 1.074e-09
 25.14743    -55.4 1.125e+04 6.480e-10
 25.16569    -56.9 1.123e+04 4.142e-10
 25.17592    -57.2 1.119e+04 3.369e-10
 25.19869    -56.7 1.049e+04 2.138e-10
 25.23973    -56.5 1.017e+04 1.870e-10
 25.28066    -56.0 1.026e+04 2.179e-10
 25.30302    -54.6 1.051e+04 3.038e-10
 25.32349    -54.5 1.049e+04 3.031e-10
 25.36253    -53.0 1.069e+04 3.911e-10
 25.39313    -53.0 1.079e+04 4.744e-10
 25.41350    -53.0 1.086e+04 5.322e-10
 25.42973    -52.9 1.096e+04 5.735e-10
 25.43996    -52.8 1.087e+04 4.914e-10
 25.45443    -52.9 1.092e+04 5.004e-10
 25.47490    -52.7 1.084e+04 4.636e-10
 25.49318    -53.0 1.085e+04 4.514e-10
 25.50341    -52.7 1.071e+04 4.093e-10
 25.52616    -51.9 1.056e+04 3.896e-10
 25.55683    -50.7 1.010e+04 2.876e-10
 25.57730    -50.1 9.791e+03 2.254e-10
 25.60812    -49.7 9.726e+03 1.803e-10
 25.64906    -49.2 9.729e+03 1.802e-10
 25.68373    -48.7 9.792e+03 1.893e-10
 25.70420    -48.5 9.865e+03 1.984e-10
 25.73092    -48.4 9.977e+03 2.374e-10
 25.77186    -48.2 1.009e+04 2.723e-10
 25.81064    -47.8 1.006e+04 2.772e-10
 25.83110    -47.5 1.004e+04 2.720e-10
 25.85372    -46.7 9.871e+03 2.256e-10
 25.89466    -46.0 9.748e+03 1.736e-10
 25.93559    -45.5 9.815e+03 1.496e-10
 25.95801    -44.9 9.874e+03 1.524e-10
 25.97847    -45.0 9.880e+03 1.507e-10
 26.01746    -44.5 1.002e+04 1.694e-10
 26.05839    -44.0 1.022e+04 2.076e-10
 26.08491    -43.7 1.049e+04 2.643e-10
 26.10538    -44.2 1.050e+04 2.600e-10
 26.14026    -44.2 1.078e+04 3.289e-10
 26.18119    -43.9 1.091e+04 3.963e-10
 26.21181    -44.2 1.118e+04 4.768e-10
 26.23228    -45.3 1.118e+04 4.743e-10
 26.26306    -46.5 1.151e+04 6.143e-10
 26.30399    -47.4 1.165e+04 7.295e-10
 26.33872    -48.6 1.179e+04 8.554e-10
 26.35909    -49.5 1.179e+04 8.805e-10
 26.37543    -50.8 1.196e+04 9.883e-10
 26.39589    -51.7 1.187e+04 1.053e-09
 26.41221    -52.2 1.179e+04 1.067e-09
 26.42244    -53.1 1.165e+04 1.013e-09
 26.43683    -53.4 1.160e+04 1.002e-09
 26.45729    -53.0 1.125e+04 8.666e-10
 26.47566    -53.2 1.117e+04 8.060e-10
 26.48589    -53.9 1.100e+04 7.217e-10
 26.49823    -53.3 1.062e+04 5.333e-10
 26.51869    -53.7 1.059e+04 4.867e-10
 26.53911    -53.3 1.030e+04 3.708e-10
 26.55958    -54.2 1.025e+04 3.450e-10
 26.58009    -53.8 1.015e+04 3.294e-10
 26.60056    -53.8 1.015e+04 3.298e-10
 26.61280    -53.5 1.024e+04 3.789e-10
 26.63336    -54.8 1.018e+04 3.760e-10
 26.67239    -53.5 1.025e+04 4.421e-10
 26.70161    -52.9 1.042e+04 5.238e-10
 26.72208    -52.2 1.014e+04 3.947e-10
 26.73980    -52.2 1.016e+04 4.250e-10
 26.76026    -52.9 1.020e+04 4.087e-10
 26.79519    -52.6 1.014e+04 4.008e-10
 26.82579    -53.0 1.010e+04 4.008e-10
 26.84616    -53.0 1.012e+04 4.046e-10
 26.86660    -52.7 1.004e+04 4.287e-10
 26.88717    -52.7 9.969e+03 3.971e-10
 26.91799    -52.1 9.972e+03 4.366e-10
 26.95892    -51.6 1.002e+04 4.671e-10
 26.99370    -50.6 9.995e+03 4.762e-10
 27.01417    -50.7 9.954e+03 4.513e-10
 27.03046    -50.0 9.988e+03 4.701e-10
 27.05082    -50.4 1.023e+04 5.104e-10
 27.06719    -51.4 1.067e+04 6.262e-10
 27.07743    -51.8 1.088e+04 6.755e-10
 27.09176    -52.9 1.132e+04 9.380e-10
 27.11222    -53.5 1.161e+04 1.272e-09
 27.13064    -53.9 1.186e+04 1.587e-09
 27.14088    -53.9 1.199e+04 1.698e-09
 27.15316    -53.7 1.187e+04 1.643e-09
 27.17362    -53.5 1.156e+04 1.418e-09
 27.19409    -53.8 1.124e+04 1.120e-09
 27.21456    -54.5 1.087e+04 8.338e-10
 27.23502    -56.0 1.052e+04 6.841e-10
 27.25549    -56.9 1.035e+04 6.558e-10
 27.26778    -57.6 1.045e+04 6.846e-10
 27.27801    -57.3 1.045e+04 6.672e-10
 27.29642    -57.8 1.058e+04 7.386e-10
 27.31689    -57.8 1.062e+04 7.909e-10
 27.33123    -57.9 1.060e+04 7.954e-10
 27.34147    -57.7 1.071e+04 8.399e-10
 27.35782    -58.0 1.073e+04 8.406e-10
 27.37829    -58.9 1.115e+04 8.710e-10
 27.39468    -61.2 1.213e+04 1.030e-09
 27.40492    -62.7 1.350e+04 1.715e-09
 27.41922    -64.4 1.434e+04 2.337e-09
 27.43969    -65.4 1.442e+04 2.774e-09
 27.45814    -65.9 1.400e+04 2.773e-09
 27.46837    -65.8 1.474e+04 3.576e-09
 27.48062    -65.6 1.375e+04 2.741e-09
 27.50109    -67.0 1.317e+04 2.078e-09
 27.52169    -67.1 1.209e+04 1.262e-09
 27.54225    -67.6 1.211e+04 1.250e-09
 27.57292    -67.9 1.170e+04 1.042e-09
 27.61385    -66.8 1.159e+04 1.023e-09
 27.64869    -64.3 1.156e+04 1.069e-09
 27.66915    -64.3 1.179e+04 1.204e-09
 27.67590    -62.4 1.178e+04 1.242e-09
 27.68604    -61.5 1.144e+04 1.111e-09
 27.70576    -61.4 1.182e+04 1.230e-09
 27.72218    -61.1 1.237e+04 1.445e-09
 27.73241    -61.3 1.271e+04 1.632e-09
 27.74669    -61.3 1.320e+04 2.004e-09
 27.76715    -61.2 1.366e+04 2.538e-09
 27.78563    -60.8 1.409e+04 3.217e-09
 27.79586    -61.1 1.445e+04 3.524e-09
 27.80809    -61.0 1.521e+04 4.678e-09
 27.82855    -61.5 1.625e+04 6.336e-09
 27.84902    -62.7 1.762e+04 9.016e-09
 27.86949    -65.6 1.952e+04 1.762e-08
 27.88995    -67.5 1.985e+04 1.935e-08
 27.91042    -68.9 1.964e+04 1.749e-08
 27.92277    -69.9 1.890e+04 1.448e-08
 27.93300    -69.6 1.823e+04 1.119e-08
 27.95135    -70.4 1.714e+04 6.155e-09
 27.97182    -72.3 1.565e+04 3.104e-09
 27.98622    -74.7 1.383e+04 1.774e-09
 27.99645    -75.4 1.289e+04 1.175e-09
 28.01275    -76.0 1.218e+04 8.630e-10
 28.03322    -75.9 1.193e+04 7.215e-10
 28.04967    -75.3 1.170e+04 6.334e-10
 28.05990    -74.9 1.151e+04 4.789e-10
 28.07415    -74.3 1.124e+04 4.362e-10
 28.09462    -73.5 1.111e+04 3.722e-10
 28.11312    -73.2 1.105e+04 3.622e-10
 28.12335    -72.8 1.094e+04 3.088e-10
 28.13555    -71.9 1.083e+04 3.239e-10
 28.15602    -71.6 1.089e+04 3.416e-10
 28.17649    -70.7 1.084e+04 3.797e-10
 28.19695    -69.5 1.081e+04 3.637e-10
 28.21742    -68.9 1.078e+04 4.223e-10
 28.23789    -68.3 1.098e+04 4.816e-10
 28.25026    -68.5 1.136e+04 5.790e-10
 28.26049    -68.2 1.135e+04 4.885e-10
 28.27882    -69.6 1.219e+04 7.137e-10
 28.29929    -72.2 1.361e+04 1.328e-09
 28.31371    -74.3 1.441e+04 2.635e-09
 28.32394    -73.7 1.402e+04 2.212e-09
 28.34022    -72.9 1.411e+04 3.472e-09
 28.36069    -72.0 1.397e+04 3.792e-09
 28.37716    -71.0 1.382e+04 3.015e-09
 28.38739    -70.6 1.349e+04 2.735e-09
 28.40162    -70.5 1.284e+04 1.907e-09
 28.42209    -71.4 1.209e+04 7.118e-10
 28.44061    -72.2 1.175e+04 6.323e-10
 28.45094    -70.7 1.179e+04 6.743e-10
 28.47345    -71.1 1.049e+04 2.816e-10
 28.51438    -70.7 9.841e+03 1.904e-10
 28.55531    -69.2 9.569e+03 1.727e-10
 28.57795    -67.3 9.454e+03 1.641e-10
 28.59841    -66.1 9.295e+03 1.318e-10
 28.62992    -64.3 9.158e+03 1.194e-10
 28.65039    -63.8 9.173e+03 1.175e-10
 28.67811    -62.1 9.024e+03 1.048e-10
 28.70485    -60.5 9.007e+03 9.399e-11
 28.72532    -59.2 8.834e+03 7.077e-11
 28.75998    -57.8 8.871e+03 6.739e-11
 28.80091    -56.3 8.867e+03 7.159e-11
 28.83175    -54.8 8.906e+03 7.990e-11
 28.85222    -53.7 8.812e+03 5.889e-11
 28.88278    -52.3 8.891e+03 7.073e-11
 28.92371    -50.8 8.995e+03 8.869e-11
 28.95866    -49.4 9.097e+03 1.110e-10
 28.97912    -48.5 9.037e+03 9.678e-11
 29.00558    -47.0 9.140e+03 1.191e-10
 29.04651    -45.6 9.217e+03 1.377e-10
 29.08556    -44.3 9.233e+03 1.511e-10
 29.10603    -43.5 9.199e+03 1.394e-10
 29.12838    -42.5 9.240e+03 1.533e-10
 29.16931    -41.8 9.474e+03 1.750e-10
 29.21024    -41.3 9.716e+03 2.443e-10
 29.23293    -40.4 9.936e+03 3.396e-10
 29.25340    -39.7 9.919e+03 3.374e-10
 29.29211    -38.8 9.928e+03 3.794e-10
 29.33304    -37.7 9.776e+03 3.500e-10
 29.35983    -36.5 9.498e+03 2.873e-10
 29.38030    -35.6 9.360e+03 2.596e-10
 29.41491    -34.5 9.110e+03 2.030e-10
 29.45584    -33.5 8.904e+03 1.679e-10
 29.48674    -32.4 8.743e+03 1.500e-10
 29.50720    -31.4 8.741e+03 1.433e-10
 29.53771    -30.1 8.640e+03 1.334e-10
 29.57864    -28.7 8.551e+03 1.244e-10
 29.61364    -27.3 8.451e+03 1.164e-10
 29.63411    -26.2 8.458e+03 1.160e-10
 29.66051    -24.8 8.396e+03 1.126e-10
 29.70144    -23.5 8.399e+03 1.139e-10
 29.74055    -22.4 8.430e+03 1.214e-10
 29.76101    -21.4 8.590e+03 1.317e-10
 29.78331    -20.6 8.795e+03 1.656e-10
 29.82424    -20.1 9.083e+03 2.222e-10
 29.86518    -19.9 9.330e+03 2.938e-10
 29.88792    -19.8 9.398e+03 3.412e-10
 29.90838    -19.1 9.750e+03 4.333e-10
 29.94704    -19.0 9.599e+03 3.975e-10
 29.98798    -18.8 9.307e+03 3.254e-10
 30.01482    -18.6 9.012e+03 2.556e-10
 30.03529    -18.0 9.067e+03 2.561e-10
 30.06984    -17.9 8.827e+03 1.991e-10
 30.11078    -17.8 8.715e+03 1.783e-10
 30.14172    -17.4 8.704e+03 1.781e-10
 30.16219    -16.9 8.796e+03 1.930e-10
 30.19264    -16.3 8.861e+03 2.074e-10
 30.23357    -15.8 8.905e+03 2.098e-10
 30.26863    -15.3 8.880e+03 1.963e-10
 30.28909    -14.9 9.061e+03 2.348e-10
 30.31544    -14.6 8.984e+03 1.972e-10
 30.35637    -14.5 8.857e+03 1.539e-10
 30.39553    -14.7 8.679e+03 1.264e-10
 30.41600    -14.3 8.838e+03 1.391e-10
 30.43824    -14.4 8.694e+03 1.338e-10
 30.47917    -14.1 8.672e+03 1.412e-10
 30.52011    -13.6 8.759e+03 1.695e-10
 30.54290    -13.0 9.022e+03 2.203e-10
 30.56056    -12.6 8.971e+03 2.022e-10
 30.57870    -13.2 9.065e+03 2.184e-10
 30.60197    -12.7 9.374e+03 2.701e-10
 30.64291    -12.7 9.613e+03 3.107e-10
 30.66980    -12.8 9.778e+03 3.362e-10
 30.69027    -12.3 9.783e+03 3.372e-10
 30.72477    -12.6 9.858e+03 3.541e-10
 30.76571    -13.0 9.868e+03 3.653e-10
 30.79671    -13.3 9.823e+03 3.651e-10
 30.81717    -12.5 9.738e+03 3.377e-10
 30.84757    -12.6 9.609e+03 3.160e-10
 30.88851    -12.7 9.584e+03 3.126e-10
 30.92361    -12.8 9.619e+03 3.253e-10
 30.94408    -11.9 9.478e+03 2.825e-10
 30.97037    -12.0 9.515e+03 3.093e-10
 31.01131    -11.9 9.527e+03 3.146e-10
 31.05052    -11.6 9.445e+03 3.027e-10
 31.07098    -10.9 9.385e+03 2.871e-10
 31.09317    -10.6 9.275e+03 2.680e-10
 31.13410    -10.1 9.140e+03 2.410e-10
 31.17504     -9.5 9.008e+03 2.131e-10
 31.19789     -8.7 8.872e+03 1.834e-10
 31.21835     -7.6 8.798e+03 1.634e-10
 31.25690     -6.9 8.677e+03 1.352e-10
 31.29784     -6.1 8.566e+03 1.218e-10
 31.32479     -5.3 8.553e+03 1.226e-10
 31.34526     -4.0 8.527e+03 1.076e-10
 31.37970     -3.1 8.557e+03 1.168e-10
 31.42064     -2.0 8.844e+03 1.450e-10
 31.45169     -1.0 9.057e+03 1.652e-10
 31.47216      0.4 9.068e+03 1.555e-10
 31.49217      0.3 9.242e+03 1.749e-10
 31.51254     -1.9 1.076e+04 2.739e-10
 31.52518     -8.7 1.431e+04 1.154e-09
 31.53483     -5.7 1.343e+04 7.102e-10
 31.54266     -3.7 1.253e+04 4.970e-10
 31.55347    -10.5 1.517e+04 2.288e-09
 31.57394    -12.0 1.508e+04 4.694e-09
 31.58863    -11.4 1.481e+04 4.539e-09
 31.59887    -10.6 1.481e+04 4.460e-09
 31.61487    -10.0 1.444e+04 3.453e-09
 31.63534    -10.3 1.465e+04 1.460e-09
 31.66614    -16.1 1.506e+04 4.142e-10
 31.70550    -24.7 1.011e+04 2.014e-10
 31.72597    -22.0 1.145e+04 1.917e-10
 31.74810    -23.4 9.800e+03 1.866e-10
 31.78904    -22.4 9.728e+03 1.808e-10
 31.82997    -20.8 9.737e+03 1.835e-10
 31.85287    -19.0 9.800e+03 1.930e-10
 31.87334    -18.6 9.880e+03 2.032e-10
 31.91184    -16.7 1.006e+04 2.488e-10
 31.95277    -14.5 1.030e+04 3.135e-10
 31.97977    -12.2 1.050e+04 4.047e-10
 32.00024    -11.9 1.070e+04 4.738e-10
 32.03463     -9.4 1.094e+04 6.191e-10
 32.07557     -6.4 1.171e+04 9.602e-10
 32.10668     -4.3 1.276e+04 1.562e-09
 32.12714     -4.3 1.249e+04 1.361e-09
 32.14710     -3.6 1.322e+04 2.147e-09
 32.16747     -2.5 1.353e+04 2.695e-09
 32.18017     -1.1 1.379e+04 3.034e-09
 32.19040     -0.5 1.327e+04 2.252e-09
 32.20841      0.5 1.351e+04 2.367e-09
 32.22887      1.1 1.392e+04 2.583e-09
 32.24362      1.1 1.452e+04 3.074e-09
 32.25385      1.2 1.366e+04 2.035e-09
 32.26981      0.9 1.441e+04 2.658e-09
 32.29027      0.5 1.545e+04 3.903e-09
 32.30707      0.1 1.654e+04 6.041e-09
 32.31730      0.4 1.532e+04 3.615e-09
 32.33121     -0.2 1.628e+04 5.270e-09
 32.35167     -0.7 1.690e+04 7.092e-09
 32.37052     -1.2 1.715e+04 8.490e-09
 32.38076     -1.2 1.599e+04 4.880e-09
 32.39261     -2.0 1.589e+04 5.402e-09
 32.41307     -2.5 1.566e+04 5.259e-09
 32.43354     -2.7 1.514e+04 4.618e-09
 32.44421     -2.8 1.456e+04 3.696e-09
 32.45444     -2.9 1.390e+04 2.710e-09
 32.47447     -3.1 1.349e+04 2.212e-09
 32.49494     -3.6 1.312e+04 1.805e-09
 32.50681     -3.7 1.260e+04 1.545e-09
 32.50930     -3.7 1.267e+04 1.496e-09
 32.51789     -3.6 1.239e+04 1.319e-09
 32.53587     -3.8 1.225e+04 1.295e-09
 32.56667     -2.6 1.208e+04 1.220e-09
 32.59737     -1.5 1.220e+04 1.346e-09
 32.61774     -1.5 1.249e+04 1.553e-09
 32.63456     -1.9 1.318e+04 1.961e-09
 32.64480     -2.1 1.341e+04 2.072e-09
 32.65867     -3.4 1.443e+04 3.018e-09
 32.67914     -5.3 1.542e+04 4.766e-09
 32.69802     -5.1 1.635e+04 7.654e-09
 32.70825     -5.0 1.632e+04 7.675e-09
 32.72007     -4.6 1.660e+04 9.471e-09
 32.74054     -4.2 1.641e+04 9.096e-09
 32.76100     -3.0 1.551e+04 6.951e-09
 32.77170     -1.6 1.435e+04 4.111e-09
 32.78193     -1.3 1.391e+04 3.418e-09
 32.80194     -1.4 1.287e+04 1.799e-09
 32.82240     -2.6 1.191e+04 9.560e-10
 32.83515     -3.9 1.098e+04 5.762e-10
 32.84539     -3.0 1.094e+04 6.059e-10
 32.86334     -3.2 1.054e+04 4.808e-10
 32.88380     -2.8 1.037e+04 4.385e-10
 32.89860     -2.4 1.038e+04 4.403e-10
 32.90884     -1.6 1.037e+04 4.333e-10
 32.93507     -0.9 1.037e+04 4.210e-10
 32.96215     -0.7 1.054e+04 4.989e-10
 32.97229      0.3 1.043e+04 4.688e-10
 32.98614      0.2 1.070e+04 5.727e-10
 33.00660      0.0 1.093e+04 7.202e-10
 33.02551     -0.1 1.103e+04 8.416e-10
 33.03574      0.8 1.104e+04 8.266e-10
 33.04754      0.5 1.106e+04 8.917e-10
 33.06800     -0.1 1.103e+04 8.724e-10
 33.08847     -0.9 1.094e+04 7.985e-10
 33.09919     -2.3 1.080e+04 6.932e-10
 33.10943     -1.5 1.092e+04 7.682e-10
 33.12940     -3.5 1.076e+04 6.680e-10
 33.14987     -5.6 1.058e+04 6.323e-10
 33.16264     -7.7 1.056e+04 6.422e-10
 33.17288     -7.5 1.065e+04 6.963e-10
 33.19080     -9.2 1.061e+04 7.107e-10
 33.21127    -11.0 1.072e+04 7.652e-10
 33.22610    -12.6 1.084e+04 8.183e-10
 33.23633    -12.7 1.074e+04 7.927e-10
 33.25220    -14.6 1.095e+04 8.822e-10
 33.27267    -15.7 1.101e+04 9.395e-10
 33.28965    -16.9 1.133e+04 1.144e-09
 33.31021    -17.0 1.101e+04 9.927e-10
 33.34450    -18.8 1.134e+04 1.106e-09
 33.38543    -20.3 1.110e+04 9.431e-10
 33.41665    -21.6 1.045e+04 6.262e-10
 33.43711    -21.7 1.045e+04 6.300e-10
 33.45697    -22.3 1.024e+04 5.095e-10
 33.47097    -23.0 1.014e+04 4.227e-10
 33.48120    -22.4 1.010e+04 4.149e-10
 33.49014    -23.1 9.986e+03 3.375e-10
 33.50037    -23.3 1.008e+04 3.725e-10
 33.51827    -24.1 9.983e+03 3.160e-10
 33.53873    -24.9 1.002e+04 3.192e-10
 33.55359    -25.8 1.022e+04 3.554e-10
 33.56382    -26.2 1.031e+04 3.996e-10
 33.57967    -27.1 1.064e+04 5.235e-10
 33.60013    -28.6 1.152e+04 8.548e-10
 33.61704    -30.6 1.282e+04 1.654e-09
 33.62727    -31.8 1.314e+04 2.024e-09
 33.64107    -32.3 1.407e+04 3.501e-09
 33.66153    -32.0 1.475e+04 4.926e-09
 33.68049    -31.9 1.526e+04 5.734e-09
 33.69073    -32.6 1.519e+04 5.502e-09
 33.70247    -33.7 1.579e+04 5.531e-09
 33.72293    -36.0 1.587e+04 5.201e-09
 33.74340    -38.1 1.525e+04 4.566e-09
 33.75418    -39.5 1.445e+04 3.843e-09
 33.76441    -40.5 1.404e+04 3.307e-09
 33.78433    -41.2 1.369e+04 2.771e-09
 33.80480    -42.1 1.323e+04 2.215e-09
 33.81763    -43.2 1.258e+04 1.660e-09
 33.82786    -43.9 1.257e+04 1.652e-09
 33.84573    -44.9 1.186e+04 1.236e-09
 33.86620    -46.1 1.145e+04 9.510e-10
 33.88108    -47.7 1.155e+04 8.753e-10
 33.89131    -49.2 1.206e+04 9.366e-10
 33.90713    -52.4 1.269e+04 1.160e-09
 33.92760    -54.6 1.290e+04 1.676e-09
 33.94453    -55.2 1.287e+04 2.209e-09
 33.95477    -55.5 1.264e+04 2.227e-09
 33.96853    -54.2 1.215e+04 2.340e-09
 33.98900    -52.8 1.213e+04 2.049e-09
 34.00799    -52.2 1.214e+04 1.509e-09
 34.01822    -52.2 1.162e+04 1.058e-09
 34.02993    -53.4 1.158e+04 6.251e-10
 34.05040    -56.0 1.050e+04 3.787e-10
 34.07087    -57.8 9.468e+03 2.894e-10
 34.08167    -58.2 9.335e+03 2.698e-10
 34.09190    -57.8 9.133e+03 2.261e-10
 34.11180    -57.2 9.146e+03 2.578e-10
 34.13227    -57.2 9.315e+03 2.792e-10
 34.14512    -56.8 9.556e+03 3.661e-10
 34.15536    -56.0 9.368e+03 3.078e-10
 34.17320    -56.0 9.455e+03 3.228e-10
 34.19367    -55.1 9.632e+03 4.830e-10
 34.20857    -54.7 9.806e+03 5.372e-10
 34.21891    -53.9 9.549e+03 4.015e-10
 34.23470    -53.6 9.846e+03 5.615e-10
 34.25507    -53.7 9.990e+03 6.065e-10
 34.28586    -53.6 1.011e+04 5.903e-10
 34.32544    -53.4 9.930e+03 5.934e-10
 34.34591    -51.5 1.017e+04 6.747e-10
 34.36783    -50.8 1.022e+04 7.245e-10
 34.40876    -50.8 1.055e+04 7.430e-10
 34.43522    -49.5 1.052e+04 7.743e-10
 34.44535    -48.7 1.033e+04 6.745e-10
 34.45973    -49.6 1.051e+04 7.165e-10
 34.47261    -49.8 1.062e+04 9.305e-10
 34.48285    -48.6 1.078e+04 1.010e-09
 34.50066    -48.6 1.105e+04 1.126e-09
 34.52113    -48.3 1.096e+04 1.143e-09
 34.53607    -47.8 1.086e+04 1.065e-09
 34.54630    -46.5 1.101e+04 1.142e-09
 34.56206    -46.1 1.089e+04 9.406e-10
 34.58253    -46.6 1.078e+04 8.041e-10
 34.59962    -48.4 1.058e+04 5.952e-10
 34.60985    -46.2 1.087e+04 6.832e-10
 34.62346    -48.5 1.037e+04 5.864e-10
 34.65426    -47.6 1.018e+04 5.595e-10
 34.69529    -47.6 1.003e+04 6.177e-10
 34.72662    -46.4 9.857e+03 6.148e-10
 34.74708    -44.5 1.011e+04 7.586e-10
 34.77716    -42.7 9.678e+03 4.101e-10
 34.81809    -43.5 9.101e+03 1.666e-10
 34.85352    -44.4 8.404e+03 1.373e-10
 34.87399    -41.8 8.432e+03 1.358e-10
 34.89996    -41.4 8.114e+03 1.273e-10
 34.94089    -39.7 8.078e+03 1.487e-10
 34.98042    -37.8 8.256e+03 1.655e-10
 35.00089    -36.3 8.042e+03 1.429e-10
 35.02276    -34.6 8.279e+03 1.624e-10
 35.06369    -32.9 8.432e+03 1.779e-10
 35.10462    -31.2 8.383e+03 1.844e-10
 35.12780    -29.0 8.304e+03 1.741e-10
 35.14826    -27.4 8.206e+03 1.653e-10
 35.18649    -25.3 8.141e+03 1.424e-10
 35.22742    -23.5 8.111e+03 1.236e-10
 35.25470    -21.8 8.127e+03 1.219e-10
 35.27517    -20.1 7.948e+03 1.027e-10
 35.30929    -18.4 7.986e+03 1.050e-10
 35.35022    -16.8 8.095e+03 1.258e-10
 35.38160    -15.1 8.289e+03 1.737e-10
 35.40207    -13.8 8.084e+03 1.259e-10
 35.43209    -12.0 8.247e+03 1.820e-10
 35.47302     -9.7 8.455e+03 2.428e-10
 35.50851     -7.5 8.530e+03 2.517e-10
 35.52897     -6.4 8.268e+03 1.954e-10
 35.55489     -4.2 8.228e+03 1.863e-10
 35.59582     -2.0 8.116e+03 1.549e-10
 35.63541     -0.1 8.013e+03 1.185e-10
 35.65588      0.8 7.852e+03 1.062e-10
 35.67769      2.7 7.780e+03 8.577e-11
 35.71862      4.5 7.732e+03 7.367e-11
 35.75956      6.5 7.703e+03 6.716e-11
 35.78278      8.7 7.692e+03 6.340e-11
 35.80325      9.6 7.635e+03 6.143e-11
 35.84142     11.7 7.660e+03 5.874e-11
 35.88235     13.8 7.703e+03 5.780e-11
 35.90968     15.8 7.766e+03 5.897e-11
 35.93015     16.7 7.738e+03 5.822e-11
 35.96422     18.7 7.810e+03 6.170e-11
 36.00515     20.7 7.881e+03 6.771e-11
 36.03659     22.8 7.939e+03 7.403e-11
 36.05705     23.6 7.933e+03 7.408e-11
 36.08702     25.8 7.959e+03 7.604e-11
 36.12795     28.0 7.974e+03 7.445e-11
 36.16349     30.2 8.002e+03 7.363e-11
 36.18396     30.9 7.974e+03 6.961e-11
 36.20982     33.1 7.993e+03 6.995e-11
 36.25075     35.3 8.070e+03 7.293e-11
 36.29039     37.5 8.190e+03 8.134e-11
 36.31086     38.3 8.120e+03 7.843e-11
 36.33262     40.4 8.254e+03 9.310e-11
 36.36363     42.5 8.441e+03 1.165e-10
 36.38409     42.5 8.443e+03 1.168e-10
 36.41449     44.6 8.709e+03 1.523e-10
 36.43776     46.7 9.083e+03 2.092e-10
 36.45823     47.0 8.825e+03 1.754e-10
 36.49635     49.0 9.218e+03 2.418e-10
 36.53729     50.7 9.580e+03 3.257e-10
 36.56467     52.1 9.721e+03 3.873e-10
 36.58514     52.5 9.632e+03 3.709e-10
 36.60882     53.4 9.841e+03 4.594e-10
 36.62793     54.3 1.000e+04 5.330e-10
 36.63816     54.3 9.942e+03 5.257e-10
 36.64966     55.2 1.007e+04 5.819e-10
 36.67012     55.9 1.014e+04 6.228e-10
 36.69059     56.7 1.015e+04 6.457e-10
 36.70161     57.5 1.014e+04 6.473e-10
 36.71184     57.6 1.014e+04 6.893e-10
 36.73152     58.6 1.011e+04 6.872e-10
 36.75199     59.6 1.003e+04 6.733e-10
 36.76506     60.7 9.932e+03 6.448e-10
 36.77530     60.9 9.906e+03 6.515e-10
 36.79292     62.0 9.744e+03 6.147e-10
 36.81339     63.3 9.614e+03 5.638e-10
 36.82851     64.3 9.574e+03 5.416e-10
 36.83884     63.9 9.416e+03 4.625e-10
 36.86475     66.3 9.306e+03 4.168e-10
 36.89206     67.9 9.331e+03 4.336e-10
 36.90220     68.1 9.173e+03 3.820e-10
 36.91572     69.0 9.168e+03 3.805e-10
 36.93619     70.5 9.190e+03 3.867e-10
 36.95542     71.4 9.237e+03 4.007e-10
 36.96575     71.2 9.020e+03 3.411e-10
 36.98755     73.5 9.069e+03 3.604e-10
 37.01815     74.9 9.207e+03 4.131e-10
 37.02910     76.0 9.353e+03 4.658e-10
 37.03934     76.2 9.123e+03 3.945e-10
 37.05899     77.5 9.224e+03 4.308e-10
 37.07946     78.6 9.354e+03 4.768e-10
 37.09255     80.0 9.531e+03 5.414e-10
 37.10279     80.1 9.299e+03 4.407e-10
 37.12039     81.4 9.451e+03 4.861e-10
 37.14085     82.8 9.607e+03 5.343e-10
 37.15601     84.1 9.756e+03 5.778e-10
 37.16624     84.1 9.491e+03 4.608e-10
 37.18179     85.4 9.590e+03 4.854e-10
 37.20225     86.7 9.677e+03 5.082e-10
 37.21946     88.0 9.765e+03 5.329e-10
 37.22969     87.6 9.390e+03 4.262e-10
 37.24319     88.8 9.459e+03 4.534e-10
 37.26365     90.0 9.561e+03 4.880e-10
 37.28291     91.1 9.700e+03 5.281e-10
 37.29314     90.7 9.343e+03 4.506e-10
 37.30459     91.7 9.509e+03 4.938e-10
 37.32505     92.6 9.675e+03 5.339e-10
 37.33782     93.4 9.809e+03 5.665e-10
 37.34805     95.0 1.007e+04 6.398e-10
 37.35660     95.9 1.016e+04 6.624e-10
 37.36683     95.1 9.844e+03 5.900e-10
 37.38645     95.7 9.963e+03 6.145e-10
 37.40692     95.7 1.004e+04 6.344e-10
 37.42005     95.3 1.010e+04 6.510e-10
 37.43028     95.0 1.003e+04 6.399e-10
 37.44785     94.5 1.020e+04 6.770e-10
 37.46832     91.8 1.140e+04 8.372e-10
 37.48345     87.0 1.435e+04 1.326e-09
 37.49368     89.2 1.324e+04 1.197e-09
 37.50925     80.4 1.845e+04 4.407e-09
 37.52972     72.9 2.130e+04 1.526e-08
 37.54695     68.9 2.162e+04 2.024e-08
 37.55718     72.0 2.193e+04 1.896e-08
 37.56549     69.7 2.178e+04 1.932e-08
 37.57567     68.3 2.175e+04 1.772e-08
 37.59107     66.5 2.201e+04 1.361e-08
 37.61040     62.1 2.202e+04 4.085e-09
 37.62059     64.7 2.291e+04 6.739e-09
 37.63200     59.1 2.282e+04 2.351e-09
 37.65252     49.2 1.398e+04 1.106e-09
 37.67299     45.4 1.190e+04 1.154e-09
 37.68409     44.6 1.220e+04 1.288e-09
 37.69432     43.5 1.264e+04 1.767e-09
 37.71392     43.3 1.317e+04 2.329e-09
 37.73439     43.6 1.366e+04 3.043e-09
 37.74754     44.1 1.383e+04 3.309e-09
 37.75777     44.1 1.440e+04 4.348e-09
 37.77532     44.6 1.436e+04 4.249e-09
 37.79579     45.4 1.407e+04 3.688e-09
 37.81099     46.0 1.354e+04 2.720e-09
 37.82122     46.1 1.372e+04 2.873e-09
 37.83672     46.2 1.298e+04 1.870e-09
 37.85719     45.8 1.222e+04 1.195e-09
 37.87444     44.8 1.151e+04 8.199e-10
 37.88468     44.7 1.144e+04 7.961e-10
 37.89812     43.9 1.090e+04 6.384e-10
 37.91859     43.8 1.065e+04 6.105e-10
 37.93789     44.1 1.063e+04 6.095e-10
 37.94813     44.0 1.065e+04 6.051e-10
 37.95952     44.2 1.065e+04 6.038e-10
 37.97999     44.2 1.064e+04 6.018e-10
 38.00045     44.2 1.064e+04 5.945e-10
 38.01158     44.1 1.066e+04 5.789e-10
 38.02181     44.2 1.060e+04 5.693e-10
 38.04138     43.9 1.056e+04 5.307e-10
 38.06185     43.4 1.059e+04 5.081e-10
 38.07503     42.7 1.071e+04 5.188e-10
 38.08527     43.2 1.039e+04 4.058e-10
 38.10278     42.4 1.044e+04 4.055e-10
 38.12325     41.7 1.063e+04 4.335e-10
 38.13848     40.9 1.090e+04 4.982e-10
 38.14872     41.4 1.026e+04 3.295e-10
 38.16418     40.5 1.057e+04 3.859e-10
 38.18465     39.2 1.087e+04 5.007e-10
 38.20194     37.9 1.104e+04 6.978e-10
 38.21217     38.7 1.079e+04 4.945e-10
 38.22558     37.4 1.098e+04 7.460e-10
 38.24605     37.2 1.107e+04 1.039e-09
 38.26539     37.2 1.131e+04 1.157e-09
 38.27562     37.9 1.103e+04 9.509e-10
 38.28698     37.7 1.118e+04 1.012e-09
 38.30197     36.7 1.200e+04 1.140e-09
 38.31221     35.2 1.279e+04 1.219e-09
 38.32792     29.5 1.529e+04 2.163e-09
 38.33907     25.5 1.510e+04 3.779e-09
 38.34931     26.0 1.563e+04 3.559e-09
 38.36885     25.7 1.569e+04 6.857e-09
 38.38932     25.6 1.613e+04 1.068e-08
 38.40252     25.0 1.717e+04 1.222e-08
 38.41276     25.4 1.739e+04 1.499e-08
 38.43025     24.0 1.785e+04 1.512e-08
 38.45072     22.6 1.776e+04 1.244e-08
 38.46598     21.3 1.683e+04 7.698e-09
 38.47621     22.8 1.700e+04 1.075e-08
 38.49165     22.1 1.582e+04 6.236e-09
 38.51212     20.9 1.443e+04 3.235e-09
 38.52943     19.9 1.293e+04 1.816e-09
 38.53966     21.6 1.374e+04 2.290e-09
 38.55305     20.3 1.237e+04 1.338e-09
 38.58385     19.9 1.144e+04 8.914e-10
 38.62488     20.2 1.027e+04 5.479e-10
 38.65653     21.3 9.778e+03 4.091e-10
 38.67690     22.8 1.010e+04 4.621e-10
 38.69632     23.2 9.944e+03 4.290e-10
 38.71678     23.8 9.914e+03 4.050e-10
 38.74758     24.7 9.991e+03 4.195e-10
 38.78343     26.0 1.003e+04 4.161e-10
 38.80380     27.2 1.017e+04 5.196e-10
 38.81912     27.8 1.015e+04 5.043e-10
 38.83958     28.6 1.012e+04 4.873e-10
 38.85692     29.5 1.014e+04 4.809e-10
 38.86715     29.7 1.027e+04 4.912e-10
 38.88052     30.3 1.027e+04 4.918e-10
 38.90098     31.0 1.029e+04 4.917e-10
 38.92037     31.6 1.035e+04 5.061e-10
 38.93061     31.7 1.013e+04 4.453e-10
 38.94192     32.3 1.021e+04 4.607e-10
 38.96238     32.9 1.036e+04 4.918e-10
 38.98285     33.5 1.053e+04 5.309e-10
 38.99406     34.1 1.071e+04 5.744e-10
 39.00429     34.3 1.020e+04 4.219e-10
 39.02378     34.9 1.026e+04 4.198e-10
 39.04425     35.2 1.039e+04 4.266e-10
 39.05751     35.3 1.042e+04 4.333e-10
 39.07807     36.0 9.892e+03 3.037e-10
 39.10575     35.9 9.991e+03 3.398e-10
 39.12096     35.9 1.014e+04 3.842e-10
 39.13119     36.8 9.889e+03 2.964e-10
 39.14658     36.8 1.007e+04 3.313e-10
 39.16705     36.6 1.032e+04 3.920e-10
 39.18441     36.3 1.056e+04 4.626e-10
 39.19465     37.6 1.013e+04 3.721e-10
 39.20798     37.2 1.049e+04 4.613e-10
 39.22845     34.8 1.282e+04 8.635e-10
 39.24786     29.4 1.543e+04 2.596e-09
 39.25810     33.9 1.415e+04 1.314e-09
 39.26613     29.9 1.535e+04 3.515e-09
 39.27636     30.2 1.516e+04 3.281e-09
 39.28985     30.5 1.452e+04 4.220e-09
 39.31031     31.5 1.412e+04 3.763e-09
 39.32155     31.7 1.413e+04 2.357e-09
 39.33178     32.9 1.412e+04 3.584e-09
 39.35125     32.5 1.447e+04 1.900e-09
 39.37171     28.9 1.487e+04 7.017e-10
 39.38500     22.7 1.235e+04 4.049e-10
 39.39524     27.5 1.448e+04 5.353e-10
 39.41265     21.0 1.232e+04 4.745e-10
 39.43311     17.6 1.203e+04 6.731e-10
 39.44845     17.6 1.180e+04 1.151e-09
 39.45869     18.4 1.174e+04 9.372e-10
 39.47405     19.4 1.163e+04 1.342e-09
 39.49451     20.3 1.174e+04 1.540e-09
 39.51191     21.2 1.173e+04 1.423e-09
 39.52214     21.7 1.163e+04 1.347e-09
 39.53545     21.9 1.150e+04 1.169e-09
 39.55591     21.7 1.137e+04 8.944e-10
 39.57536     20.2 1.159e+04 6.787e-10
 39.58559     20.9 1.167e+04 7.336e-10
 39.59685     19.8 1.110e+04 6.298e-10
 39.61731     19.4 1.075e+04 6.074e-10
 39.64811     19.9 1.023e+04 5.324e-10
 39.68914     21.1 9.966e+03 3.241e-10
 39.71269     20.6 9.897e+03 2.068e-10
 39.73316     20.8 1.023e+04 2.481e-10
 39.77101     20.6 9.756e+03 2.346e-10
 39.81194     21.9 9.316e+03 2.116e-10
 39.83959     23.7 9.276e+03 1.718e-10
 39.86006     24.4 9.461e+03 2.183e-10
 39.89381     25.6 9.550e+03 1.659e-10
 39.93474     26.6 9.504e+03 1.586e-10
 39.96650     27.8 9.494e+03 1.717e-10
 39.98696     28.4 9.703e+03 1.997e-10
 40.01661     29.8 9.834e+03 2.544e-10
 40.05754     31.3 1.003e+04 3.258e-10
 40.09340     32.8 1.023e+04 4.009e-10
 40.11387     33.4 1.030e+04 4.505e-10
 40.13941     35.0 1.036e+04 4.760e-10
 40.18034     36.7 1.029e+04 4.439e-10
 40.22025     38.5 1.017e+04 3.632e-10
 40.24071     40.1 1.000e+04 3.242e-10
 40.26221     41.7 9.923e+03 2.388e-10
 40.30314     42.6 9.885e+03 1.838e-10
 40.34407     43.2 9.877e+03 1.857e-10
 40.36767     43.7 9.871e+03 2.191e-10
 40.38814     44.5 9.719e+03 1.570e-10
 40.42594     45.3 9.819e+03 2.587e-10
 40.46687     46.6 9.901e+03 3.203e-10
 40.49458     48.1 9.839e+03 2.975e-10
 40.51504     48.8 1.002e+04 3.975e-10
 40.54874     50.5 9.824e+03 3.071e-10
 40.58967     51.5 9.602e+03 1.756e-10
 40.62148     51.5 9.278e+03 1.068e-10
 40.64195     52.6 9.373e+03 1.201e-10
 40.67154     52.7 9.093e+03 1.053e-10
 40.71247     53.3 9.073e+03 1.146e-10
 40.74839     54.3 9.228e+03 1.480e-10
 40.76885     55.1 9.187e+03 1.448e-10
 40.79434     56.3 9.393e+03 1.883e-10
 40.83527     57.3 9.559e+03 2.366e-10
 40.87529     58.2 9.660e+03 2.860e-10
 40.89576     58.9 9.573e+03 2.803e-10
 40.91714     59.8 9.664e+03 3.317e-10
 40.95807     60.9 9.758e+03 3.818e-10
 40.99900     62.0 9.812e+03 3.918e-10
 41.02266     63.2 9.775e+03 3.761e-10
 41.04313     63.7 9.763e+03 3.812e-10
 41.08087     65.1 9.643e+03 3.381e-10
 41.12180     66.5 9.485e+03 2.674e-10
 41.14956     67.6 9.383e+03 1.976e-10
 41.17003     68.1 9.291e+03 2.035e-10
 41.20367     69.1 9.206e+03 1.652e-10
 41.24460     70.3 9.172e+03 1.617e-10
 41.27647     71.7 9.178e+03 1.651e-10
 41.29693     72.1 9.153e+03 1.745e-10
 41.32647     73.5 9.194e+03 1.791e-10
 41.36740     75.0 9.188e+03 1.764e-10
 41.40337     76.8 9.160e+03 1.599e-10
 41.42384     77.1 9.046e+03 1.606e-10
 41.44927     78.9 8.981e+03 1.131e-10
 41.49020     80.4 9.041e+03 7.015e-11
 41.53027     81.5 9.148e+03 4.701e-11
 41.55074     81.4 8.935e+03 4.124e-11
 41.57207     82.4 8.869e+03 3.856e-11
 41.61300     83.7 8.880e+03 3.938e-11
 41.65393     85.1 8.941e+03 4.433e-11
 41.67764     86.6 9.059e+03 5.646e-11
 41.69811     86.9 9.027e+03 5.793e-11
 41.73580     88.5 9.185e+03 7.762e-11
 41.77673     90.1 9.354e+03 1.061e-10
 41.80455     91.5 9.554e+03 1.470e-10
 41.82501     91.7 9.649e+03 1.815e-10
 41.85860     93.0 1.007e+04 2.549e-10
 41.89953     93.8 1.057e+04 3.447e-10
 41.93014     93.7 1.076e+04 3.897e-10
 41.94149     93.7 1.084e+04 4.055e-10
 41.95182     93.3 1.107e+04 4.760e-10
 41.98140     92.5 1.156e+04 5.650e-10
 42.00504     91.3 1.176e+04 6.284e-10
 42.01517     91.0 1.186e+04 6.685e-10
 42.03237     89.6 1.209e+04 7.759e-10
 42.05284     87.8 1.247e+04 9.865e-10
 42.06839     86.0 1.298e+04 1.358e-09
 42.07863     85.9 1.277e+04 1.244e-09
 42.09377     84.0 1.321e+04 1.605e-09
 42.11424     82.1 1.360e+04 1.882e-09
 42.13185     79.4 1.407e+04 2.054e-09
 42.14208     79.9 1.342e+04 1.603e-09
 42.15517     77.1 1.364e+04 1.613e-09
 42.16883     74.2 1.371e+04 1.625e-09
 42.17906     74.5 1.328e+04 1.398e-09
 42.19530     72.5 1.321e+04 1.398e-09
 42.20563     75.2 1.237e+04 8.824e-10
 42.22700     72.0 1.249e+04 1.033e-09
 42.25760     70.1 1.273e+04 1.432e-09
 42.26898     70.2 1.276e+04 1.732e-09
 42.27922     70.2 1.281e+04 1.645e-09
 42.29844     70.5 1.285e+04 2.034e-09
 42.31890     71.4 1.273e+04 1.942e-09
 42.33243     72.3 1.261e+04 1.619e-09
 42.34267     72.2 1.295e+04 2.272e-09
 42.35984     73.0 1.284e+04 1.885e-09
 42.39063     73.6 1.275e+04 1.744e-09
 42.43166     73.8 1.210e+04 1.106e-09
 42.45953     73.9 1.115e+04 6.944e-10
 42.48000     74.9 1.195e+04 1.250e-09
 42.51353     75.2 1.117e+04 8.512e-10
 42.55446     75.6 1.040e+04 6.076e-10
 42.58644     76.3 9.767e+03 4.599e-10
 42.60690     76.9 1.023e+04 5.998e-10
 42.63633     77.7 9.570e+03 4.253e-10
 42.67726     78.8 9.134e+03 3.202e-10
 42.71334     79.9 8.917e+03 2.559e-10
 42.73381     80.4 8.735e+03 1.995e-10
 42.75913     81.2 8.415e+03 1.456e-10
 42.80006     82.1 8.271e+03 1.392e-10
 42.84024     83.1 8.253e+03 1.417e-10
 42.86071     83.7 8.050e+03 9.762e-11
 42.88193     84.8 8.065e+03 1.137e-10
 42.92286     86.1 8.205e+03 1.514e-10
 42.96380     87.4 8.444e+03 2.100e-10
 42.98761     88.6 8.759e+03 2.932e-10
 43.00808     89.1 8.770e+03 2.679e-10
 43.04566     90.1 9.249e+03 4.030e-10
 43.08660     91.0 9.735e+03 5.789e-10
 43.11452     91.9 1.016e+04 7.669e-10
 43.13498     91.9 1.014e+04 7.601e-10
 43.16846     92.5 1.033e+04 8.348e-10
 43.20940     93.1 1.032e+04 8.399e-10
 43.24142     93.6 1.030e+04 8.294e-10
 43.26189     93.3 1.033e+04 7.745e-10
 43.28093     93.5 1.031e+04 7.800e-10
 43.30130     93.5 1.035e+04 7.870e-10
 43.31491     93.6 1.040e+04 8.033e-10
 43.32514     93.4 1.034e+04 7.448e-10
 43.34223     93.5 1.038e+04 7.637e-10
 43.36270     93.4 1.047e+04 8.017e-10
 43.37836     93.3 1.059e+04 8.636e-10
 43.38860     93.2 1.039e+04 7.694e-10
 43.40363     93.0 1.055e+04 8.515e-10
 43.42410     92.8 1.072e+04 9.501e-10
 43.44182     92.7 1.089e+04 1.053e-09
 43.45205     92.8 1.076e+04 1.008e-09
 43.46503     92.8 1.094e+04 1.123e-09
 43.48550     92.9 1.110e+04 1.198e-09
 43.50527     93.0 1.126e+04 1.239e-09
 43.51550     93.7 1.107e+04 1.170e-09
 43.52643     93.8 1.116e+04 1.166e-09
 43.54690     93.7 1.128e+04 1.154e-09
 43.56737     93.3 1.138e+04 1.139e-09
 43.57895     92.4 1.141e+04 1.146e-09
 43.58919     93.7 1.120e+04 1.019e-09
 43.60830     92.6 1.125e+04 1.051e-09
 43.62877     91.3 1.136e+04 1.128e-09
 43.64240     89.4 1.182e+04 1.320e-09
 43.65264     91.4 1.142e+04 1.169e-09
 43.66970     89.5 1.203e+04 1.438e-09
 43.69016     87.5 1.260e+04 1.851e-09
 43.70586     86.2 1.272e+04 2.251e-09
 43.71609     88.5 1.266e+04 1.995e-09
 43.73110     87.5 1.261e+04 2.136e-09
 43.75156     86.9 1.239e+04 2.072e-09
 43.76931     86.7 1.186e+04 1.780e-09
 43.77954     88.3 1.208e+04 1.839e-09
 43.79250     87.9 1.145e+04 1.438e-09
 43.81296     87.2 1.077e+04 1.010e-09
 43.83276     86.1 1.007e+04 6.755e-10
 43.84299     87.7 1.032e+04 7.964e-10
 43.85390     86.3 9.716e+03 5.598e-10
 43.87436     84.8 9.217e+03 4.302e-10
 43.89483     83.7 9.090e+03 3.999e-10
 43.90644     82.6 9.194e+03 4.161e-10
 43.91668     84.0 9.244e+03 4.268e-10
 43.93576     82.7 9.388e+03 4.525e-10
 43.95623     81.3 9.592e+03 4.971e-10
 43.96990     80.1 9.715e+03 5.709e-10
 43.98013     81.0 9.584e+03 5.167e-10
 43.99716     80.2 9.607e+03 5.690e-10
 44.01763     79.9 9.586e+03 5.686e-10
 44.03335     79.8 9.543e+03 5.476e-10
 44.04358     80.0 9.467e+03 5.160e-10
 44.05856     79.9 9.332e+03 4.479e-10
 44.07903     79.6 9.241e+03 3.889e-10
 44.09723     79.6 8.923e+03 2.729e-10
 44.10747     79.8 9.320e+03 3.853e-10
 44.11996     79.4 9.094e+03 3.006e-10
 44.15012     78.6 8.992e+03 2.501e-10
 44.17058     78.3 8.936e+03 2.444e-10
 44.19169     77.7 8.900e+03 2.501e-10
 44.23272     77.6 9.039e+03 2.907e-10
 44.26333     77.7 9.406e+03 3.855e-10
 44.28370     77.9 9.780e+03 5.215e-10
 44.29739     78.3 1.017e+04 6.957e-10
 44.30762     78.1 1.058e+04 8.865e-10
 44.32463     78.6 1.097e+04 1.079e-09
 44.34510     78.9 1.129e+04 1.232e-09
 44.36084     79.1 1.156e+04 1.325e-09
 44.37107     78.3 1.208e+04 1.588e-09
 44.38603     78.1 1.220e+04 1.601e-09
 44.40650     77.8 1.220e+04 1.582e-09
 44.42429     77.6 1.207e+04 1.469e-09
 44.43453     76.7 1.255e+04 1.841e-09
 44.44743     76.4 1.225e+04 1.608e-09
 44.46790     76.2 1.172e+04 1.249e-09
 44.48774     76.1 1.157e+04 1.157e-09
 44.49798     75.4 1.176e+04 1.251e-09
 44.51916     75.8 1.111e+04 8.946e-10
 44.55139     75.8 1.051e+04 6.085e-10
 44.57186     74.1 1.064e+04 6.214e-10
 44.60112     74.6 1.006e+04 3.943e-10
 44.64206     75.5 9.728e+03 2.872e-10
 44.67830     76.7 9.588e+03 2.377e-10
 44.69876     75.4 9.440e+03 1.806e-10
 44.72392     76.8 9.210e+03 1.560e-10
 44.76486     78.5 9.170e+03 1.565e-10
 44.80520     79.9 9.207e+03 1.682e-10
 44.82567     79.2 9.090e+03 1.536e-10
 44.84672     80.6 9.163e+03 1.797e-10
 44.88766     82.1 9.436e+03 2.636e-10
 44.92859     83.8 9.791e+03 3.850e-10
 44.95257     85.4 1.008e+04 4.804e-10
 44.97304     85.6 9.707e+03 3.854e-10
 45.01046     87.4 9.843e+03 4.191e-10
 45.05139     89.2 9.841e+03 4.098e-10
 45.07947     91.1 9.814e+03 3.721e-10
 45.09994     91.6 9.742e+03 3.988e-10
 45.13326     93.5 9.776e+03 3.880e-10
 45.17419     95.5 9.859e+03 3.731e-10
 45.20638     97.4 9.951e+03 3.753e-10
 45.22684     97.6 9.904e+03 4.365e-10
 45.24572     98.9 9.916e+03 4.125e-10
 45.26609    100.0 9.968e+03 4.164e-10
 45.27987    101.1 1.004e+04 4.231e-10
 45.29010    101.6 1.018e+04 5.135e-10
 45.30703    102.5 1.030e+04 5.167e-10
 45.32749    103.3 1.035e+04 5.206e-10
 45.34332    104.0 1.037e+04 5.331e-10
 45.35355    104.6 1.068e+04 6.312e-10
 45.36843    105.2 1.073e+04 6.410e-10
 45.38889    105.5 1.079e+04 6.835e-10
 45.40677    105.6 1.092e+04 7.975e-10
 45.41700    106.2 1.128e+04 8.734e-10
 45.42983    106.3 1.136e+04 1.032e-09
 45.45029    106.4 1.160e+04 1.302e-09
 45.47022    106.8 1.195e+04 1.660e-09
 45.48045    107.3 1.201e+04 1.672e-09
 45.49123    107.7 1.233e+04 1.988e-09
 45.51169    107.8 1.271e+04 2.334e-09
 45.53216    107.8 1.316e+04 2.643e-09
 45.54391    107.5 1.357e+04 2.881e-09
 45.55414    108.2 1.324e+04 2.524e-09
 45.57309    107.4 1.360e+04 2.775e-09
 45.59356    106.4 1.388e+04 3.111e-09
 45.60736    105.6 1.399e+04 3.439e-09
 45.61759    105.9 1.398e+04 3.256e-09
 45.63449    105.2 1.399e+04 3.512e-09
 45.65496    104.8 1.389e+04 3.465e-09
 45.67081    104.6 1.366e+04 3.200e-09
 45.68104    104.9 1.379e+04 3.393e-09
 45.69589    104.6 1.350e+04 2.875e-09
 45.71636    103.9 1.328e+04 2.283e-09
 45.73426    102.5 1.306e+04 1.742e-09
 45.74450    103.4 1.316e+04 1.848e-09
 45.75729    101.1 1.282e+04 1.397e-09
 45.77776     98.6 1.235e+04 1.299e-09
 45.79771     96.5 1.230e+04 1.330e-09
 45.80795     96.7 1.242e+04 1.352e-09
 45.81869     94.8 1.239e+04 1.525e-09
 45.83916     93.2 1.276e+04 1.962e-09
 45.85962     91.2 1.358e+04 2.703e-09
 45.87140     88.9 1.456e+04 3.828e-09
 45.88163     88.7 1.463e+04 3.957e-09
 45.90056     86.6 1.517e+04 4.932e-09
 45.92102     84.4 1.516e+04 4.974e-09
 45.93485     82.6 1.478e+04 4.450e-09
 45.94508     81.9 1.437e+04 3.525e-09
 45.96196     79.7 1.353e+04 2.388e-09
 45.98242     77.2 1.270e+04 1.542e-09
 45.99830     74.3 1.192e+04 1.040e-09
 46.00854     71.4 1.161e+04 8.985e-10
 46.02554     67.4 1.088e+04 7.514e-10
 46.04611     68.4 1.077e+04 6.643e-10
 46.07472     67.0 1.023e+04 5.758e-10
 46.11517     66.4 1.012e+04 5.523e-10
 46.13564     63.4 1.050e+04 7.142e-10
 46.15658     63.3 1.058e+04 7.282e-10
 46.19752     62.7 1.082e+04 7.857e-10
 46.23845     63.7 1.069e+04 7.778e-10
 46.26254     64.6 1.061e+04 7.491e-10
 46.28301     62.3 1.076e+04 8.759e-10
 46.32032     63.9 1.040e+04 6.774e-10
 46.36125     65.0 1.004e+04 4.882e-10
 46.38944     66.0 9.802e+03 4.149e-10
 46.40991     64.8 9.794e+03 3.945e-10
 46.44312     66.3 9.816e+03 4.023e-10
 46.48405     67.9 1.002e+04 4.706e-10
 46.51635     69.5 1.048e+04 6.330e-10
 46.53681     68.5 1.048e+04 6.014e-10
 46.56592     70.2 1.103e+04 8.575e-10
 46.60685     72.2 1.151e+04 1.122e-09
 46.64325     74.1 1.181e+04 1.296e-09
 46.66372     73.4 1.143e+04 1.055e-09
 46.68872     75.1 1.146e+04 1.039e-09
 46.72965     76.9 1.141e+04 1.018e-09
 46.77015     78.6 1.143e+04 1.039e-09
 46.79062     78.2 1.055e+04 6.772e-10
 46.81152     79.8 1.087e+04 8.550e-10
 46.85245     81.5 1.152e+04 1.227e-09
 46.88305     82.2 1.175e+04 1.426e-09
 46.90342     83.0 1.221e+04 1.827e-09
 46.91733     83.9 1.268e+04 2.365e-09
 46.93789     85.4 1.207e+04 1.743e-09
 46.96492     86.5 1.274e+04 2.415e-09
 46.98078     87.8 1.311e+04 2.923e-09
 46.99101     87.8 1.243e+04 2.099e-09
 46.99983     89.0 1.262e+04 2.219e-09
 47.01007     88.5 1.214e+04 1.710e-09
 47.02622     89.4 1.207e+04 1.588e-09
 47.04423     90.3 1.186e+04 1.376e-09
 47.06480     91.0 1.142e+04 1.153e-09
 47.09805     92.8 1.104e+04 8.686e-10
 47.13898     94.4 1.068e+04 6.799e-10
 47.17133     96.3 1.066e+04 6.659e-10
 47.19180     95.7 9.585e+03 3.701e-10
 47.22085     97.8 9.596e+03 3.799e-10
 47.26178     99.8 9.752e+03 4.252e-10
 47.29823    101.8 1.024e+04 5.512e-10
 47.31870    101.0 9.539e+03 3.929e-10
 47.34365    102.8 1.030e+04 5.956e-10
 47.37182    103.7 1.056e+04 6.977e-10
 47.38196    103.3 1.059e+04 7.078e-10
 47.39462    104.1 1.084e+04 8.116e-10
 47.41508    104.6 1.123e+04 9.957e-10
 47.43518    104.6 1.237e+04 1.433e-09
 47.44541    104.9 1.147e+04 1.160e-09
 47.45602    105.0 1.258e+04 1.661e-09
 47.47648    105.0 1.454e+04 2.772e-09
 47.49695    105.0 1.668e+04 4.864e-09
 47.50886    104.7 1.848e+04 8.242e-09
 47.51909    104.8 1.553e+04 4.222e-09
 47.53788    104.3 1.683e+04 6.473e-09
 47.55835    104.2 1.794e+04 9.740e-09
 47.57231    104.2 1.882e+04 1.373e-08
 47.58255    104.4 1.661e+04 7.880e-09
 47.59928    104.7 1.748e+04 1.026e-08
 47.61975    104.9 1.824e+04 1.136e-08
 47.63577    105.3 1.909e+04 1.116e-08
 47.64600    106.2 1.655e+04 6.767e-09
 47.66068    106.8 1.699e+04 6.415e-09
 47.68115    107.7 1.795e+04 5.601e-09
 47.69922    108.7 1.951e+04 4.726e-09
 47.70945    108.2 1.627e+04 3.742e-09
 47.72208    108.7 1.702e+04 3.366e-09
 47.74255    108.9 1.776e+04 3.322e-09
 47.76267    109.0 1.870e+04 3.413e-09
 47.77290    108.2 1.713e+04 3.538e-09
 47.78348    107.6 1.767e+04 3.946e-09
 47.80395    106.7 1.837e+04 4.743e-09
 47.82442    104.7 2.063e+04 5.713e-09
 47.83635     99.8 2.371e+04 7.557e-09
 47.84659    101.4 1.916e+04 7.509e-09
 47.86535     97.8 2.133e+04 9.642e-09
 47.88582     94.9 2.276e+04 1.257e-08
 47.89976     93.5 2.298e+04 1.767e-08
 47.90999     96.8 2.061e+04 1.177e-08
 47.92675     95.6 2.118e+04 1.380e-08
 47.94722     95.1 2.127e+04 1.474e-08
 47.96326     95.3 2.092e+04 1.411e-08
 47.96980     97.5 1.948e+04 1.216e-08
 47.97422     96.6 2.050e+04 1.904e-08
 47.98298     96.1 2.030e+04 2.181e-08
 47.99317     96.4 2.015e+04 2.233e-08
 48.00857     97.5 1.990e+04 2.100e-08
 48.02671     98.5 1.926e+04 1.790e-08
 48.03694    100.5 1.872e+04 1.502e-08
 48.04955    101.6 1.812e+04 1.386e-08
 48.07002    103.0 1.747e+04 1.116e-08
 48.09016    104.4 1.663e+04 8.533e-09
 48.10039    105.6 1.651e+04 8.353e-09
 48.11095    107.0 1.568e+04 6.485e-09
 48.13142    108.3 1.496e+04 4.718e-09
 48.15188    109.0 1.415e+04 3.080e-09
 48.16385    109.6 1.325e+04 1.989e-09
 48.17408    110.9 1.354e+04 2.433e-09
 48.19282    111.5 1.276e+04 1.667e-09
 48.21328    112.0 1.209e+04 1.242e-09
 48.22730    112.6 1.158e+04 1.034e-09
 48.23753    113.8 1.174e+04 1.101e-09
 48.25422    114.3 1.135e+04 9.976e-10
 48.27468    115.2 1.128e+04 9.953e-10
 48.29075    116.1 1.131e+04 1.014e-09
 48.30098    116.9 1.131e+04 1.018e-09
 48.31562    117.6 1.142e+04 1.095e-09
 48.33608    118.2 1.162e+04 1.235e-09
 48.35420    118.8 1.186e+04 1.380e-09
 48.36444    119.5 1.189e+04 1.434e-09
 48.37701    120.0 1.213e+04 1.528e-09
 48.39748    120.3 1.216e+04 1.524e-09
 48.41765    120.5 1.215e+04 1.472e-09
 48.42789    121.2 1.223e+04 1.565e-09
 48.43841    121.4 1.213e+04 1.395e-09
 48.45888    121.5 1.196e+04 1.145e-09
 48.47935    121.3 1.173e+04 8.983e-10
 48.49134    120.7 1.145e+04 6.881e-10
 48.50157    121.5 1.151e+04 6.777e-10
 48.52028    120.7 1.114e+04 5.110e-10
 48.54075    120.0 1.077e+04 4.262e-10
 48.55479    119.6 1.057e+04 3.904e-10
 48.56502    119.8 1.046e+04 3.596e-10
 48.58168    119.6 1.041e+04 3.558e-10
 48.60811    119.9 1.029e+04 3.290e-10
 48.62867    120.2 1.018e+04 3.102e-10
 48.65351    120.3 9.995e+03 2.837e-10
 48.69444    120.9 9.802e+03 2.496e-10
 48.73511    121.6 9.639e+03 2.188e-10
 48.75557    121.6 9.656e+03 2.301e-10
 48.77631    122.5 9.560e+03 2.091e-10
 48.81724    123.4 9.510e+03 1.935e-10
 48.85818    124.5 9.488e+03 1.838e-10
 48.88248    125.9 9.481e+03 1.811e-10
 48.90295    125.2 9.779e+03 2.433e-10
 48.94004    126.6 9.849e+03 2.562e-10
 48.98097    128.2 9.992e+03 2.857e-10
 49.00938    129.7 1.016e+04 3.253e-10
 49.01952    128.5 1.030e+04 3.995e-10
 49.03195    129.1 1.041e+04 4.491e-10
 49.05241    129.9 1.056e+04 5.489e-10
 49.07264    130.9 1.074e+04 6.773e-10
 49.08287    130.6 1.092e+04 8.280e-10
 49.09335    131.6 1.112e+04 9.120e-10
 49.11381    132.6 1.127e+04 9.585e-10
 49.13428    133.6 1.136e+04 9.926e-10
 49.14632    134.4 1.144e+04 9.998e-10
 49.15656    133.8 1.134e+04 9.198e-10
 49.17521    134.5 1.131e+04 8.811e-10
 49.19568    135.2 1.124e+04 8.308e-10
 49.20978    135.7 1.113e+04 7.792e-10
 49.22001    134.9 1.084e+04 6.602e-10
 49.23661    135.5 1.074e+04 6.344e-10
 49.25708    136.2 1.071e+04 6.323e-10
 49.27323    136.9 1.070e+04 6.394e-10
 49.28346    136.3 1.049e+04 5.798e-10
 49.29801    137.1 1.056e+04 6.119e-10
 49.31848    137.9 1.063e+04 6.469e-10
 49.33668    138.8 1.069e+04 6.780e-10
 49.34691    138.3 1.065e+04 6.782e-10
 49.35941    139.2 1.075e+04 7.191e-10
 49.37988    140.1 1.081e+04 7.470e-10
 49.40013    140.9 1.087e+04 7.597e-10
 49.41036    140.5 1.098e+04 8.367e-10
 49.42081    141.3 1.108e+04 8.595e-10
 49.44128    142.1 1.117e+04 8.736e-10
 49.46174    142.8 1.126e+04 8.827e-10
 49.47382    143.5 1.136e+04 8.902e-10
 49.48405    142.9 1.161e+04 9.774e-10
 49.50268    143.6 1.171e+04 9.788e-10
 49.52314    144.3 1.182e+04 9.862e-10
 49.53727    145.0 1.193e+04 9.982e-10
 49.54750    144.0 1.204e+04 1.015e-09
 49.56408    144.7 1.208e+04 1.007e-09
 49.58454    145.4 1.212e+04 1.007e-09
 49.60072    146.2 1.218e+04 1.013e-09
 49.61095    144.5 1.219e+04 1.012e-09
 49.62548    144.9 1.227e+04 1.025e-09
 49.64594    145.3 1.238e+04 1.057e-09
 49.66417    145.6 1.252e+04 1.119e-09
 49.67441    142.8 1.252e+04 1.154e-09
 49.68688    142.6 1.268e+04 1.251e-09
 49.70734    142.3 1.293e+04 1.393e-09
 49.72762    141.8 1.327e+04 1.590e-09
 49.73786    137.7 1.329e+04 1.769e-09
 49.74828    134.2 1.474e+04 2.488e-09
 49.76874    125.9 1.962e+04 4.866e-09
 49.78921    115.2 2.527e+04 1.117e-08
 49.80126    105.3 2.652e+04 1.904e-08
 49.80633     98.1 2.723e+04 2.534e-08
 49.81470     94.3 2.640e+04 2.436e-08
 49.83009     86.0 2.393e+04 1.647e-08
 49.85061     80.3 2.040e+04 8.587e-09
 49.86476     75.7 1.665e+04 4.168e-09
 49.87499     68.8 1.343e+04 2.329e-09
 49.89154     67.6 1.235e+04 1.489e-09
 49.90253     67.5 1.214e+04 1.135e-09
 49.91276     69.7 1.212e+04 1.112e-09
 49.92821     69.4 1.170e+04 7.934e-10
 49.93854     66.7 1.148e+04 5.397e-10
 49.96337     65.2 9.704e+03 2.818e-10
 50.00430     64.9 9.210e+03 2.523e-10
 50.04508     65.7 9.231e+03 2.571e-10
 50.08601     65.6 9.416e+03 3.045e-10
 50.12710     66.1 9.885e+03 4.179e-10
 50.16804     66.5 1.044e+04 5.971e-10
 50.19245     66.8 1.092e+04 7.982e-10
 50.21292     67.2 1.098e+04 8.336e-10
 50.24990     67.1 1.118e+04 9.343e-10
 50.29084     66.8 1.112e+04 9.044e-10
 50.31935     66.4 1.077e+04 7.346e-10
 50.33982     65.8 1.087e+04 7.778e-10
 50.37270     64.8 1.030e+04 5.515e-10
 50.41364     63.1 9.590e+03 3.740e-10
 50.44626     61.4 9.262e+03 3.233e-10
 50.46672     59.9 9.534e+03 3.717e-10
 50.49550     58.3 9.508e+03 3.575e-10
 50.53644     57.0 9.506e+03 3.451e-10
 50.57316     56.1 9.419e+03 3.100e-10
 50.59363     53.7 9.436e+03 3.149e-10
 50.61830     52.8 9.023e+03 2.333e-10
 50.65924     51.8 8.751e+03 1.856e-10
 50.70006     50.7 8.757e+03 1.859e-10
 50.74100     48.2 8.826e+03 1.849e-10
 50.78203     47.7 9.005e+03 2.127e-10
 50.82297     47.0 9.237e+03 2.288e-10
 50.84743     45.8 9.527e+03 2.354e-10
 50.86790     45.0 9.345e+03 2.149e-10
 50.90483     43.6 9.676e+03 2.332e-10
 50.93544     42.5 9.929e+03 2.525e-10
 50.95581     40.6 1.065e+04 3.235e-10
 50.97414     35.5 1.268e+04 6.898e-10
 50.98438     34.7 1.307e+04 7.557e-10
 50.99674     31.0 1.408e+04 1.799e-09
 51.01721     31.2 1.454e+04 3.358e-09
 51.03759     31.7 1.468e+04 4.016e-09
 51.05806     32.9 1.463e+04 4.114e-09
 51.07861     33.5 1.422e+04 3.276e-09
 51.10114     31.9 1.323e+04 1.566e-09
 51.12171     33.9 1.339e+04 1.786e-09
 51.15043     31.9 1.187e+04 8.444e-10
 51.19137     31.6 1.069e+04 5.017e-10
 51.22814     32.9 1.009e+04 3.388e-10
 51.24861     34.9 1.039e+04 4.293e-10
 51.27323     37.7 1.003e+04 2.811e-10
 51.31417     40.6 9.642e+03 1.598e-10
 51.35505     43.0 9.209e+03 9.249e-11
 51.39598     47.5 9.843e+03 7.077e-11
 51.43697     50.0 9.444e+03 5.765e-11
 51.47790     53.1 8.979e+03 5.476e-11
 51.50242     56.8 8.770e+03 5.463e-11
 51.52288     58.6 9.800e+03 7.189e-11
 51.55977     62.5 9.402e+03 7.278e-11
 51.60070     66.7 9.364e+03 8.016e-11
 51.62932     71.2 9.519e+03 9.659e-11
 51.64979     72.9 1.005e+04 1.415e-10
 51.68257     77.8 1.029e+04 1.700e-10
 51.72350     83.1 1.071e+04 2.078e-10
 51.75623     88.5 1.081e+04 2.434e-10
 51.77669     89.9 1.199e+04 3.346e-10
 51.80536     96.8 1.236e+04 3.607e-10
 51.82981    101.4 1.325e+04 3.796e-10
 51.83492    101.2 1.336e+04 3.937e-10
 51.85140    103.4 1.499e+04 8.195e-10
 51.87690    107.4 1.496e+04 6.255e-10
 51.89317    111.2 1.477e+04 5.434e-10
 51.90340    111.3 1.473e+04 7.037e-10
 51.91774    115.5 1.480e+04 6.706e-10
 51.93820    120.0 1.478e+04 6.392e-10
 51.95662    124.8 1.471e+04 6.055e-10
 51.96685    123.8 1.511e+04 7.187e-10
 51.97914    128.8 1.508e+04 6.863e-10
 51.99960    134.5 1.523e+04 6.618e-10
 52.02007    140.9 1.538e+04 6.571e-10
 52.04054    146.0 1.562e+04 8.092e-10
 52.06100    154.4 1.639e+04 7.908e-10
 52.08147    150.8 6.103e+04 4.173e-10
 52.09371    141.1 9.808e+04 3.363e-10
 52.09878    103.9 1.615e+05 3.205e-10
 52.10695     75.0 1.407e+05 1.489e-09
 52.11719     62.2 5.948e+04 5.134e-08
 52.12484     60.1 2.716e+04 1.987e-06
 52.12789     59.4 2.068e+04 7.454e-06
 52.13045     51.9 1.815e+04 1.760e-05
 52.13505     51.3 1.882e+04 1.236e-05
 52.14016     46.7 2.105e+04 9.129e-06
 52.14376     36.9 1.960e+04 1.364e-05
 52.14632     25.1 1.847e+04 2.166e-05
 52.15040      9.4 1.897e+04 1.393e-05
 52.15551     -4.1 2.356e+04 2.872e-06
 52.15962    -12.6 3.526e+04 4.303e-07
 52.16218    -15.2 3.784e+04 3.443e-07
 52.16575     -9.9 4.523e+04 1.515e-07
 52.17086      3.6 3.969e+04 1.444e-07
 52.17548     17.5 2.909e+04 1.680e-07
 52.17804     31.7 2.252e+04 2.071e-07
 52.18110     38.7 2.181e+04 1.677e-07
 52.18621     44.6 2.267e+04 1.195e-07
 52.19133     47.9 2.360e+04 1.116e-07
 52.19645     45.3 3.201e+04 2.797e-07
 52.20156     39.5 2.107e+04 4.705e-06
 52.20668     31.2 1.879e+04 1.247e-05
 52.20977     23.2 1.897e+04 1.005e-05
 52.21233     21.0 1.885e+04 8.891e-06
 52.21691     15.5 2.737e+04 1.106e-06
 52.22203     11.2 4.073e+04 2.315e-07
 52.22565     -1.5 4.650e+05 3.630e-10
 52.23080    -11.4 3.557e+05 3.054e-10
 52.23999    -22.4 4.860e+05 1.117e-10
 52.25022    -45.6 4.139e+05 1.021e-10
 52.26562    -63.8 2.949e+05 1.182e-10
 52.28411    -47.9 9.005e+05 1.401e-11
 52.29434    -92.9 4.039e+05 1.589e-11
 52.30660   -121.7 3.963e+05 8.460e-12
 52.32707   -157.2 5.704e+04 3.645e-11
 52.34753   -161.2 1.478e+04 1.155e-10
 52.37833   -155.3 1.359e+04 1.836e-10
 52.41121   -148.6 1.436e+04 3.336e-10
 52.43168   -143.2 1.404e+04 4.372e-10
 52.44996   -141.4 1.433e+04 5.542e-10
 52.47033   -140.6 1.433e+04 6.381e-10
 52.48470   -139.9 1.484e+04 8.645e-10
 52.49493   -138.8 1.492e+04 9.211e-10
 52.51127   -139.0 1.555e+04 1.200e-09
 52.53173   -139.5 1.627e+04 1.594e-09
 52.54815   -140.6 1.692e+04 2.069e-09
 52.55839   -140.0 1.640e+04 1.796e-09
 52.57267   -141.9 1.676e+04 2.180e-09
 52.59313   -143.9 1.690e+04 2.582e-09
 52.61160   -145.9 1.684e+04 2.928e-09
 52.62184   -145.8 1.657e+04 2.437e-09
 52.63407   -147.6 1.636e+04 2.710e-09
 52.65453   -149.0 1.625e+04 2.782e-09
 52.67500   -149.8 1.589e+04 2.792e-09
 52.69547   -150.0 1.475e+04 2.166e-09
 52.71593   -150.0 1.414e+04 1.761e-09
 52.73640   -150.3 1.354e+04 1.327e-09
 52.74874   -150.9 1.297e+04 9.858e-10
 52.75897   -149.9 1.270e+04 9.998e-10
 52.77733   -150.5 1.224e+04 8.034e-10
 52.79500   -150.9 1.186e+04 6.817e-10
 52.80523   -149.5 1.170e+04 6.675e-10
 52.81219   -149.6 1.143e+04 6.104e-10
 52.82243   -148.6 1.138e+04 6.536e-10
 52.83873   -148.4 1.133e+04 6.450e-10
 52.85920   -148.1 1.132e+04 6.440e-10
 52.87564   -147.9 1.134e+04 6.559e-10
 52.88588   -146.8 1.137e+04 7.154e-10
 52.90013   -146.9 1.177e+04 8.442e-10
 52.92060   -147.2 1.240e+04 1.091e-09
 52.93910   -147.3 1.333e+04 1.538e-09
 52.94933   -145.7 1.276e+04 1.297e-09
 52.96153   -145.7 1.330e+04 1.639e-09
 52.98200   -145.8 1.394e+04 2.055e-09
 53.00247   -146.1 1.470e+04 2.550e-09
 53.02293   -144.8 1.334e+04 1.842e-09
 53.04340   -145.0 1.347e+04 1.893e-09
 53.06386   -145.2 1.367e+04 1.927e-09
 53.07623   -145.2 1.390e+04 1.950e-09
 53.08647   -143.5 1.210e+04 1.243e-09
 53.10480   -143.4 1.211e+04 1.217e-09
 53.12526   -143.1 1.220e+04 1.220e-09
 53.13969   -142.5 1.224e+04 1.226e-09
 53.14992   -141.2 1.126e+04 9.206e-10
 53.16620   -140.6 1.131e+04 9.281e-10
 53.18666   -140.0 1.132e+04 9.304e-10
 53.20314   -139.1 1.122e+04 9.030e-10
 53.21337   -137.6 1.088e+04 8.112e-10
 53.22760   -136.7 1.084e+04 7.959e-10
 53.24806   -135.9 1.077e+04 7.623e-10
 53.26659   -135.0 1.068e+04 7.238e-10
 53.27682   -133.8 1.064e+04 7.256e-10
 53.28900   -133.0 1.054e+04 6.812e-10
 53.30946   -132.3 1.045e+04 6.455e-10
 53.32993   -131.7 1.042e+04 6.321e-10
 53.34027   -131.1 1.043e+04 6.305e-10
 53.35051   -130.1 1.032e+04 5.961e-10
 53.37086   -129.7 1.032e+04 5.929e-10
 53.39133   -129.5 1.045e+04 6.141e-10
 53.40373   -129.4 1.069e+04 6.854e-10
 53.41396   -128.6 1.057e+04 6.280e-10
 53.43226   -128.6 1.081e+04 7.360e-10
 53.45273   -128.5 1.106e+04 8.733e-10
 53.46718   -128.3 1.130e+04 1.018e-09
 53.47741   -127.7 1.127e+04 1.004e-09
 53.49366   -127.4 1.149e+04 1.174e-09
 53.51413   -127.0 1.167e+04 1.313e-09
 53.53063   -126.7 1.176e+04 1.375e-09
 53.54086   -125.9 1.187e+04 1.440e-09
 53.55506   -125.5 1.192e+04 1.491e-09
 53.57553   -125.2 1.192e+04 1.495e-09
 53.59408   -124.9 1.175e+04 1.374e-09
 53.60431   -124.2 1.197e+04 1.483e-09
 53.61646   -123.9 1.162e+04 1.277e-09
 53.63693   -123.6 1.119e+04 1.034e-09
 53.65740   -123.3 1.077e+04 8.302e-10
 53.66777   -123.1 1.040e+04 6.762e-10
 53.67800   -122.4 1.058e+04 7.521e-10
 53.69833   -122.2 1.027e+04 6.371e-10
 53.71880   -121.8 1.005e+04 5.583e-10
 53.73122   -121.3 9.919e+03 5.074e-10
 53.74145   -120.7 1.006e+04 5.763e-10
 53.75915   -120.0 1.001e+04 5.515e-10
 53.76938   -120.1 9.862e+03 5.126e-10
 53.78020   -119.4 9.845e+03 5.025e-10
 53.79467   -118.6 9.843e+03 5.008e-10
 53.80490   -117.9 9.976e+03 5.622e-10
 53.82113   -117.2 1.007e+04 5.834e-10
 53.84160   -116.6 1.024e+04 6.332e-10
 53.85812   -116.2 1.045e+04 7.108e-10
 53.86836   -115.5 1.077e+04 8.457e-10
 53.88253   -115.1 1.114e+04 1.006e-09
 53.90300   -115.0 1.162e+04 1.250e-09
 53.92157   -115.2 1.221e+04 1.608e-09
 53.93181   -114.2 1.282e+04 1.966e-09
 53.94393   -114.5 1.346e+04 2.578e-09
 53.96439   -114.8 1.402e+04 3.293e-09
 53.98486   -115.1 1.443e+04 3.948e-09
 53.99526   -115.4 1.463e+04 4.282e-09
 54.00549   -114.4 1.560e+04 5.539e-09
 54.02579   -115.2 1.564e+04 5.670e-09
 54.04626   -116.0 1.541e+04 5.461e-09
 54.05871   -116.8 1.485e+04 4.365e-09
 54.06894   -116.3 1.611e+04 6.274e-09
 54.08719   -117.3 1.529e+04 4.664e-09
 54.10766   -118.7 1.444e+04 3.352e-09
 54.12216   -120.1 1.367e+04 2.473e-09
 54.13240   -119.0 1.476e+04 3.787e-09
 54.14859   -120.2 1.386e+04 2.795e-09
 54.16906   -121.3 1.340e+04 2.254e-09
 54.18561   -122.9 1.335e+04 2.111e-09
 54.19585   -121.6 1.421e+04 2.940e-09
 54.20999   -125.3 1.442e+04 2.917e-09
 54.23046   -131.4 1.676e+04 3.727e-09
 54.24907   -136.7 1.881e+04 7.542e-09
 54.25925   -139.4 2.034e+04 1.233e-08
 54.26618   -140.8 2.067e+04 1.724e-08
 54.27641   -142.2 2.118e+04 2.400e-08
 54.28581   -143.6 2.128e+04 3.196e-08
 54.29093   -144.4 2.131e+04 5.752e-08
 54.29688   -145.2 2.123e+04 5.996e-08
 54.30711   -145.4 2.073e+04 5.755e-08
 54.31735   -145.0 2.003e+04 4.234e-08
 54.32265   -144.6 1.936e+04 2.683e-08
 54.32777   -144.5 1.978e+04 3.119e-08
 54.33781   -144.5 1.934e+04 1.729e-08
 54.34805   -145.9 1.883e+04 1.028e-08
 54.35438   -148.5 1.783e+04 6.587e-09
 54.35950   -149.8 1.832e+04 6.463e-09
 54.36851   -151.9 1.654e+04 4.521e-09
 54.37875   -152.8 1.567e+04 3.732e-09
 54.38615   -153.7 1.551e+04 3.533e-09
 54.39127   -155.7 1.595e+04 3.666e-09
 54.39921   -156.4 1.592e+04 3.640e-09
 54.41461   -157.8 1.544e+04 3.355e-09
 54.43513   -158.9 1.488e+04 2.999e-09
 54.44966   -159.6 1.476e+04 2.953e-09
 54.45989   -162.8 1.662e+04 5.436e-09
 54.47606   -162.4 1.621e+04 5.217e-09
 54.49653   -161.7 1.586e+04 5.027e-09
 54.51311   -160.9 1.551e+04 4.838e-09
 54.52334   -161.8 1.505e+04 4.886e-09
 54.53746   -161.0 1.462e+04 4.282e-09
 54.55793   -160.3 1.432e+04 3.888e-09
 54.57656   -159.5 1.409e+04 3.600e-09
 54.58679   -160.3 1.361e+04 2.660e-09
 54.59886   -159.4 1.336e+04 2.444e-09
 54.61933   -158.6 1.316e+04 2.294e-09
 54.63979   -157.8 1.303e+04 2.180e-09
 54.65024   -156.9 1.294e+04 2.108e-09
 54.66048   -157.7 1.221e+04 1.411e-09
 54.68073   -156.7 1.219e+04 1.406e-09
 54.70119   -155.8 1.221e+04 1.412e-09
 54.71370   -155.0 1.239e+04 1.509e-09
 54.72393   -155.7 1.147e+04 1.080e-09
 54.73354   -155.0 1.174e+04 1.184e-09
 54.74377   -153.4 1.191e+04 1.203e-09
 54.76259   -152.6 1.221e+04 1.331e-09
 54.77715   -151.9 1.245e+04 1.468e-09
 54.78738   -152.5 1.147e+04 1.131e-09
 54.80353   -151.7 1.155e+04 1.225e-09
 54.82399   -150.8 1.157e+04 1.261e-09
 54.84060   -149.8 1.141e+04 1.273e-09
 54.85083   -149.5 1.086e+04 1.078e-09
 54.86493   -148.1 1.068e+04 9.704e-10
 54.88539   -146.8 1.041e+04 8.000e-10
 54.90405   -145.8 1.008e+04 5.927e-10
 54.91428   -145.5 9.874e+03 4.621e-10
 54.92632   -145.3 9.423e+03 3.152e-10
 54.95712   -145.3 8.844e+03 2.141e-10
 54.99815   -143.2 8.080e+03 1.469e-10
 55.03115   -140.8 7.784e+03 1.172e-10
 55.05162   -140.3 7.861e+03 1.263e-10
 55.08002   -137.8 7.805e+03 1.171e-10
 55.12095   -135.3 7.796e+03 1.156e-10
 55.15805   -132.8 7.858e+03 1.214e-10
 55.17852   -132.1 8.077e+03 1.554e-10
 55.20282   -129.7 8.287e+03 1.826e-10
 55.24375   -127.2 8.497e+03 2.133e-10
 55.28469   -124.6 8.676e+03 2.416e-10
 55.30542   -122.1 8.827e+03 2.637e-10
 55.32589   -121.4 9.302e+03 3.597e-10
 55.36655   -119.1 9.360e+03 3.727e-10
 55.40749   -117.0 9.379e+03 3.743e-10
 55.43233   -114.7 9.411e+03 3.668e-10
 55.44246   -115.2 9.468e+03 4.267e-10
 55.45846   -114.0 9.453e+03 4.062e-10
 55.47892   -112.8 9.448e+03 3.887e-10
 55.49558   -111.6 9.460e+03 3.772e-10
 55.50582   -111.6 9.656e+03 4.257e-10
 55.51986   -110.2 9.670e+03 4.181e-10
 55.54032   -108.9 9.687e+03 4.170e-10
 55.55904   -107.6 9.776e+03 4.197e-10
 55.56927   -107.6 1.004e+04 4.991e-10
 55.58126   -106.1 1.007e+04 4.989e-10
 55.60172   -104.6 1.014e+04 5.126e-10
 55.62219   -103.0 1.026e+04 5.465e-10
 55.63272   -101.6 1.040e+04 5.952e-10
 55.64295   -101.4 1.059e+04 6.668e-10
 55.66312   -100.1 1.080e+04 7.356e-10
 55.68359    -98.8 1.108e+04 8.340e-10
 55.69617    -97.7 1.146e+04 9.792e-10
 55.70004    -97.7 1.159e+04 1.067e-09
 55.70793    -97.5 1.132e+04 9.626e-10
 55.72452    -96.5 1.162e+04 1.096e-09
 55.74499    -95.5 1.193e+04 1.254e-09
 55.75963    -94.5 1.225e+04 1.439e-09
 55.76986    -94.4 1.219e+04 1.372e-09
 55.78592    -93.4 1.243e+04 1.515e-09
 55.80639    -92.4 1.264e+04 1.646e-09
 55.82308    -91.5 1.279e+04 1.747e-09
 55.83331    -91.3 1.229e+04 1.343e-09
 55.84732    -90.5 1.223e+04 1.348e-09
 55.86779    -89.6 1.204e+04 1.324e-09
 55.88653    -88.8 1.184e+04 1.257e-09
 55.89676    -89.0 1.151e+04 9.644e-10
 55.90872    -88.1 1.133e+04 9.029e-10
 55.92919    -87.3 1.118e+04 8.292e-10
 55.94965    -86.5 1.105e+04 7.514e-10
 55.96021    -85.7 1.091e+04 6.831e-10
 55.98078    -84.6 1.022e+04 4.867e-10
 56.01115    -83.2 1.008e+04 4.478e-10
 56.02367    -82.5 9.967e+03 4.178e-10
 56.03390    -82.3 9.964e+03 4.100e-10
 56.05199    -81.2 9.857e+03 3.799e-10
 56.07245    -80.4 9.803e+03 3.649e-10
 56.08712    -79.2 9.769e+03 3.544e-10
 56.10768    -78.6 9.838e+03 3.618e-10
 56.13395    -77.1 9.745e+03 3.528e-10
 56.15057    -76.5 9.786e+03 3.578e-10
 56.16080    -76.6 9.905e+03 3.731e-10
 56.17479    -76.1 1.004e+04 4.078e-10
 56.19525    -75.8 1.013e+04 4.537e-10
 56.21402    -75.5 1.030e+04 5.065e-10
 56.22425    -75.6 1.047e+04 5.579e-10
 56.23619    -75.5 1.069e+04 6.189e-10
 56.25665    -75.7 1.157e+04 7.299e-10
 56.27712    -81.2 2.104e+04 9.558e-10
 56.28771    -89.3 2.501e+04 5.421e-09
 56.29794    -84.3 2.101e+04 1.492e-09
 56.31289    -90.6 2.392e+04 7.194e-09
 56.31933    -92.0 2.336e+04 2.018e-08
 56.32445    -90.6 2.286e+04 1.167e-08
 56.33331    -91.6 2.252e+04 2.927e-08
 56.34354    -92.0 2.227e+04 8.393e-08
 56.35106    -92.2 2.211e+04 1.875e-07
 56.35618    -92.4 2.266e+04 7.360e-08
 56.36401    -93.5 2.263e+04 1.346e-07
 56.37424    -94.8 2.259e+04 1.882e-07
 56.38279    -96.6 2.259e+04 2.030e-07
 56.38790    -96.1 2.315e+04 1.168e-07
 56.39471    -97.7 2.305e+04 1.227e-07
 56.40494    -99.3 2.317e+04 1.049e-07
 56.41451   -100.8 2.365e+04 7.594e-08
 56.41963   -100.2 2.321e+04 7.302e-08
 56.42541   -101.4 2.357e+04 6.096e-08
 56.43564   -102.7 2.422e+04 4.759e-08
 56.44587   -104.3 2.473e+04 3.351e-08
 56.45135   -106.1 2.442e+04 2.249e-08
 56.45647   -104.4 2.444e+04 3.305e-08
 56.46634   -106.0 2.423e+04 2.283e-08
 56.47657   -107.8 2.312e+04 1.562e-08
 56.48308   -109.5 2.137e+04 1.102e-08
 56.48820   -107.5 2.338e+04 1.589e-08
 56.49704   -108.6 2.236e+04 1.210e-08
 56.50727   -109.3 2.128e+04 9.664e-09
 56.52267   -110.3 1.983e+04 7.548e-09
 56.54151   -112.0 1.640e+04 5.068e-09
 56.55175   -110.5 1.754e+04 4.967e-09
 56.56365   -111.6 1.555e+04 3.446e-09
 56.58412   -111.5 1.486e+04 3.033e-09
 56.60459   -111.2 1.457e+04 2.885e-09
 56.61520   -110.8 1.432e+04 2.788e-09
 56.62543   -110.7 1.336e+04 1.682e-09
 56.64552   -110.2 1.308e+04 1.642e-09
 56.66185   -109.9 1.301e+04 1.644e-09
 56.67208   -108.3 1.280e+04 1.627e-09
 56.67865   -107.8 1.279e+04 1.661e-09
 56.68888   -107.1 1.178e+04 1.055e-09
 56.70692   -106.9 1.190e+04 1.119e-09
 56.72739   -107.1 1.245e+04 1.301e-09
 56.74210   -107.5 1.302e+04 1.616e-09
 56.75234   -106.3 1.208e+04 9.904e-10
 56.76832   -107.0 1.263e+04 1.322e-09
 56.78878   -107.2 1.294e+04 1.712e-09
 56.80555   -107.0 1.301e+04 1.990e-09
 56.81579   -106.1 1.276e+04 1.686e-09
 56.82972   -105.8 1.286e+04 1.980e-09
 56.85018   -105.0 1.283e+04 2.053e-09
 56.86901   -104.0 1.258e+04 1.909e-09
 56.87924   -103.0 1.297e+04 2.245e-09
 56.89112   -102.0 1.276e+04 2.077e-09
 56.91158   -101.1 1.242e+04 1.594e-09
 56.93205   -100.4 1.193e+04 1.089e-09
 56.94269    -99.9 1.132e+04 6.920e-10
 56.95292    -98.3 1.213e+04 1.179e-09
 56.97298    -97.9 1.150e+04 7.446e-10
 56.99345    -97.6 1.084e+04 4.673e-10
 57.00614    -97.4 1.027e+04 3.240e-10
 57.01638    -95.7 1.099e+04 4.878e-10
 57.03438    -95.4 1.039e+04 3.343e-10
 57.05485    -95.0 1.006e+04 2.784e-10
 57.08565    -93.4 9.964e+03 2.650e-10
 57.12301    -91.9 9.821e+03 2.439e-10
 57.14348    -89.8 9.970e+03 2.620e-10
 57.16761    -88.4 9.773e+03 2.358e-10
 57.20855    -86.9 9.450e+03 1.960e-10
 57.24948    -85.4 9.210e+03 1.650e-10
 57.27038    -83.9 9.035e+03 1.422e-10
 57.29085    -82.3 9.245e+03 1.651e-10
 57.33134    -81.0 9.100e+03 1.448e-10
 57.37228    -79.7 9.007e+03 1.312e-10
 57.39728    -78.6 8.963e+03 1.246e-10
 57.41775    -77.4 9.233e+03 1.575e-10
 57.45414    -76.6 9.231e+03 1.573e-10
 57.49508    -75.8 9.252e+03 1.646e-10
 57.52419    -75.0 9.280e+03 1.763e-10
 57.54465    -74.1 9.716e+03 2.378e-10
 57.57694    -73.4 9.814e+03 2.566e-10
 57.61596    -72.8 9.960e+03 2.796e-10
 57.63643    -73.8 9.753e+03 2.376e-10
 57.65109    -73.4 1.006e+04 2.808e-10
 57.67156    -73.2 1.052e+04 3.462e-10
 57.68941    -73.2 1.053e+04 3.828e-10
 57.70978    -73.8 1.072e+04 4.396e-10
 57.72458    -74.5 1.101e+04 5.625e-10
 57.73481    -75.0 1.130e+04 6.740e-10
 57.75071    -75.3 1.169e+04 8.477e-10
 57.77118    -75.6 1.201e+04 1.015e-09
 57.78803    -76.0 1.217e+04 1.114e-09
 57.79826    -76.5 1.243e+04 1.226e-09
 57.81211    -77.0 1.237e+04 1.225e-09
 57.83258    -77.4 1.199e+04 1.099e-09
 57.85148    -77.7 1.157e+04 9.271e-10
 57.86172    -77.9 1.150e+04 8.718e-10
 57.87351    -78.3 1.111e+04 7.314e-10
 57.89398    -78.8 1.079e+04 6.342e-10
 57.91445    -79.3 1.053e+04 5.665e-10
 57.92517    -79.7 1.033e+04 5.219e-10
 57.93540    -79.5 1.026e+04 4.888e-10
 57.95538    -79.8 1.018e+04 4.745e-10
 57.97585    -80.2 1.017e+04 4.727e-10
 57.98862    -82.3 1.045e+04 4.958e-10
 57.99885    -83.1 1.079e+04 5.070e-10
 58.01678    -88.2 1.267e+04 9.551e-10
 58.03725    -92.4 1.413e+04 2.106e-09
 58.05207    -96.0 1.521e+04 3.988e-09
 58.06231    -99.8 1.686e+04 4.984e-09
 58.07301   -104.4 1.720e+04 6.079e-09
 58.08320   -109.3 2.077e+04 6.840e-09
 58.08882   -115.3 2.660e+04 7.609e-09
 58.09393   -126.8 3.781e+04 1.436e-08
 58.10367   -142.0 3.674e+04 4.805e-08
 58.11310   -154.6 3.122e+04 1.293e-07
 58.11822   -157.3 3.051e+04 1.289e-07
 58.12054   -166.2 2.756e+04 1.937e-07
 58.12566   -173.9 2.552e+04 2.761e-07
 58.13437   -179.7 2.625e+04 1.432e-07
 58.14460   -185.3 2.685e+04 5.271e-08
 58.15227   -191.8 2.532e+04 1.527e-08
 58.15739   -201.2 1.829e+04 5.222e-09
 58.16507   -204.7 1.495e+04 3.236e-09
 58.17530   -205.6 1.423e+04 2.376e-09
 58.18399   -206.0 1.404e+04 1.870e-09
 58.18916   -209.2 1.418e+04 1.571e-09
 58.20098   -210.8 1.290e+04 9.434e-10
 58.22145   -212.9 1.070e+04 4.795e-10
 58.24191   -213.9 9.782e+03 3.207e-10
 58.25266   -214.2 9.511e+03 2.711e-10
 58.26289   -215.7 1.004e+04 3.060e-10
 58.28285   -215.5 9.871e+03 2.748e-10
 58.30331   -215.2 9.736e+03 2.600e-10
 58.31611   -215.0 9.695e+03 2.582e-10
 58.32635   -216.4 1.037e+04 3.977e-10
 58.34425   -215.9 1.025e+04 3.844e-10
 58.36471   -215.4 1.018e+04 3.809e-10
 58.37956   -215.1 1.012e+04 4.076e-10
 58.38980   -215.3 1.043e+04 4.937e-10
 58.40565   -214.8 1.034e+04 4.788e-10
 58.43288   -214.4 1.039e+04 5.157e-10
 58.45335   -213.2 1.061e+04 6.275e-10
 58.46705   -212.8 1.052e+04 6.000e-10
 58.48751   -212.5 1.056e+04 6.109e-10
 58.51831   -212.2 1.070e+04 6.440e-10
 58.55934   -210.8 1.046e+04 5.845e-10
 58.58035   -209.3 1.035e+04 5.597e-10
 58.59048   -209.5 1.101e+04 7.063e-10
 58.60039   -209.2 1.098e+04 7.031e-10
 58.61062   -209.9 1.131e+04 8.430e-10
 58.63078   -209.5 1.117e+04 8.090e-10
 58.64361   -209.1 1.103e+04 7.786e-10
 58.65384   -209.3 1.125e+04 8.819e-10
 58.68204   -208.7 1.086e+04 7.405e-10
 58.70725   -207.2 1.027e+04 5.771e-10
 58.71739   -207.2 1.062e+04 6.683e-10
 58.73311   -206.5 1.021e+04 5.151e-10
 58.76391   -205.5 9.864e+03 4.191e-10
 58.80494   -204.8 9.559e+03 3.396e-10
 58.83416   -203.4 9.104e+03 2.561e-10
 58.85462   -203.8 9.228e+03 2.525e-10
 58.88681   -202.5 8.933e+03 2.020e-10
 58.92774   -201.2 8.746e+03 1.709e-10
 58.96106   -200.2 8.692e+03 1.548e-10
 58.98153   -200.9 8.609e+03 1.440e-10
 59.00961   -200.2 8.553e+03 1.339e-10
 59.05054   -199.6 8.503e+03 1.273e-10
 59.08796   -198.9 8.447e+03 1.221e-10
 59.10843   -199.4 8.357e+03 1.148e-10
 59.13241   -198.4 8.269e+03 1.056e-10
 59.17334   -197.3 8.191e+03 9.575e-11
 59.21427   -196.1 8.135e+03 8.695e-11
 59.23533   -194.7 8.108e+03 8.008e-11
 59.25580   -194.7 8.029e+03 7.051e-11
 59.29614   -193.2 8.027e+03 6.735e-11
 59.33707   -191.7 8.030e+03 6.682e-11
 59.36224   -190.3 8.074e+03 6.716e-11
 59.38270   -190.2 8.060e+03 6.369e-11
 59.41894   -189.0 8.253e+03 7.556e-11
 59.45987   -187.9 8.440e+03 9.792e-11
 59.48914   -186.8 8.641e+03 1.286e-10
 59.50961   -187.1 8.739e+03 1.436e-10
 59.54174   -186.2 9.051e+03 1.946e-10
 59.56474   -185.6 9.415e+03 2.625e-10
 59.58521   -185.9 9.142e+03 2.071e-10
 59.61604   -185.4 9.523e+03 2.850e-10
 59.63651   -185.6 9.825e+03 3.418e-10
 59.66454   -185.3 1.019e+04 4.365e-10
 59.68963   -185.1 1.038e+04 4.989e-10
 59.69977   -185.4 1.040e+04 5.242e-10
 59.71551   -185.9 1.051e+04 5.836e-10
 59.73597   -186.2 1.057e+04 6.301e-10
 59.75299   -186.4 1.058e+04 6.409e-10
 59.76322   -186.5 1.058e+04 6.432e-10
 59.77691   -186.7 1.051e+04 6.142e-10
 59.79737   -186.9 1.038e+04 5.458e-10
 59.82817   -187.2 1.009e+04 4.426e-10
 59.86920   -187.3 9.871e+03 3.806e-10
 59.89032   -187.1 9.556e+03 3.074e-10
 59.91079   -186.8 9.316e+03 2.534e-10
 59.95107   -186.3 9.061e+03 2.055e-10
 59.99200   -185.6 8.876e+03 1.749e-10
 60.01722   -184.7 8.747e+03 1.566e-10
 60.03769   -184.0 8.624e+03 1.311e-10
 60.07387   -182.7 8.565e+03 1.235e-10
 60.11480   -181.3 8.537e+03 1.204e-10
 60.14413   -179.8 8.528e+03 1.192e-10
 60.16459   -179.0 8.459e+03 1.019e-10
 60.19667   -177.4 8.460e+03 1.033e-10
 60.23760   -175.9 8.495e+03 1.089e-10
 60.27103   -174.2 8.551e+03 1.157e-10
 60.29150   -173.2 8.503e+03 1.073e-10
 60.31947   -171.5 8.590e+03 1.188e-10
 60.36040   -169.8 8.654e+03 1.248e-10
 60.39793   -168.2 8.674e+03 1.261e-10
 60.41840   -167.0 8.713e+03 1.368e-10
 60.44227   -165.3 8.727e+03 1.376e-10
 60.48320   -163.6 8.737e+03 1.310e-10
 60.52413   -161.8 8.733e+03 1.196e-10
 60.54530   -159.9 8.749e+03 1.139e-10
 60.56577   -158.6 8.775e+03 1.209e-10
 60.60600   -156.7 8.800e+03 1.153e-10
 60.64693   -154.8 8.814e+03 1.148e-10
 60.67221   -153.3 9.097e+03 1.335e-10
 60.69267   -151.8 8.983e+03 1.343e-10
 60.72880   -150.5 9.456e+03 1.879e-10
 60.76973   -149.2 1.005e+04 3.283e-10
 60.79911   -148.1 1.063e+04 5.345e-10
 60.81958   -146.9 1.080e+04 5.999e-10
 60.85160   -146.1 1.142e+04 9.207e-10
 60.89253   -145.7 1.195e+04 1.236e-09
 60.92601   -145.4 1.234e+04 1.455e-09
 60.94648   -144.5 1.253e+04 1.580e-09
 60.97440   -144.3 1.274e+04 1.654e-09
 60.99960   -143.9 1.295e+04 1.740e-09
 61.00974   -143.8 1.294e+04 1.723e-09
 61.02537   -143.7 1.287e+04 1.542e-09
 61.04584   -143.4 1.271e+04 1.201e-09
 61.06296   -143.9 1.268e+04 1.031e-09
 61.07319   -143.3 1.219e+04 9.220e-10
 61.08677   -143.5 1.216e+04 8.354e-10
 61.10724   -143.7 1.214e+04 7.862e-10
 61.12641   -143.8 1.212e+04 7.760e-10
 61.13664   -143.1 1.188e+04 7.620e-10
 61.14817   -143.0 1.210e+04 7.722e-10
 61.16864   -142.8 1.222e+04 8.266e-10
 61.18910   -142.5 1.230e+04 9.014e-10
 61.20009   -142.3 1.234e+04 1.003e-09
 61.21033   -141.5 1.230e+04 1.022e-09
 61.23004   -141.2 1.228e+04 1.206e-09
 61.25050   -140.9 1.231e+04 1.456e-09
 61.26355   -140.7 1.259e+04 1.793e-09
 61.27378   -140.1 1.251e+04 1.992e-09
 61.29144   -139.9 1.312e+04 2.745e-09
 61.31190   -139.9 1.433e+04 3.963e-09
 61.32700   -140.4 1.601e+04 5.960e-09
 61.33723   -140.1 1.588e+04 6.524e-09
 61.35284   -140.7 1.763e+04 9.768e-09
 61.37330   -141.8 1.907e+04 1.311e-08
 61.39045   -143.6 1.995e+04 1.454e-08
 61.40068   -142.9 1.861e+04 1.520e-08
 61.41424   -145.2 1.874e+04 1.554e-08
 61.43470   -147.6 1.861e+04 1.351e-08
 61.45390   -149.9 1.768e+04 9.385e-09
 61.46413   -149.2 1.678e+04 8.114e-09
 61.47563   -151.4 1.584e+04 5.771e-09
 61.49285   -152.8 1.508e+04 4.235e-09
 61.50309   -153.6 1.570e+04 5.341e-09
 61.51657   -154.3 1.496e+04 3.981e-09
 61.52759   -154.3 1.446e+04 2.811e-09
 61.53782   -153.3 1.455e+04 3.307e-09
 61.55750   -152.9 1.431e+04 2.687e-09
 61.57797   -152.4 1.404e+04 2.011e-09
 61.59104   -152.1 1.362e+04 1.444e-09
 61.60127   -150.6 1.422e+04 2.182e-09
 61.61890   -150.3 1.396e+04 1.611e-09
 61.63937   -150.2 1.341e+04 1.180e-09
 61.65449   -150.2 1.271e+04 9.097e-10
 61.66472   -148.6 1.381e+04 1.289e-09
 61.68030   -148.9 1.307e+04 9.736e-10
 61.70077   -149.0 1.242e+04 7.990e-10
 61.71794   -149.1 1.214e+04 7.390e-10
 61.72817   -148.2 1.299e+04 9.396e-10
 61.74170   -148.7 1.265e+04 8.726e-10
 61.76217   -149.5 1.258e+04 8.668e-10
 61.78139   -151.0 1.271e+04 9.003e-10
 61.79163   -150.8 1.367e+04 1.240e-09
 61.80310   -152.6 1.371e+04 1.460e-09
 61.82357   -154.4 1.394e+04 2.044e-09
 61.84403   -155.8 1.434e+04 2.946e-09
 61.85508   -156.7 1.481e+04 4.076e-09
 61.86531   -156.6 1.486e+04 3.801e-09
 61.88497   -157.1 1.499e+04 4.430e-09
 61.90543   -157.5 1.505e+04 4.696e-09
 61.91853   -158.0 1.502e+04 4.741e-09
 61.92876   -157.1 1.431e+04 3.190e-09
 61.94637   -157.5 1.415e+04 2.860e-09
 61.96683   -157.9 1.398e+04 2.561e-09
 61.98198   -158.3 1.381e+04 2.379e-09
 61.99222   -157.8 1.333e+04 1.224e-09
 62.00777   -158.1 1.325e+04 1.206e-09
 62.02823   -158.0 1.319e+04 1.257e-09
 62.04543   -157.9 1.309e+04 1.351e-09
 62.05567   -157.7 1.252e+04 6.940e-10
 62.06917   -157.4 1.247e+04 7.963e-10
 62.08963   -156.9 1.238e+04 8.901e-10
 62.10889   -156.1 1.229e+04 9.366e-10
 62.11912   -155.5 1.175e+04 5.863e-10
 62.13057   -154.8 1.171e+04 6.474e-10
 62.15103   -154.1 1.169e+04 6.885e-10
 62.17150   -153.4 1.171e+04 7.130e-10
 62.18257   -152.7 1.175e+04 7.277e-10
 62.19280   -152.3 1.160e+04 6.445e-10
 62.21243   -151.5 1.163e+04 6.877e-10
 62.23290   -150.8 1.169e+04 7.227e-10
 62.24602   -150.2 1.178e+04 7.615e-10
 62.25626   -149.4 1.168e+04 7.159e-10
 62.27383   -148.9 1.181e+04 7.924e-10
 62.29430   -148.4 1.198e+04 8.795e-10
 62.30947   -148.1 1.217e+04 9.962e-10
 62.31971   -147.3 1.213e+04 9.865e-10
 62.33523   -147.1 1.236e+04 1.170e-09
 62.35570   -146.8 1.261e+04 1.401e-09
 62.37293   -146.4 1.284e+04 1.628e-09
 62.38316   -145.7 1.282e+04 1.714e-09
 62.39663   -145.2 1.306e+04 2.014e-09
 62.41710   -144.8 1.319e+04 2.167e-09
 62.43638   -144.3 1.322e+04 2.206e-09
 62.44661   -143.6 1.336e+04 2.490e-09
 62.45701   -143.1 1.337e+04 2.524e-09
 62.46724   -143.0 1.294e+04 1.955e-09
 62.47850   -142.5 1.286e+04 1.889e-09
 62.49896   -141.9 1.278e+04 1.642e-09
 62.51006   -141.5 1.269e+04 1.382e-09
 62.52030   -141.0 1.291e+04 1.780e-09
 62.53990   -140.8 1.289e+04 1.555e-09
 62.56036   -140.5 1.289e+04 1.411e-09
 62.57351   -140.2 1.289e+04 1.334e-09
 62.58375   -140.0 1.314e+04 1.657e-09
 62.60130   -139.7 1.312e+04 1.562e-09
 62.62176   -139.4 1.304e+04 1.484e-09
 62.63697   -139.0 1.298e+04 1.391e-09
 62.64720   -138.8 1.306e+04 1.538e-09
 62.66270   -138.3 1.290e+04 1.344e-09
 62.68316   -137.8 1.274e+04 1.155e-09
 62.70042   -137.2 1.261e+04 1.001e-09
 62.71065   -137.0 1.240e+04 9.442e-10
 62.72410   -136.4 1.225e+04 8.038e-10
 62.74456   -135.7 1.216e+04 6.964e-10
 62.76387   -135.1 1.212e+04 6.179e-10
 62.78443   -134.8 1.192e+04 4.965e-10
 62.81639   -133.8 1.192e+04 4.687e-10
 62.85733   -132.3 1.187e+04 4.516e-10
 62.89097   -131.1 1.182e+04 4.473e-10
 62.91144   -130.8 1.159e+04 3.541e-10
 62.93919   -129.7 1.156e+04 3.395e-10
 62.98012   -128.5 1.151e+04 3.301e-10
 63.01787   -127.2 1.145e+04 3.227e-10
 63.03834   -127.2 1.125e+04 2.833e-10
 63.06199   -125.8 1.126e+04 2.867e-10
 63.10292   -124.4 1.132e+04 3.043e-10
 63.14386   -122.9 1.136e+04 3.312e-10
 63.16524   -121.3 1.140e+04 3.615e-10
 63.18571   -120.9 1.135e+04 3.275e-10
 63.22572   -119.4 1.140e+04 3.565e-10
 63.26666   -118.0 1.148e+04 3.863e-10
 63.29215   -116.6 1.155e+04 4.100e-10
 63.31261   -116.3 1.147e+04 3.346e-10
 63.34852   -115.0 1.152e+04 3.587e-10
 63.38946   -113.7 1.154e+04 3.743e-10
 63.41905   -112.3 1.156e+04 3.854e-10
 63.43049   -112.0 1.151e+04 3.262e-10
 63.44183   -111.3 1.151e+04 3.296e-10
 63.47132   -109.9 1.153e+04 3.455e-10
 63.51226   -108.5 1.156e+04 3.657e-10
 63.54595   -107.1 1.159e+04 3.921e-10
 63.56642   -106.7 1.153e+04 3.256e-10
 63.59412   -105.2 1.154e+04 3.494e-10
 63.63506   -103.8 1.154e+04 3.743e-10
 63.67286   -102.3 1.154e+04 3.937e-10
 63.69332   -101.6 1.144e+04 3.039e-10
 63.71692   -100.0 1.146e+04 3.339e-10
 63.75786    -98.3 1.148e+04 3.627e-10
 63.79879    -96.7 1.151e+04 3.845e-10
 63.82023    -95.1 1.156e+04 3.984e-10
 63.84069    -94.4 1.151e+04 3.467e-10
 63.88066    -92.8 1.158e+04 3.795e-10
 63.92159    -91.3 1.162e+04 3.965e-10
 63.94713    -89.8 1.161e+04 3.995e-10
 63.96760    -89.3 1.156e+04 3.662e-10
 64.00345    -87.6 1.148e+04 3.805e-10
 64.04439    -85.9 1.135e+04 3.853e-10
 64.07404    -84.0 1.123e+04 3.918e-10
 64.09450    -83.6 1.119e+04 3.925e-10
 64.12625    -81.7 1.112e+04 4.188e-10
 64.16719    -79.9 1.107e+04 4.436e-10
 64.20094    -78.2 1.106e+04 4.710e-10
 64.22141    -77.9 1.104e+04 5.010e-10
 64.24905    -76.2 1.105e+04 5.239e-10
 64.28999    -74.6 1.106e+04 5.382e-10
 64.32784    -72.9 1.104e+04 5.481e-10
 64.34831    -72.7 1.086e+04 5.047e-10
 64.37185    -70.9 1.078e+04 4.914e-10
 64.41279    -68.9 1.075e+04 4.841e-10
 64.45372    -66.9 1.075e+04 4.957e-10
 64.47521    -64.8 1.083e+04 5.447e-10
 64.49568    -64.3 1.049e+04 4.072e-10
 64.53559    -61.9 1.058e+04 4.347e-10
 64.57652    -59.4 1.067e+04 4.830e-10
 64.60212    -56.6 1.066e+04 5.426e-10
 64.62258    -56.1 1.025e+04 3.192e-10
 64.65839    -53.0 1.022e+04 3.661e-10
 64.69932    -51.0 1.039e+04 4.895e-10
 64.72892    -52.2 8.922e+03 7.488e-10
 64.74939    -52.8 1.315e+04 4.426e-10
 64.77085    -62.3 2.085e+04 9.804e-10
 64.78606    -71.7 5.556e+04 8.509e-10
 64.79624    -72.4 4.629e+04 6.935e-09
 64.80241    -77.2 3.932e+04 2.868e-08
 64.80753    -81.2 3.805e+04 1.112e-08
 64.81671    -86.5 3.044e+04 3.542e-08
 64.82694    -91.1 2.549e+04 9.265e-08
 64.83414    -94.6 2.482e+04 1.670e-07
 64.83926    -94.2 2.216e+04 9.647e-08
 64.84741    -95.5 2.415e+04 1.055e-07
 64.85764    -98.2 2.561e+04 9.284e-08
 64.86586   -104.3 2.753e+04 2.676e-08
 64.87098    -98.9 2.666e+04 4.471e-08
 64.87753   -108.0 2.558e+04 6.760e-09
 64.88265   -108.0 2.493e+04 6.081e-09
 64.88834   -116.6 1.555e+04 1.785e-09
 64.89759   -118.0 1.249e+04 1.370e-09
 64.90271   -117.2 1.289e+04 1.364e-09
 64.91397   -117.9 1.182e+04 1.267e-09
 64.92941   -116.7 1.132e+04 1.159e-09
 64.93965   -115.8 1.113e+04 9.753e-10
 64.95496   -114.8 1.092e+04 9.327e-10
 64.97542   -114.1 1.091e+04 9.279e-10
 64.99287   -113.9 1.094e+04 9.287e-10
 65.00310   -113.6 1.067e+04 8.301e-10
 65.01636   -113.8 1.092e+04 8.600e-10
 65.03682   -115.0 1.159e+04 1.068e-09
 65.05632   -116.3 1.225e+04 1.459e-09
 65.06655   -115.6 1.184e+04 1.265e-09
 65.07776   -116.8 1.230e+04 1.595e-09
 65.09822   -117.9 1.259e+04 1.932e-09
 65.11869   -119.0 1.267e+04 2.150e-09
 65.13000   -119.9 1.266e+04 2.199e-09
 65.14024   -119.9 1.244e+04 1.897e-09
 65.15962   -120.6 1.240e+04 1.904e-09
 65.18009   -120.9 1.203e+04 1.818e-09
 65.19345   -121.0 1.163e+04 1.507e-09
 65.20369   -120.8 1.158e+04 1.470e-09
 65.22102   -120.6 1.116e+04 1.135e-09
 65.24149   -120.3 1.072e+04 8.231e-10
 65.25691   -120.1 1.032e+04 5.876e-10
 65.26714   -119.7 1.024e+04 5.385e-10
 65.28242   -119.6 9.951e+03 4.127e-10
 65.31322   -119.4 9.759e+03 3.450e-10
 65.34967   -118.5 9.453e+03 2.670e-10
 65.37014   -118.8 9.446e+03 2.629e-10
 65.38401   -117.8 9.188e+03 2.122e-10
 65.40447   -117.1 9.223e+03 2.175e-10
 65.43612   -116.5 9.199e+03 2.117e-10
 65.47705   -116.1 9.251e+03 2.193e-10
 65.51091   -116.0 9.345e+03 2.341e-10
 65.53138   -115.9 9.698e+03 3.031e-10
 65.55892   -116.0 9.761e+03 3.144e-10
 65.59985   -115.8 9.776e+03 3.152e-10
 65.63781   -115.5 9.699e+03 2.882e-10
 65.65828   -115.8 9.979e+03 3.323e-10
 65.68172   -115.3 9.770e+03 2.791e-10
 65.72265   -114.6 9.642e+03 2.471e-10
 65.76358   -113.6 9.608e+03 2.369e-10
 65.78518   -112.5 9.609e+03 2.358e-10
 65.80565   -112.6 9.814e+03 2.675e-10
 65.84545   -111.4 9.864e+03 2.726e-10
 65.88638   -110.2 9.905e+03 2.759e-10
 65.91209   -108.9 9.920e+03 2.764e-10
 65.93255   -109.2 1.008e+04 3.278e-10
 65.96825   -107.8 1.005e+04 3.200e-10
 66.00918   -106.2 1.003e+04 3.131e-10
 66.03899   -104.6 1.002e+04 3.106e-10
 66.05946   -105.0 1.017e+04 3.688e-10
 66.09105   -103.4 1.023e+04 3.898e-10
 66.13198   -101.7 1.033e+04 4.225e-10
 66.16589    -99.9 1.046e+04 4.639e-10
 66.18636   -100.4 1.055e+04 4.894e-10
 66.21385    -98.6 1.062e+04 4.917e-10
 66.25478    -96.9 1.073e+04 5.187e-10
 66.29280    -95.1 1.087e+04 5.593e-10
 66.31326    -95.8 1.065e+04 4.398e-10
 66.33665    -94.0 1.075e+04 4.664e-10
 66.37758    -92.4 1.084e+04 4.917e-10
 66.41851    -90.7 1.090e+04 5.035e-10
 66.44017    -89.0 1.093e+04 5.041e-10
 66.45030    -89.7 1.074e+04 4.422e-10
 66.46948    -89.3 1.075e+04 4.455e-10
 66.48995    -88.1 1.083e+04 4.633e-10
 66.50342    -87.8 1.084e+04 4.666e-10
 66.51366    -88.0 1.074e+04 4.510e-10
 66.53088    -87.0 1.081e+04 4.675e-10
 66.55135    -86.7 1.081e+04 4.692e-10
 66.56688    -85.8 1.083e+04 4.726e-10
 66.57711    -86.1 1.080e+04 4.916e-10
 66.59228    -85.7 1.079e+04 4.796e-10
 66.61275    -84.8 1.083e+04 4.492e-10
 66.63033    -84.5 1.083e+04 4.296e-10
 66.64056    -84.6 1.083e+04 4.305e-10
 66.66401    -83.6 1.087e+04 3.868e-10
 66.69398    -82.4 1.092e+04 3.430e-10
 66.71444    -82.6 1.080e+04 3.310e-10
 66.74598    -81.1 1.087e+04 3.075e-10
 66.78691    -79.7 1.093e+04 3.057e-10
 66.82088    -78.5 1.132e+04 3.310e-10
 66.84135    -79.0 1.141e+04 3.526e-10
 66.85845    -78.5 1.150e+04 3.859e-10
 66.87882    -78.5 1.159e+04 4.892e-10
 66.89437    -78.1 1.181e+04 6.740e-10
 66.90460    -78.3 1.200e+04 7.894e-10
 66.91975    -78.0 1.241e+04 1.052e-09
 66.94022    -77.8 1.288e+04 1.383e-09
 66.95782    -77.9 1.337e+04 1.772e-09
 66.96805    -78.4 1.357e+04 1.923e-09
 66.98115    -78.7 1.394e+04 2.263e-09
 67.00162    -79.3 1.417e+04 2.545e-09
 67.02127    -80.1 1.424e+04 2.730e-09
 67.03151    -80.7 1.408e+04 2.424e-09
 67.04255    -81.4 1.396e+04 2.432e-09
 67.06302    -82.1 1.374e+04 2.406e-09
 67.08348    -82.7 1.342e+04 2.312e-09
 67.09496    -83.2 1.307e+04 2.096e-09
 67.10519    -84.0 1.274e+04 1.787e-09
 67.12441    -84.5 1.247e+04 1.557e-09
 67.14488    -85.0 1.218e+04 1.337e-09
 67.15841    -85.4 1.191e+04 1.146e-09
 67.16864    -86.0 1.188e+04 1.171e-09
 67.18581    -86.2 1.161e+04 1.024e-09
 67.20628    -86.3 1.135e+04 9.085e-10
 67.22186    -86.1 1.109e+04 8.207e-10
 67.23209    -86.5 1.111e+04 8.622e-10
 67.24721    -86.1 1.093e+04 7.980e-10
 67.26768    -85.7 1.081e+04 7.597e-10
 67.28531    -85.2 1.075e+04 7.446e-10
 67.29542    -85.8 1.086e+04 8.106e-10
 67.29825    -86.1 1.084e+04 8.386e-10
 67.30861    -85.7 1.082e+04 8.365e-10
 67.32908    -85.5 1.090e+04 8.547e-10
 67.34876    -85.3 1.096e+04 9.559e-10
 67.35900    -86.4 1.117e+04 1.099e-09
 67.37001    -86.1 1.131e+04 1.250e-09
 67.39048    -85.9 1.144e+04 1.409e-09
 67.41095    -85.6 1.153e+04 1.536e-09
 67.42245    -85.4 1.156e+04 1.609e-09
 67.43268    -86.4 1.175e+04 1.770e-09
 67.45188    -86.3 1.172e+04 1.771e-09
 67.47235    -86.2 1.169e+04 1.738e-09
 67.48590    -86.3 1.168e+04 1.714e-09
 67.49614    -87.5 1.175e+04 1.749e-09
 67.51328    -87.6 1.170e+04 1.731e-09
 67.53375    -87.5 1.167e+04 1.730e-09
 67.54935    -87.4 1.163e+04 1.740e-09
 67.55959    -88.3 1.152e+04 1.636e-09
 67.57468    -87.9 1.143e+04 1.577e-09
 67.59515    -87.4 1.132e+04 1.434e-09
 67.61281    -87.0 1.123e+04 1.287e-09
 67.62304    -87.7 1.100e+04 1.044e-09
 67.63608    -87.4 1.090e+04 8.809e-10
 67.65655    -87.3 1.078e+04 7.329e-10
 67.67626    -87.4 1.065e+04 6.255e-10
 67.68649    -88.3 1.028e+04 5.113e-10
 67.69748    -88.6 1.021e+04 5.018e-10
 67.71795    -89.0 1.034e+04 5.180e-10
 67.73841    -89.4 1.051e+04 5.973e-10
 67.74994    -89.6 1.075e+04 7.318e-10
 67.76018    -89.7 1.067e+04 6.817e-10
 67.77935    -89.8 1.101e+04 8.647e-10
 67.79981    -89.9 1.143e+04 1.085e-09
 67.81339    -90.0 1.190e+04 1.297e-09
 67.82363    -89.9 1.180e+04 1.194e-09
 67.84075    -90.6 1.220e+04 1.339e-09
 67.86121    -91.5 1.246e+04 1.456e-09
 67.87694    -91.9 1.286e+04 1.728e-09
 67.89751    -91.1 1.255e+04 1.463e-09
 67.93304    -91.5 1.278e+04 1.624e-09
 67.97397    -91.9 1.287e+04 1.669e-09
 68.00395    -92.4 1.265e+04 1.464e-09
 68.02441    -91.5 1.284e+04 1.650e-09
 68.05584    -91.7 1.214e+04 1.217e-09
 68.09677    -91.7 1.135e+04 8.413e-10
 68.13085    -90.8 1.084e+04 6.238e-10
 68.15132    -89.7 1.109e+04 7.227e-10
 68.17864    -88.6 1.062e+04 5.223e-10
 68.21957    -87.4 1.026e+04 3.930e-10
 68.25775    -86.1 1.004e+04 3.179e-10
 68.27822    -85.3 1.017e+04 3.460e-10
 68.30144    -84.0 1.002e+04 2.919e-10
 68.34237    -82.8 9.900e+03 2.536e-10
 68.38331    -81.6 9.819e+03 2.321e-10
 68.40512    -80.4 9.801e+03 2.266e-10
 68.42559    -79.7 9.990e+03 2.954e-10
 68.46517    -78.5 9.987e+03 3.115e-10
 68.50611    -77.2 1.001e+04 3.292e-10
 68.53203    -76.1 1.003e+04 3.443e-10
 68.55249    -75.8 1.023e+04 4.347e-10
 68.58797    -74.7 1.019e+04 4.283e-10
 68.62890    -73.6 1.010e+04 3.740e-10
 68.65893    -72.5 1.002e+04 3.020e-10
 68.67940    -72.5 1.009e+04 3.061e-10
 68.71077    -71.7 9.998e+03 2.470e-10
 68.75170    -70.7 9.979e+03 2.206e-10
 68.78583    -69.9 9.985e+03 2.146e-10
 68.80630    -69.9 1.006e+04 2.379e-10
 68.83357    -69.5 1.043e+04 2.712e-10
 68.87450    -69.7 1.099e+04 3.957e-10
 68.90511    -70.7 1.141e+04 5.776e-10
 68.92278    -71.7 1.191e+04 1.000e-09
 68.93301    -71.7 1.196e+04 1.041e-09
 68.94594    -71.9 1.262e+04 1.703e-09
 68.96641    -71.7 1.325e+04 2.340e-09
 68.99721    -72.0 1.359e+04 2.569e-09
 69.03824    -73.0 1.351e+04 2.350e-09
 69.06011    -73.5 1.276e+04 1.547e-09
 69.08057    -73.3 1.271e+04 1.493e-09
 69.12010    -73.5 1.206e+04 1.041e-09
 69.16104    -72.9 1.171e+04 8.703e-10
 69.18701    -71.8 1.157e+04 8.193e-10
 69.20748    -71.4 1.176e+04 8.625e-10
 69.22675    -70.1 1.163e+04 8.254e-10
 69.24722    -70.6 1.120e+04 5.761e-10
 69.28384    -69.0 1.104e+04 5.305e-10
 69.31392    -67.2 1.087e+04 4.737e-10
 69.33438    -66.6 1.098e+04 4.602e-10
 69.36570    -64.8 1.083e+04 4.017e-10
 69.40664    -63.1 1.072e+04 3.564e-10
 69.44082    -61.3 1.064e+04 3.244e-10
 69.46129    -60.7 1.072e+04 3.262e-10
 69.48850    -58.8 1.065e+04 3.084e-10
 69.52943    -57.1 1.064e+04 3.008e-10
 69.56772    -55.6 1.065e+04 2.997e-10
 69.58819    -55.4 1.092e+04 3.474e-10
 69.61130    -54.3 1.123e+04 4.876e-10
 69.65223    -53.1 1.167e+04 7.891e-10
 69.69317    -51.6 1.216e+04 1.182e-09
 69.71509    -50.6 1.258e+04 1.472e-09
 69.73556    -51.0 1.308e+04 1.795e-09
 69.77503    -50.9 1.314e+04 1.829e-09
 69.81597    -50.7 1.300e+04 1.684e-09
 69.84200    -50.3 1.286e+04 1.498e-09
 69.86246    -50.7 1.293e+04 1.601e-09
 69.88750    -49.6 1.281e+04 1.445e-09
 69.90525    -49.3 1.273e+04 1.350e-09
 69.91549    -49.2 1.265e+04 1.286e-09
 69.92834    -48.8 1.257e+04 1.144e-09
 69.94880    -48.6 1.255e+04 1.051e-09
 69.96870    -48.4 1.251e+04 9.894e-10
 69.97894    -48.8 1.248e+04 9.525e-10
 69.98974    -48.6 1.247e+04 9.617e-10
 70.01020    -48.3 1.248e+04 9.745e-10
 70.03067    -47.9 1.249e+04 9.824e-10
 70.04239    -47.6 1.250e+04 9.807e-10
 70.05262    -47.8 1.252e+04 1.022e-09
 70.07160    -47.4 1.252e+04 1.003e-09
 70.09571    -46.9 1.247e+04 9.652e-10
 70.11617    -47.3 1.257e+04 1.060e-09
 70.13300    -46.8 1.235e+04 9.824e-10
 70.15347    -46.0 1.213e+04 8.601e-10
 70.16929    -45.0 1.196e+04 7.103e-10
 70.17953    -45.4 1.198e+04 7.792e-10
 70.19071    -44.3 1.190e+04 6.051e-10
 70.20095    -44.3 1.197e+04 7.081e-10
 70.22261    -43.1 1.194e+04 4.673e-10
 70.24308    -43.0 1.197e+04 4.780e-10
 70.26613    -42.6 1.187e+04 3.706e-10
 70.30717    -40.6 1.150e+04 2.746e-10
 70.34810    -38.5 1.123e+04 2.205e-10
 70.37008    -36.4 1.115e+04 2.036e-10
 70.39054    -37.1 1.125e+04 2.356e-10
 70.42997    -35.0 1.124e+04 2.349e-10
 70.47090    -33.0 1.127e+04 2.649e-10
 70.49698    -31.0 1.127e+04 3.011e-10
 70.51745    -31.4 1.142e+04 3.795e-10
 70.55276    -29.1 1.131e+04 3.598e-10
 70.59370    -26.7 1.116e+04 2.796e-10
 70.62388    -24.2 1.102e+04 1.960e-10
 70.64435    -24.7 1.101e+04 1.941e-10
 70.67556    -22.4 1.093e+04 1.379e-10
 70.71650    -20.2 1.088e+04 1.040e-10
 70.75079    -17.8 1.084e+04 8.924e-11
 70.77126    -18.0 1.080e+04 1.217e-10
 70.79836    -15.4 1.078e+04 1.222e-10
 70.83930    -12.8 1.075e+04 1.250e-10
 70.87769    -10.0 1.074e+04 1.282e-10
 70.89816     -9.9 1.077e+04 1.798e-10
 70.92116     -7.3 1.075e+04 1.796e-10
 70.96210     -4.7 1.080e+04 1.726e-10
 71.00303     -2.4 1.087e+04 1.687e-10
 71.02506     -0.1 1.092e+04 1.744e-10
 71.04553     -0.0 1.102e+04 1.974e-10
 71.08490      2.1 1.099e+04 2.192e-10
 71.12583      4.5 1.092e+04 2.586e-10
 71.15197      6.8 1.095e+04 2.877e-10
 71.16073      6.9 1.108e+04 3.542e-10
 71.17553      7.5 1.093e+04 2.593e-10
 71.20770      9.9 1.093e+04 2.704e-10
 71.24863     11.9 1.119e+04 2.858e-10
 71.27887     13.6 1.128e+04 3.531e-10
 71.29934     13.5 1.151e+04 4.087e-10
 71.33050     15.6 1.156e+04 5.307e-10
 71.37143     17.7 1.167e+04 6.539e-10
 71.40577     19.7 1.180e+04 6.997e-10
 71.42624     19.8 1.205e+04 8.141e-10
 71.45329     21.8 1.209e+04 8.220e-10
 71.49423     23.8 1.197e+04 6.992e-10
 71.53268     25.8 1.178e+04 5.173e-10
 71.55314     26.0 1.215e+04 8.129e-10
 71.57609     28.1 1.195e+04 6.138e-10
 71.61703     30.1 1.177e+04 4.496e-10
 71.65796     31.9 1.165e+04 3.564e-10
 71.68005     33.9 1.151e+04 3.318e-10
 71.70051     34.8 1.186e+04 5.033e-10
 71.73983     37.0 1.176e+04 4.896e-10
 71.78076     39.2 1.177e+04 5.211e-10
 71.80695     41.3 1.198e+04 6.382e-10
 71.82742     42.3 1.253e+04 9.362e-10
 71.85230     43.5 1.272e+04 1.098e-09
 71.87021     43.8 1.278e+04 1.157e-09
 71.88044     44.2 1.307e+04 1.475e-09
 71.89313     45.1 1.320e+04 1.743e-09
 71.91360     45.9 1.337e+04 1.994e-09
 71.93366     46.8 1.351e+04 2.184e-09
 71.94389     47.1 1.394e+04 2.859e-09
 71.95453     47.7 1.401e+04 2.854e-09
 71.97500     48.4 1.397e+04 2.696e-09
 71.99546     48.9 1.390e+04 2.455e-09
 72.00734     49.6 1.350e+04 1.962e-09
 72.01758     49.7 1.377e+04 2.202e-09
 72.03640     49.8 1.359e+04 1.971e-09
 72.06066     51.2 1.294e+04 1.433e-09
 72.08123     51.1 1.339e+04 1.697e-09
 72.10823     52.8 1.287e+04 1.254e-09
 72.14916     54.7 1.244e+04 9.308e-10
 72.18766     56.7 1.215e+04 7.089e-10
 72.20813     56.9 1.273e+04 1.109e-09
 72.23103     58.9 1.244e+04 8.779e-10
 72.26125     60.0 1.215e+04 6.796e-10
 72.27139     60.0 1.224e+04 8.002e-10
 72.28200     61.1 1.207e+04 7.089e-10
 72.30246     62.1 1.189e+04 6.304e-10
 72.32293     63.1 1.176e+04 5.857e-10
 72.33484     64.2 1.159e+04 5.428e-10
 72.34507     64.3 1.175e+04 6.497e-10
 72.36386     65.3 1.157e+04 6.057e-10
 72.38433     66.4 1.142e+04 5.641e-10
 72.39829     67.2 1.135e+04 5.482e-10
 72.40852     67.6 1.144e+04 6.014e-10
 72.42526     68.7 1.131e+04 5.423e-10
 72.44573     69.2 1.128e+04 5.192e-10
 72.46184     70.7 1.121e+04 4.989e-10
 72.48240     71.2 1.119e+04 4.634e-10
 72.51756     72.9 1.099e+04 3.844e-10
 72.55849     74.7 1.066e+04 2.806e-10
 72.58884     76.5 1.033e+04 1.967e-10
 72.60931     77.3 1.033e+04 2.005e-10
 72.64036     79.3 1.010e+04 1.415e-10
 72.68129     81.2 9.994e+03 1.023e-10
 72.71574     83.0 9.970e+03 7.982e-11
 72.73621     84.2 9.937e+03 1.017e-10
 72.76316     86.1 9.889e+03 9.018e-11
 72.80409     88.1 9.823e+03 8.902e-11
 72.84265     90.3 9.823e+03 8.940e-11
 72.86311     91.6 9.838e+03 1.116e-10
 72.88596     93.8 9.841e+03 1.125e-10
 72.92689     96.1 9.852e+03 1.181e-10
 72.96782     98.5 9.878e+03 1.293e-10
 72.99002    100.9 9.920e+03 1.437e-10
 73.01048    102.1 1.003e+04 1.735e-10
 73.04969    104.5 1.011e+04 1.959e-10
 73.08337    106.9 1.019e+04 2.149e-10
 73.10384    107.7 9.967e+03 1.777e-10
 73.11692    110.1 1.004e+04 1.900e-10
 73.13739    111.1 1.023e+04 2.408e-10
 73.17249    113.5 1.035e+04 2.591e-10
 73.21342    115.8 1.048e+04 2.746e-10
 73.24382    118.1 1.065e+04 2.937e-10
 73.26429    118.8 1.080e+04 3.564e-10
 73.29529    120.9 1.092e+04 3.790e-10
 73.31741    121.8 1.097e+04 3.922e-10
 73.32755    122.0 1.095e+04 4.270e-10
 73.34626    123.2 1.104e+04 4.888e-10
 73.36673    124.4 1.124e+04 5.929e-10
 73.38077    125.6 1.151e+04 7.261e-10
 73.39100    126.2 1.185e+04 9.083e-10
 73.40766    127.3 1.215e+04 1.070e-09
 73.42813    128.2 1.241e+04 1.216e-09
 73.44422    129.1 1.262e+04 1.335e-09
 73.45445    129.3 1.271e+04 1.349e-09
 73.46906    130.0 1.283e+04 1.434e-09
 73.48953    130.7 1.299e+04 1.550e-09
 73.50767    131.3 1.317e+04 1.685e-09
 73.51790    131.3 1.312e+04 1.599e-09
 73.53046    131.8 1.332e+04 1.750e-09
 73.55093    132.1 1.348e+04 1.922e-09
 73.57112    132.5 1.361e+04 2.090e-09
 73.58136    132.4 1.350e+04 1.914e-09
 73.59186    132.8 1.364e+04 2.113e-09
 73.61233    133.3 1.373e+04 2.271e-09
 73.63279    133.6 1.380e+04 2.332e-09
 73.64481    133.9 1.379e+04 2.307e-09
 73.65504    133.7 1.362e+04 2.048e-09
 73.67372    133.9 1.351e+04 1.935e-09
 73.69419    134.0 1.328e+04 1.767e-09
 73.70826    134.1 1.298e+04 1.579e-09
 73.71849    133.8 1.259e+04 1.196e-09
 73.73512    133.9 1.221e+04 1.035e-09
 73.75559    133.9 1.191e+04 9.703e-10
 73.77171    133.9 1.189e+04 9.795e-10
 73.78194    133.2 1.138e+04 7.393e-10
 73.79652    133.2 1.143e+04 8.151e-10
 73.81699    133.1 1.162e+04 9.532e-10
 73.83516    132.9 1.201e+04 1.203e-09
 73.84540    132.5 1.183e+04 1.177e-09
 73.85792    132.5 1.230e+04 1.511e-09
 73.87839    132.5 1.286e+04 1.978e-09
 73.89861    132.4 1.339e+04 2.514e-09
 73.90885    132.1 1.294e+04 2.071e-09
 73.91932    131.9 1.318e+04 2.258e-09
 73.93979    131.6 1.322e+04 2.276e-09
 73.96026    131.3 1.319e+04 2.259e-09
 73.97230    131.0 1.312e+04 2.248e-09
 73.98253    130.6 1.302e+04 2.037e-09
 74.00119    130.7 1.320e+04 2.270e-09
 74.02166    130.9 1.351e+04 2.571e-09
 74.03575    131.4 1.403e+04 3.017e-09
 74.04598    131.0 1.542e+04 3.493e-09
 74.05757    132.6 1.581e+04 3.987e-09
 74.06752    133.2 1.566e+04 4.271e-09
 74.07250    132.8 1.660e+04 4.859e-09
 74.07784    133.7 1.695e+04 5.286e-09
 74.08808    134.5 1.744e+04 5.811e-09
 74.09831    135.3 1.806e+04 6.513e-09
 74.10422    136.2 1.863e+04 7.221e-09
 74.10934    134.9 2.130e+04 1.109e-08
 74.11878    135.8 2.224e+04 1.288e-08
 74.12901    136.9 2.324e+04 1.479e-08
 74.13595    138.2 2.430e+04 1.695e-08
 74.14106    137.2 2.499e+04 2.936e-08
 74.14948    138.7 2.597e+04 3.680e-08
 74.15971    140.4 2.680e+04 4.849e-08
 74.16767    142.4 2.739e+04 6.714e-08
 74.17279    142.1 2.583e+04 1.088e-07
 74.18018    145.0 2.555e+04 1.768e-07
 74.19041    147.2 2.514e+04 2.524e-07
 74.19940    149.3 2.463e+04 3.385e-07
 74.20449    148.7 2.515e+04 3.731e-07
 74.20827    150.5 2.457e+04 4.594e-07
 74.21338    152.1 2.392e+04 5.455e-07
 74.21777    154.1 2.338e+04 6.664e-07
 74.22033    152.7 2.383e+04 6.663e-07
 74.22362    154.5 2.315e+04 8.558e-07
 74.22873    156.6 2.268e+04 1.101e-06
 74.23364    158.9 2.221e+04 1.426e-06
 74.23619    156.2 2.371e+04 1.027e-06
 74.23897    158.3 2.298e+04 1.375e-06
 74.24408    160.2 2.237e+04 1.805e-06
 74.24920    162.2 2.185e+04 2.324e-06
 74.25206    164.6 2.130e+04 3.024e-06
 74.25461    155.4 3.230e+04 5.543e-07
 74.25943    156.9 3.203e+04 7.257e-07
 74.26455    158.8 2.990e+04 1.238e-06
 74.26792    159.7 2.968e+04 1.707e-06
 74.27048    137.4 5.526e+04 6.790e-08
 74.27478    137.5 4.426e+04 1.928e-07
 74.27990    138.2 3.495e+04 5.403e-07
 74.28378    138.2 3.023e+04 9.603e-07
 74.28634    134.5 2.435e+04 1.798e-06
 74.29013    129.9 2.434e+04 1.207e-06
 74.29525    126.4 2.526e+04 6.338e-07
 74.29965    123.3 3.350e+04 2.279e-07
 74.30479    126.8 4.250e+04 1.479e-07
 74.31321    112.1 6.171e+04 1.350e-08
 74.32344     94.2 3.369e+04 2.111e-08
 74.33142     83.6 2.906e+04 2.330e-08
 74.33654     82.2 2.676e+04 2.015e-08
 74.34391     78.0 2.729e+04 2.128e-08
 74.35414     74.1 2.794e+04 2.235e-08
 74.36315     70.7 2.812e+04 2.224e-08
 74.36826     72.4 2.652e+04 1.770e-08
 74.37461     70.5 2.649e+04 1.717e-08
 74.38484     69.4 2.654e+04 1.637e-08
 74.39487     69.0 2.692e+04 1.537e-08
 74.39999     70.3 2.642e+04 1.332e-08
 74.40531     70.2 2.683e+04 1.218e-08
 74.41554     70.0 2.718e+04 1.113e-08
 74.42577     69.8 2.727e+04 9.691e-09
 74.43171     69.5 2.724e+04 8.575e-09
 74.43688     71.2 2.617e+04 8.230e-09
 74.45146     70.6 2.567e+04 6.492e-09
 74.47192     70.0 2.442e+04 5.126e-09
 74.49015     69.3 2.302e+04 4.467e-09
 74.50038     70.4 1.826e+04 2.923e-09
 74.51286     70.1 1.831e+04 2.722e-09
 74.53332     70.0 1.892e+04 2.556e-09
 74.55360     70.1 1.979e+04 2.442e-09
 74.56383     70.7 1.784e+04 1.524e-09
 74.57426     70.6 1.830e+04 1.346e-09
 74.59472     70.0 1.767e+04 1.393e-09
 74.61519     69.3 1.692e+04 1.695e-09
 74.62728     68.9 1.622e+04 2.159e-09
 74.63752     70.7 1.438e+04 1.364e-09
 74.65612     70.8 1.406e+04 1.620e-09
 74.67659     71.3 1.432e+04 1.846e-09
 74.69074     72.0 1.432e+04 2.050e-09
 74.70097     73.2 1.324e+04 1.307e-09
 74.71752     74.0 1.333e+04 1.384e-09
 74.73799     74.7 1.331e+04 1.389e-09
 74.75419     75.5 1.324e+04 1.369e-09
 74.76442     76.3 1.254e+04 9.823e-10
 74.77892     77.0 1.247e+04 9.558e-10
 74.79939     77.6 1.239e+04 9.346e-10
 74.81764     78.1 1.236e+04 9.372e-10
 74.82787     79.2 1.188e+04 7.597e-10
 74.84032     79.7 1.189e+04 7.733e-10
 74.86079     80.2 1.195e+04 8.197e-10
 74.88109     80.7 1.207e+04 9.124e-10
 74.89132     82.0 1.180e+04 7.767e-10
 74.90172     82.4 1.197e+04 8.660e-10
 74.92219     82.8 1.213e+04 9.753e-10
 74.94265     83.2 1.222e+04 1.078e-09
 74.95478     83.5 1.212e+04 1.126e-09
 74.96501     84.8 1.177e+04 9.187e-10
 74.98359     85.0 1.179e+04 9.707e-10
 75.00405     85.2 1.166e+04 9.946e-10
 75.01823     85.4 1.162e+04 1.002e-09
 75.02566     86.3 1.162e+04 9.670e-10
 75.03195     87.1 1.163e+04 9.347e-10
 75.04499     87.3 1.157e+04 9.577e-10
 75.06545     87.4 1.161e+04 9.947e-10
 75.08168     87.1 1.193e+04 1.112e-09
 75.09191     89.3 1.148e+04 9.532e-10
 75.10639     88.9 1.178e+04 1.100e-09
 75.12685     88.1 1.277e+04 1.486e-09
 75.14513     87.2 1.395e+04 2.242e-09
 75.15537     89.7 1.261e+04 1.503e-09
 75.16779     89.3 1.359e+04 2.171e-09
 75.18825     89.1 1.449e+04 3.109e-09
 75.20858     89.1 1.533e+04 4.214e-09
 75.21882     91.5 1.422e+04 2.908e-09
 75.22919     91.4 1.511e+04 3.930e-09
 75.24965     91.4 1.583e+04 4.924e-09
 75.27012     91.5 1.630e+04 5.724e-09
 75.28227     91.9 1.619e+04 6.014e-09
 75.29250     93.2 1.635e+04 6.068e-09
 75.31105     93.7 1.655e+04 7.143e-09
 75.33152     94.5 1.635e+04 7.041e-09
 75.34572     95.4 1.592e+04 6.355e-09
 75.35595     96.2 1.677e+04 8.902e-09
 75.37245     97.2 1.648e+04 8.196e-09
 75.39292     98.3 1.598e+04 6.885e-09
 75.40917     99.4 1.540e+04 5.413e-09
 75.41941    100.0 1.667e+04 9.206e-09
 75.43385    101.1 1.602e+04 6.928e-09
 75.45432    102.3 1.521e+04 4.670e-09
 75.47262    103.0 1.428e+04 3.008e-09
 75.48286    104.3 1.557e+04 5.215e-09
 75.49525    104.6 1.466e+04 3.196e-09
 75.51572    104.6 1.347e+04 1.978e-09
 75.53608    104.6 1.217e+04 1.368e-09
 75.54631    105.6 1.304e+04 1.697e-09
 75.55665    105.3 1.182e+04 1.235e-09
 75.57712    105.6 1.116e+04 1.097e-09
 75.59758    106.4 1.113e+04 1.101e-09
 75.60976    107.5 1.115e+04 1.127e-09
 75.62000    107.5 1.110e+04 1.092e-09
 75.63852    108.5 1.117e+04 1.148e-09
 75.65898    109.4 1.129e+04 1.227e-09
 75.67321    110.3 1.140e+04 1.292e-09
 75.68345    110.4 1.113e+04 1.125e-09
 75.69992    111.1 1.114e+04 1.126e-09
 75.72038    111.7 1.109e+04 1.105e-09
 75.73667    112.4 1.096e+04 1.048e-09
 75.74690    112.5 1.049e+04 8.254e-10
 75.76132    113.2 1.029e+04 7.496e-10
 75.78178    114.0 1.005e+04 6.357e-10
 75.80012    114.6 9.844e+03 5.407e-10
 75.81035    114.7 9.599e+03 4.352e-10
 75.82272    115.4 9.466e+03 3.771e-10
 75.84318    115.9 9.326e+03 3.250e-10
 75.86367    117.0 9.352e+03 3.055e-10
 75.88423    117.6 8.858e+03 2.035e-10
 75.91501    119.1 8.518e+03 1.532e-10
 75.95595    120.7 8.320e+03 1.298e-10
 75.99067    122.5 8.279e+03 1.237e-10
 76.01113    123.2 8.240e+03 1.202e-10
 76.03781    125.1 8.266e+03 1.197e-10
 76.07874    127.2 8.296e+03 1.192e-10
 76.11757    129.3 8.330e+03 1.180e-10
 76.13804    130.0 8.330e+03 1.184e-10
 76.16061    132.2 8.363e+03 1.156e-10
 76.20154    134.4 8.408e+03 1.122e-10
 76.24248    136.7 8.444e+03 1.075e-10
 76.26494    138.9 8.510e+03 1.011e-10
 76.28541    139.6 8.451e+03 1.059e-10
 76.32434    141.9 8.512e+03 1.022e-10
 76.36528    144.2 8.533e+03 1.029e-10
 76.39185    146.6 8.534e+03 1.056e-10
 76.41231    147.0 8.514e+03 1.128e-10
 76.44714    149.3 8.569e+03 1.181e-10
 76.48808    151.7 8.667e+03 1.354e-10
 76.51875    154.2 8.896e+03 1.700e-10
 76.53922    154.1 9.136e+03 2.085e-10
 76.56994    156.8 9.486e+03 2.688e-10
 76.61088    159.6 9.784e+03 3.303e-10
 76.64148    160.6 9.871e+03 3.783e-10
 76.65569    161.8 9.938e+03 4.246e-10
 76.66592    161.4 9.945e+03 4.237e-10
 76.68231    162.9 1.007e+04 4.676e-10
 76.70278    163.9 1.030e+04 5.253e-10
 76.71914    163.6 1.084e+04 6.865e-10
 76.72938    162.0 1.094e+04 6.742e-10
 76.74371    160.6 1.236e+04 1.250e-09
 76.76418    159.5 1.315e+04 1.950e-09
 76.77948    158.6 1.351e+04 2.426e-09
 76.78761    156.8 1.555e+04 3.209e-09
 76.79273    156.1 1.572e+04 3.266e-09
 76.79990    144.2 2.470e+04 1.288e-08
 76.81013    116.9 3.131e+04 1.307e-07
 76.81934     92.8 3.284e+04 2.141e-07
 76.82446     94.6 3.426e+04 1.668e-07
 76.83060     75.2 3.552e+04 9.792e-08
 76.84083     58.0 2.999e+04 3.173e-08
 76.85107     45.3 1.911e+04 1.746e-08
 76.86646     44.6 1.799e+04 1.318e-08
 76.88698     44.5 1.702e+04 7.864e-09
 76.90745     43.7 1.632e+04 3.802e-09
 76.91973     41.7 1.408e+04 1.735e-09
 76.92996     42.0 1.368e+04 1.777e-09
 76.94838     40.8 1.227e+04 1.119e-09
 76.96036     41.6 1.145e+04 7.575e-10
 76.98093     44.0 1.171e+04 9.200e-10
 77.02021     45.6 1.048e+04 5.197e-10
 77.04683     47.8 9.876e+03 3.817e-10
 77.06730     48.4 9.919e+03 3.419e-10
 77.10207     50.4 9.496e+03 2.512e-10
 77.14301     52.7 9.373e+03 2.376e-10
 77.17373     55.1 9.364e+03 2.392e-10
 77.19420     55.4 9.207e+03 1.946e-10
 77.22487     57.7 9.217e+03 2.037e-10
 77.26581     60.1 9.282e+03 2.294e-10
 77.30064     62.5 9.419e+03 2.638e-10
 77.32110     62.7 9.239e+03 2.191e-10
 77.34767     65.0 9.259e+03 2.199e-10
 77.38861     67.1 9.245e+03 2.109e-10
 77.42754     69.3 9.174e+03 1.847e-10
 77.44801     69.6 9.134e+03 1.838e-10
 77.47047     71.7 9.046e+03 1.517e-10
 77.51141     73.8 8.948e+03 1.188e-10
 77.55234     75.9 8.871e+03 9.250e-11
 77.57491     77.9 8.816e+03 7.600e-11
 77.59538     78.5 8.868e+03 8.989e-11
 77.63421     80.6 8.831e+03 7.899e-11
 77.67514     82.9 8.792e+03 7.603e-11
 77.70182     85.2 8.783e+03 7.598e-11
 77.72228     85.7 8.890e+03 9.015e-11
 77.75701     88.0 8.885e+03 9.123e-11
 77.79794     90.3 8.921e+03 9.347e-11
 77.82872     92.7 8.973e+03 9.549e-11
 77.84919     92.8 9.115e+03 1.229e-10
 77.87981     95.1 9.175e+03 1.266e-10
 77.92074     97.3 9.240e+03 1.315e-10
 77.95562     99.6 9.340e+03 1.417e-10
 77.97609     99.4 9.544e+03 1.856e-10
 78.00260    101.6 9.679e+03 2.054e-10
 78.04354    103.8 9.849e+03 2.433e-10
 78.08253    106.1 1.007e+04 3.105e-10
 78.10299    105.8 1.029e+04 3.753e-10
 78.12540    108.2 1.060e+04 4.679e-10
 78.16634    110.5 1.096e+04 5.875e-10
 78.20727    112.7 1.137e+04 7.352e-10
 78.22990    114.8 1.178e+04 8.589e-10
 78.25036    114.2 1.148e+04 6.624e-10
 78.28914    116.0 1.181e+04 7.131e-10
 78.31974    116.7 1.189e+04 6.932e-10
 78.34011    117.3 1.200e+04 7.041e-10
 78.35661    117.8 1.220e+04 7.458e-10
 78.36684    117.5 1.197e+04 6.942e-10
 78.38104    117.9 1.213e+04 7.831e-10
 78.40151    118.4 1.236e+04 9.086e-10
 78.42006    118.9 1.264e+04 1.085e-09
 78.43029    118.8 1.247e+04 1.049e-09
 78.44244    119.3 1.275e+04 1.210e-09
 78.46291    119.8 1.303e+04 1.393e-09
 78.48337    120.3 1.324e+04 1.564e-09
 78.49374    120.7 1.337e+04 1.686e-09
 78.50398    120.7 1.317e+04 1.542e-09
 78.52431    121.1 1.323e+04 1.608e-09
 78.54477    121.6 1.328e+04 1.645e-09
 78.55719    122.0 1.331e+04 1.674e-09
 78.56743    122.2 1.323e+04 1.591e-09
 78.58571    122.5 1.330e+04 1.646e-09
 78.60617    122.9 1.339e+04 1.730e-09
 78.62065    123.2 1.349e+04 1.857e-09
 78.63088    123.5 1.349e+04 1.786e-09
 78.64711    124.0 1.366e+04 1.974e-09
 78.66757    124.6 1.390e+04 2.249e-09
 78.68410    125.2 1.420e+04 2.625e-09
 78.69433    125.6 1.422e+04 2.512e-09
 78.70851    126.3 1.455e+04 2.997e-09
 78.72897    127.0 1.496e+04 3.639e-09
 78.74755    127.6 1.543e+04 4.430e-09
 78.75778    128.1 1.528e+04 4.050e-09
 78.76991    128.7 1.570e+04 4.808e-09
 78.79037    129.2 1.615e+04 5.644e-09
 78.81084    129.4 1.661e+04 6.527e-09
 78.82123    129.6 1.710e+04 7.488e-09
 78.83147    130.2 1.714e+04 7.269e-09
 78.85177    130.1 1.776e+04 8.644e-09
 78.87224    129.9 1.836e+04 1.037e-08
 78.88469    129.5 1.886e+04 1.231e-08
 78.89079    130.0 1.925e+04 1.368e-08
 78.89876    128.3 1.899e+04 1.382e-08
 78.90796    128.0 1.925e+04 1.523e-08
 78.91631    127.7 1.937e+04 1.632e-08
 78.92143    127.9 1.964e+04 1.800e-08
 78.92843    127.6 1.958e+04 1.872e-08
 78.93866    127.5 1.949e+04 1.841e-08
 78.94804    127.3 1.935e+04 1.763e-08
 78.95316    127.5 1.951e+04 1.842e-08
 78.95913    127.3 1.938e+04 1.681e-08
 78.96936    127.0 1.926e+04 1.481e-08
 78.97959    126.5 1.908e+04 1.269e-08
 78.98488    126.0 1.885e+04 1.067e-08
 78.99000    125.7 1.912e+04 1.077e-08
 79.00006    125.0 1.883e+04 8.935e-09
 79.01029    124.1 1.852e+04 7.367e-09
 79.01661    123.2 1.815e+04 6.278e-09
 79.02173    122.8 1.832e+04 6.369e-09
 79.03076    121.6 1.798e+04 5.499e-09
 79.04099    120.6 1.751e+04 4.860e-09
 79.04833    119.5 1.706e+04 4.447e-09
 79.05345    118.9 1.712e+04 4.559e-09
 79.06146    117.9 1.648e+04 4.229e-09
 79.07169    116.7 1.589e+04 4.063e-09
 79.08006    115.7 1.538e+04 3.925e-09
 79.08518    114.8 1.525e+04 4.049e-09
 79.09216    113.8 1.485e+04 3.966e-09
 79.10239    113.2 1.455e+04 3.919e-09
 79.11779    111.9 1.419e+04 3.697e-09
 79.13831    110.9 1.392e+04 3.470e-09
 79.14873    109.8 1.357e+04 2.892e-09
 79.15896    108.6 1.328e+04 2.103e-09
 79.17924    106.5 1.263e+04 1.183e-09
 79.19971    103.7 1.191e+04 6.660e-10
 79.21218    100.7 1.093e+04 5.414e-10
 79.22241     98.2 1.098e+04 5.605e-10
 79.24064     95.9 1.132e+04 6.304e-10
 79.26111     92.8 1.269e+04 9.783e-10
 79.27563     89.7 1.436e+04 1.908e-09
 79.28586     87.0 1.559e+04 3.985e-09
 79.30204     87.2 1.572e+04 5.899e-09
 79.32250     87.9 1.587e+04 7.748e-09
 79.33908     88.7 1.594e+04 8.197e-09
 79.34932     88.6 1.578e+04 7.290e-09
 79.36344     89.3 1.543e+04 5.652e-09
 79.38390     89.5 1.503e+04 3.648e-09
 79.40253     89.0 1.446e+04 2.075e-09
 79.41277     85.1 1.329e+04 9.347e-10
 79.42484     83.7 1.179e+04 6.315e-10
 79.44530     83.3 1.121e+04 5.780e-10
 79.46577     84.3 1.089e+04 5.439e-10
 79.47622     85.1 1.074e+04 5.455e-10
 79.48645     84.9 1.068e+04 5.338e-10
 79.50670     86.5 1.059e+04 5.348e-10
 79.52717     87.7 1.063e+04 5.510e-10
 79.53977     90.1 1.072e+04 5.973e-10
 79.56033     89.8 1.077e+04 6.357e-10
 79.59900     92.1 1.116e+04 7.811e-10
 79.63993     93.7 1.165e+04 9.558e-10
 79.66667     94.3 1.114e+04 8.119e-10
 79.67681     93.0 1.144e+04 9.404e-10
 79.69090     93.5 1.097e+04 8.568e-10
 79.71137     93.6 1.088e+04 8.807e-10
 79.73003     93.7 1.071e+04 8.818e-10
 79.74026     92.8 1.080e+04 9.005e-10
 79.75230     93.2 1.060e+04 8.423e-10
 79.77277     93.6 1.044e+04 7.894e-10
 79.79324     94.1 1.032e+04 7.455e-10
 79.80371     94.7 1.022e+04 7.031e-10
 79.81395     94.0 1.024e+04 6.859e-10
 79.83417     94.6 1.015e+04 6.448e-10
 79.85273     95.2 1.006e+04 5.979e-10
 79.86296     94.7 1.003e+04 5.626e-10
 79.86716     95.2 9.927e+03 5.178e-10
 79.87740     94.2 1.000e+04 5.705e-10
 79.89557     94.6 9.965e+03 5.422e-10
 79.91604     95.0 9.888e+03 5.184e-10
 79.93062     95.4 9.848e+03 5.019e-10
 79.94085     94.5 1.009e+04 6.683e-10
 79.95697     94.8 1.017e+04 6.854e-10
 79.97744     95.1 1.029e+04 7.092e-10
 79.99407     95.1 1.045e+04 7.440e-10
 80.00430     94.1 1.086e+04 1.024e-09
 80.01837     94.0 1.101e+04 1.112e-09
 80.03884     94.0 1.114e+04 1.210e-09
 80.05752     94.1 1.127e+04 1.316e-09
 80.06775     93.5 1.168e+04 1.600e-09
 80.07977     93.4 1.185e+04 1.678e-09
 80.10024     93.2 1.198e+04 1.724e-09
 80.12070     93.0 1.209e+04 1.750e-09
 80.13120     92.4 1.219e+04 1.782e-09
 80.14144     92.0 1.218e+04 1.786e-09
 80.16164     91.0 1.238e+04 1.874e-09
 80.18210     89.6 1.268e+04 2.037e-09
 80.19466     87.9 1.309e+04 2.305e-09
 80.20489     87.0 1.322e+04 2.503e-09
 80.22303     85.2 1.371e+04 3.023e-09
 80.24350     83.5 1.416e+04 3.643e-09
 80.25811     81.8 1.454e+04 4.278e-09
 80.26834     81.3 1.465e+04 4.621e-09
 80.28443     80.0 1.483e+04 4.998e-09
 80.30490     78.9 1.497e+04 5.261e-09
 80.32156     78.1 1.506e+04 5.422e-09
 80.33179     78.3 1.450e+04 4.412e-09
 80.34583     77.5 1.431e+04 4.054e-09
 80.36630     76.8 1.401e+04 3.646e-09
 80.38501     76.2 1.359e+04 3.198e-09
 80.39525     75.9 1.283e+04 1.981e-09
 80.40723     75.5 1.241e+04 1.714e-09
 80.42770     75.3 1.195e+04 1.459e-09
 80.44817     75.3 1.154e+04 1.279e-09
 80.45870     75.3 1.137e+04 1.211e-09
 80.46893     75.3 1.062e+04 7.092e-10
 80.49943     75.9 1.057e+04 6.899e-10
 80.52225     77.0 1.022e+04 5.827e-10
 80.53238     77.0 1.019e+04 5.773e-10
 80.55050     78.0 9.885e+03 4.938e-10
 80.57097     78.9 9.667e+03 4.345e-10
 80.58560     79.6 9.556e+03 4.041e-10
 80.59583     79.6 9.864e+03 5.044e-10
 80.61190     80.1 1.007e+04 5.563e-10
 80.63237     80.0 1.049e+04 6.673e-10
 80.64905     79.6 1.116e+04 8.912e-10
 80.65929     78.2 1.239e+04 1.511e-09
 80.67330     78.0 1.310e+04 2.307e-09
 80.69377     78.4 1.366e+04 3.403e-09
 80.71250     79.5 1.402e+04 4.321e-09
 80.72274     80.1 1.454e+04 6.097e-09
 80.73470     81.0 1.449e+04 5.896e-09
 80.75517     82.0 1.416e+04 4.833e-09
 80.77563     82.2 1.339e+04 2.570e-09
 80.78619     82.1 1.273e+04 1.724e-09
 80.79642     82.0 1.271e+04 1.595e-09
 80.81698     80.8 1.172e+04 8.830e-10
 80.83755     81.7 1.175e+04 9.241e-10
 80.84984     81.1 1.139e+04 8.273e-10
 80.87030     79.8 1.132e+04 7.970e-10
 80.90886     80.8 1.141e+04 8.444e-10
 80.94979     82.0 1.145e+04 8.778e-10
 80.97674     83.4 1.149e+04 9.156e-10
 80.99721     82.6 1.171e+04 8.939e-10
 81.02133     83.0 1.155e+04 8.675e-10
 81.04000     83.2 1.154e+04 9.160e-10
 81.05023     82.7 1.168e+04 9.771e-10
 81.06217     83.1 1.173e+04 1.115e-09
 81.08263     83.6 1.180e+04 1.260e-09
 81.10310     84.2 1.194e+04 1.418e-09
 81.11368     84.8 1.211e+04 1.582e-09
 81.12392     84.8 1.221e+04 1.747e-09
 81.14403     85.4 1.238e+04 1.886e-09
 81.16450     85.9 1.252e+04 1.940e-09
 81.17713     86.2 1.256e+04 1.948e-09
 81.18737     86.2 1.258e+04 2.035e-09
 81.20543     86.2 1.268e+04 2.109e-09
 81.22590     86.1 1.285e+04 2.226e-09
 81.24059     85.7 1.317e+04 2.448e-09
 81.25082     85.0 1.360e+04 2.934e-09
 81.26683     83.5 1.446e+04 3.886e-09
 81.28730     81.8 1.542e+04 5.537e-09
 81.30404     80.4 1.621e+04 7.983e-09
 81.31427     80.3 1.644e+04 9.127e-09
 81.32823     79.4 1.665e+04 9.899e-09
 81.34870     78.6 1.649e+04 9.421e-09
 81.36749     78.3 1.593e+04 7.420e-09
 81.37772     78.3 1.549e+04 5.178e-09
 81.38963     76.9 1.458e+04 2.914e-09
 81.41010     74.6 1.340e+04 1.436e-09
 81.43056     71.9 1.188e+04 6.748e-10
 81.44117     69.7 1.090e+04 4.351e-10
 81.45141     69.2 1.068e+04 4.070e-10
 81.48183     69.5 1.033e+04 2.846e-10
 81.50482     69.5 9.781e+03 1.817e-10
 81.52529     67.7 1.035e+04 2.068e-10
 81.56379     67.3 1.033e+04 2.195e-10
 81.60473     67.3 1.052e+04 3.001e-10
 81.63163     67.5 1.073e+04 4.076e-10
 81.65209     66.0 1.139e+04 8.038e-10
 81.68659     67.4 1.190e+04 1.061e-09
 81.71719     67.6 1.223e+04 1.207e-09
 81.73756     67.5 1.248e+04 1.311e-09
 81.75803     67.4 1.262e+04 1.373e-09
 81.76867     67.4 1.261e+04 1.371e-09
 81.77890     66.4 1.261e+04 1.336e-09
 81.80929     66.2 1.241e+04 1.168e-09
 81.85032     66.6 1.232e+04 1.114e-09
 81.88553     66.9 1.220e+04 1.029e-09
 81.90600     66.8 1.171e+04 7.284e-10
 81.93219     67.3 1.147e+04 6.164e-10
 81.97312     67.7 1.115e+04 5.028e-10
 82.01244     68.3 1.080e+04 4.038e-10
 82.03290     68.6 1.066e+04 3.539e-10
 82.05499     69.5 1.041e+04 3.019e-10
 82.09592     70.5 1.017e+04 2.438e-10
 82.13686     71.6 9.956e+03 1.875e-10
 82.15981     72.9 9.801e+03 1.412e-10
 82.18027     73.6 9.869e+03 1.574e-10
 82.21872     74.9 9.780e+03 1.215e-10
 82.25966     76.2 9.636e+03 1.032e-10
 82.28671     77.9 9.548e+03 1.015e-10
 82.30718     78.5 9.670e+03 1.196e-10
 82.34152     80.3 9.669e+03 1.205e-10
 82.38246     82.1 9.693e+03 1.265e-10
 82.41361     83.9 9.782e+03 1.422e-10
 82.43408     84.4 9.896e+03 1.786e-10
 82.46432     86.2 1.004e+04 2.082e-10
 82.50526     87.9 1.017e+04 2.410e-10
 82.54052     89.5 1.026e+04 2.734e-10
 82.56098     89.8 1.039e+04 3.134e-10
 82.58712     91.1 1.052e+04 3.409e-10
 82.62806     92.2 1.062e+04 3.862e-10
 82.66742     93.2 1.072e+04 4.557e-10
 82.68789     93.0 1.088e+04 4.946e-10
 82.70992     93.6 1.098e+04 5.535e-10
 82.74539     93.9 1.096e+04 5.712e-10
 82.76585     93.7 1.165e+04 9.173e-10
 82.79179     93.9 1.139e+04 8.276e-10
 82.81479     94.2 1.102e+04 6.899e-10
 82.82493     93.8 1.086e+04 6.168e-10
 82.84276     93.8 1.069e+04 5.517e-10
 82.86323     93.9 1.056e+04 5.341e-10
 82.87805     94.1 1.056e+04 5.347e-10
 82.88828     94.0 1.048e+04 4.951e-10
 82.90416     94.2 1.050e+04 5.079e-10
 82.92463     94.4 1.057e+04 5.437e-10
 82.94150     94.6 1.069e+04 6.022e-10
 82.95173     94.5 1.069e+04 5.930e-10
 82.96556     94.5 1.089e+04 6.976e-10
 82.98603     94.6 1.112e+04 8.362e-10
 83.00495     94.7 1.136e+04 1.008e-09
 83.01518     94.6 1.137e+04 1.048e-09
 83.02696     94.7 1.160e+04 1.256e-09
 83.04742     94.8 1.178e+04 1.452e-09
 83.06789     94.8 1.181e+04 1.500e-09
 83.07864     94.7 1.179e+04 1.486e-09
 83.08887     94.8 1.157e+04 1.316e-09
 83.10882     94.6 1.139e+04 1.168e-09
 83.12929     94.4 1.112e+04 9.228e-10
 83.14209     93.7 1.082e+04 6.377e-10
 83.15232     92.9 1.058e+04 4.896e-10
 83.17022     91.9 1.030e+04 3.735e-10
 83.19540     90.8 9.972e+03 2.909e-10
 83.21597     90.8 9.615e+03 2.548e-10
 83.24205     89.8 9.355e+03 2.420e-10
 83.28299     89.4 9.348e+03 2.487e-10
 83.32241     89.4 9.377e+03 2.806e-10
 83.34287     90.5 9.335e+03 2.817e-10
 83.36485     90.6 9.670e+03 4.099e-10
 83.40579     90.9 1.041e+04 6.390e-10
 83.43639     90.4 1.103e+04 9.458e-10
 83.45676     89.8 1.158e+04 1.278e-09
 83.46958     89.1 1.223e+04 1.748e-09
 83.47981     89.3 1.227e+04 1.751e-09
 83.49769     88.3 1.296e+04 2.379e-09
 83.51816     87.4 1.360e+04 3.148e-09
 83.53303     86.7 1.420e+04 4.045e-09
 83.54327     86.8 1.417e+04 3.915e-09
 83.55909     86.0 1.455e+04 4.181e-09
 83.57956     85.1 1.452e+04 4.047e-09
 83.59648     84.0 1.420e+04 3.528e-09
 83.60672     83.5 1.389e+04 3.221e-09
 83.62049     82.4 1.320e+04 2.587e-09
 83.64096     81.7 1.249e+04 2.071e-09
 83.65994     81.3 1.194e+04 1.676e-09
 83.67017     81.3 1.198e+04 1.694e-09
 83.69222     81.6 1.181e+04 1.494e-09
 83.72358     82.0 1.150e+04 1.233e-09
 83.74405     82.3 1.145e+04 1.163e-09
 83.77418     83.1 1.111e+04 9.008e-10
 83.81512     84.0 1.070e+04 6.433e-10
 83.85049     84.8 1.023e+04 4.390e-10
 83.87095     84.9 1.013e+04 3.791e-10
 83.89698     85.2 9.865e+03 3.154e-10
 83.93792     85.3 9.860e+03 3.216e-10
 83.97739     84.9 1.002e+04 3.668e-10
 83.99786     84.0 1.044e+04 4.504e-10
 84.01978     83.0 1.063e+04 5.124e-10
 84.06072     81.7 1.062e+04 5.320e-10
 84.10165     80.4 1.053e+04 5.148e-10
 84.12476     79.0 1.061e+04 4.743e-10
 84.14523     76.8 1.028e+04 3.982e-10
 84.18352     76.2 1.035e+04 3.976e-10
 84.22445     76.3 1.038e+04 4.090e-10
 84.25166     76.9 1.045e+04 4.620e-10
 84.27213     76.4 1.002e+04 3.760e-10
 84.30632     77.8 1.022e+04 4.625e-10
 84.34725     79.2 1.047e+04 5.639e-10
 84.37857     80.6 1.068e+04 6.302e-10
 84.39904     80.9 1.021e+04 4.278e-10
 84.42912     82.2 1.021e+04 4.241e-10
 84.47005     83.4 1.021e+04 4.003e-10
 84.50547     84.6 1.019e+04 3.602e-10
 84.52594     85.0 9.907e+03 2.606e-10
 84.55191     86.3 9.886e+03 2.405e-10
 84.59285     87.5 9.891e+03 2.403e-10
 84.63238     88.7 9.931e+03 2.456e-10
 84.65284     89.5 9.771e+03 2.045e-10
 84.67370     90.7 9.887e+03 2.307e-10
 84.69416     91.2 9.957e+03 2.623e-10
 84.71565     92.4 1.011e+04 3.271e-10
 84.75658     93.7 1.031e+04 4.039e-10
 84.77975     95.1 1.050e+04 4.414e-10
 84.80021     95.8 1.035e+04 3.445e-10
 84.83845     96.9 1.038e+04 3.427e-10
 84.87938     98.0 1.039e+04 3.260e-10
 84.90665     99.2 1.035e+04 2.811e-10
 84.92712     99.3 1.022e+04 2.268e-10
 84.96125    100.4 1.012e+04 1.881e-10
 85.00218    101.3 9.986e+03 1.518e-10
 85.03355    102.3 9.910e+03 1.195e-10
 85.05402    102.0 9.886e+03 1.289e-10
 85.08405    102.9 9.663e+03 1.293e-10
 85.12498    103.8 9.624e+03 1.338e-10
 85.16046    104.8 9.558e+03 1.461e-10
 85.18092    104.4 9.579e+03 1.630e-10
 85.20685    105.4 9.554e+03 1.663e-10
 85.24778    106.3 9.515e+03 1.623e-10
 85.28736    107.0 9.454e+03 1.515e-10
 85.30783    106.1 9.308e+03 1.289e-10
 85.32965    106.8 9.233e+03 1.162e-10
 85.37058    107.4 9.201e+03 1.049e-10
 85.41151    108.2 9.211e+03 9.597e-11
 85.43473    109.0 9.268e+03 9.152e-11
 85.45520    108.7 9.210e+03 8.213e-11
 85.49338    109.7 9.269e+03 8.695e-11
 85.53431    110.5 9.320e+03 9.411e-11
 85.56163    111.2 9.371e+03 1.069e-10
 85.58210    111.0 9.444e+03 1.337e-10
 85.61618    111.6 9.555e+03 1.574e-10
 85.65711    112.0 9.675e+03 1.746e-10
 85.68854    112.3 9.766e+03 1.864e-10
 85.70900    112.2 9.930e+03 2.251e-10
 85.73898    112.3 1.000e+04 2.269e-10
 85.77991    112.0 1.018e+04 2.428e-10
 85.81544    111.4 1.051e+04 2.818e-10
 85.83591    111.6 1.037e+04 2.688e-10
 85.86178    110.9 1.070e+04 3.470e-10
 85.90271    110.0 1.115e+04 5.422e-10
 85.94235    108.9 1.165e+04 8.553e-10
 85.96281    109.0 1.157e+04 7.720e-10
 85.98458    107.7 1.180e+04 9.363e-10
 86.02551    106.1 1.179e+04 9.226e-10
 86.06644    104.8 1.154e+04 8.213e-10
 86.08972    104.2 1.101e+04 6.050e-10
 86.11018    104.5 1.110e+04 6.593e-10
 86.14831    104.4 1.061e+04 4.674e-10
 86.18924    104.5 1.020e+04 3.265e-10
 86.21662    104.7 9.940e+03 2.409e-10
 86.23709    104.9 1.011e+04 2.867e-10
 86.27111    105.4 9.939e+03 2.407e-10
 86.31204    106.2 9.859e+03 2.211e-10
 86.34352    107.2 9.860e+03 2.218e-10
 86.36399    107.2 9.948e+03 2.361e-10
 86.39391    108.2 9.911e+03 2.283e-10
 86.43484    109.1 9.867e+03 2.142e-10
 86.47043    109.9 9.803e+03 1.928e-10
 86.49089    109.9 9.793e+03 1.706e-10
 86.51671    110.7 9.720e+03 1.477e-10
 86.55764    111.3 9.635e+03 1.282e-10
 86.59733    111.9 9.502e+03 1.195e-10
 86.61780    112.1 9.515e+03 1.188e-10
 86.62247    113.0 9.508e+03 1.200e-10
 86.64294    113.6 9.493e+03 1.100e-10
 86.68044    114.5 9.495e+03 1.123e-10
 86.72137    115.5 9.543e+03 1.266e-10
 86.74470    116.4 9.724e+03 1.628e-10
 86.76517    116.8 9.834e+03 1.834e-10
 86.80324    117.6 1.008e+04 2.404e-10
 86.84417    118.2 1.032e+04 2.954e-10
 86.87160    118.4 1.050e+04 3.162e-10
 86.89207    118.6 1.065e+04 3.150e-10
 86.92604    118.6 1.077e+04 3.143e-10
 86.96697    118.6 1.088e+04 3.150e-10
 86.99851    118.4 1.097e+04 3.204e-10
 87.01888    117.3 1.134e+04 3.091e-10
 87.03841    116.3 1.165e+04 3.649e-10
 87.05888    115.2 1.192e+04 4.900e-10
 87.07200    114.4 1.215e+04 6.985e-10
 87.08223    113.2 1.232e+04 1.040e-09
 87.09981    113.2 1.258e+04 1.454e-09
 87.12028    113.4 1.292e+04 1.874e-09
 87.13545    113.6 1.335e+04 2.183e-09
 87.14568    112.7 1.395e+04 2.475e-09
 87.16121    111.9 1.450e+04 2.506e-09
 87.18168    110.4 1.491e+04 2.532e-09
 87.19890    108.4 1.515e+04 2.586e-09
 87.20913    105.5 1.493e+04 2.599e-09
 87.22261    104.0 1.464e+04 2.790e-09
 87.24308    103.5 1.439e+04 3.261e-09
 87.26235    103.3 1.438e+04 3.917e-09
 87.27259    102.8 1.395e+04 3.357e-09
 87.28401    103.3 1.410e+04 3.357e-09
 87.30448    103.7 1.417e+04 3.301e-09
 87.32494    103.9 1.433e+04 3.109e-09
 87.33604    103.6 1.438e+04 2.814e-09
 87.34627    102.3 1.350e+04 1.597e-09
 87.36588    101.6 1.333e+04 1.337e-09
 87.38634    100.7 1.297e+04 1.055e-09
 87.39949     99.7 1.242e+04 7.919e-10
 87.40972     98.8 1.152e+04 5.732e-10
 87.42728     98.1 1.113e+04 4.602e-10
 87.44774     97.3 1.081e+04 3.749e-10
 87.46294     96.5 1.055e+04 3.342e-10
 87.47318     96.6 1.041e+04 2.846e-10
 87.48868     96.0 1.028e+04 2.797e-10
 87.50914     95.6 1.027e+04 2.819e-10
 87.52639     95.2 1.028e+04 2.949e-10
 87.53663     95.2 1.013e+04 2.612e-10
 87.55008     94.9 1.015e+04 2.832e-10
 87.57054     94.5 1.031e+04 3.382e-10
 87.58643     94.0 1.061e+04 4.454e-10
 87.59550     93.9 1.077e+04 5.527e-10
 87.60008     94.3 1.047e+04 4.232e-10
 87.61148     93.8 1.084e+04 5.871e-10
 87.63194     93.3 1.130e+04 7.969e-10
 87.65241     92.7 1.182e+04 1.038e-09
 87.66353     92.0 1.235e+04 1.295e-09
 87.67376     92.3 1.172e+04 9.833e-10
 87.69334     91.5 1.216e+04 1.208e-09
 87.71381     90.8 1.254e+04 1.458e-09
 87.72698     90.2 1.286e+04 1.699e-09
 87.73722     90.9 1.242e+04 1.449e-09
 87.75474     90.6 1.267e+04 1.643e-09
 87.77521     90.2 1.276e+04 1.701e-09
 87.79043     89.8 1.275e+04 1.693e-09
 87.80067     90.6 1.251e+04 1.573e-09
 87.81614     90.4 1.249e+04 1.556e-09
 87.83661     90.2 1.248e+04 1.540e-09
 87.85389     90.1 1.253e+04 1.551e-09
 87.86412     90.9 1.246e+04 1.533e-09
 87.87754     90.8 1.263e+04 1.601e-09
 87.89801     90.5 1.303e+04 1.820e-09
 87.91734     89.6 1.381e+04 2.358e-09
 87.92757     90.6 1.377e+04 2.315e-09
 87.93894     89.4 1.494e+04 3.370e-09
 87.95941     87.7 1.649e+04 5.538e-09
 87.97987     86.1 1.806e+04 9.167e-09
 87.99102     84.6 1.902e+04 1.294e-08
 88.00126     86.0 1.947e+04 1.355e-08
 88.02081     84.4 1.980e+04 1.563e-08
 88.04127     82.6 1.954e+04 1.451e-08
 88.05448     81.3 1.842e+04 1.061e-08
 88.06471     82.2 1.935e+04 1.391e-08
 88.08221     81.0 1.764e+04 8.760e-09
 88.10267     80.1 1.587e+04 5.122e-09
 88.11793     79.2 1.443e+04 2.783e-09
 88.12816     80.2 1.521e+04 4.161e-09
 88.14361     79.4 1.418e+04 2.414e-09
 88.16407     78.6 1.348e+04 1.514e-09
 88.18148     78.3 1.286e+04 1.005e-09
 88.19171     79.2 1.356e+04 1.440e-09
 88.20501     78.8 1.305e+04 9.457e-10
 88.22547     78.8 1.274e+04 7.407e-10
 88.24483     78.7 1.228e+04 5.734e-10
 88.25506     79.6 1.303e+04 7.585e-10
 88.27674     79.0 1.236e+04 5.506e-10
 88.30848     77.9 1.109e+04 4.616e-10
 88.32885     77.3 1.117e+04 5.317e-10
 88.34827     77.2 1.111e+04 5.469e-10
 88.36874     77.1 1.104e+04 5.829e-10
 88.38197     77.3 1.100e+04 6.321e-10
 88.39220     76.7 1.116e+04 7.108e-10
 88.40967     77.0 1.120e+04 7.645e-10
 88.43014     77.4 1.127e+04 8.062e-10
 88.44542     77.7 1.129e+04 8.133e-10
 88.45565     76.8 1.152e+04 8.818e-10
 88.47107     77.1 1.146e+04 8.753e-10
 88.49154     77.5 1.131e+04 8.501e-10
 88.50887     77.9 1.114e+04 8.135e-10
 88.51910     77.2 1.143e+04 9.392e-10
 88.53247     77.8 1.127e+04 9.023e-10
 88.55059     78.3 1.115e+04 8.719e-10
 88.56082     78.3 1.093e+04 8.032e-10
 88.57232     78.8 1.076e+04 7.555e-10
 88.58256     78.3 1.104e+04 8.704e-10
 88.59387     78.8 1.083e+04 7.976e-10
 88.61434     79.4 1.061e+04 7.217e-10
 88.63481     80.1 1.041e+04 6.477e-10
 88.64601     80.7 1.021e+04 5.778e-10
 88.65624     80.2 1.047e+04 6.402e-10
 88.67574     80.8 1.025e+04 5.589e-10
 88.69620     81.3 1.004e+04 4.904e-10
 88.70946     81.8 9.838e+03 4.372e-10
 88.71969     81.3 1.002e+04 4.916e-10
 88.73714     81.8 9.781e+03 4.494e-10
 88.75760     82.3 9.602e+03 4.315e-10
 88.77291     83.1 9.587e+03 4.352e-10
 88.78315     82.7 9.698e+03 4.850e-10
 88.79854     83.6 9.706e+03 5.010e-10
 88.81900     84.5 9.810e+03 5.585e-10
 88.83636     85.3 1.012e+04 6.760e-10
 88.84660     84.9 1.036e+04 7.285e-10
 88.85994     84.6 1.116e+04 1.008e-09
 88.88040     84.0 1.231e+04 1.584e-09
 88.89982     83.2 1.348e+04 2.638e-09
 88.91005     82.4 1.371e+04 2.956e-09
 88.92134     82.4 1.468e+04 4.897e-09
 88.94180     83.1 1.563e+04 7.741e-09
 88.96227     84.3 1.664e+04 1.125e-08
 88.97350     84.6 1.731e+04 1.327e-08
 88.98373     84.2 1.686e+04 1.228e-08
 89.00320     84.2 1.673e+04 1.163e-08
 89.02367     84.5 1.630e+04 9.991e-09
 89.03695     84.7 1.578e+04 7.384e-09
 89.04719     83.6 1.496e+04 5.919e-09
 89.06460     82.9 1.446e+04 4.561e-09
 89.08507     82.0 1.395e+04 3.388e-09
 89.10040     81.0 1.358e+04 2.550e-09
 89.11064     81.1 1.330e+04 3.150e-09
 89.12600     80.8 1.327e+04 2.760e-09
 89.14647     80.3 1.329e+04 2.369e-09
 89.16386     79.7 1.322e+04 2.023e-09
 89.17409     80.6 1.353e+04 2.924e-09
 89.18740     80.0 1.352e+04 2.678e-09
 89.20787     79.5 1.337e+04 2.366e-09
 89.22731     79.0 1.303e+04 2.044e-09
 89.23754     80.0 1.360e+04 2.847e-09
 89.24880     79.6 1.325e+04 2.401e-09
 89.26927     79.3 1.282e+04 2.005e-09
 89.28974     79.1 1.240e+04 1.702e-09
 89.30099     79.0 1.206e+04 1.506e-09
 89.31123     79.5 1.242e+04 1.681e-09
 89.33067     79.5 1.210e+04 1.531e-09
 89.35114     79.7 1.198e+04 1.467e-09
 89.36445     80.1 1.198e+04 1.460e-09
 89.37468     80.5 1.212e+04 1.468e-09
 89.39207     81.3 1.213e+04 1.474e-09
 89.41254     82.2 1.219e+04 1.507e-09
 89.42790     83.3 1.228e+04 1.571e-09
 89.43813     83.8 1.236e+04 1.431e-09
 89.45347     85.0 1.241e+04 1.461e-09
 89.47394     86.6 1.247e+04 1.503e-09
 89.49135     88.3 1.252e+04 1.550e-09
 89.50158     88.4 1.250e+04 1.253e-09
 89.51474     90.1 1.251e+04 1.281e-09
 89.52498     89.2 1.243e+04 1.505e-09
 89.53534     91.0 1.248e+04 1.470e-09
 89.55480     92.8 1.253e+04 1.481e-09
 89.56503     91.9 1.269e+04 1.415e-09
 89.57627     92.9 1.308e+04 1.593e-09
 89.59673     93.7 1.427e+04 1.983e-09
 89.61720     93.8 1.529e+04 2.248e-09
 89.62844     93.4 1.639e+04 2.832e-09
 89.63350     92.7 1.642e+04 3.329e-09
 89.64269     88.8 2.071e+04 5.261e-09
 89.65292     76.8 2.822e+04 1.962e-08
 89.66009     69.8 2.933e+04 5.733e-08
 89.66262     72.0 2.939e+04 5.486e-08
 89.66566     66.6 2.715e+04 1.985e-07
 89.67078     61.4 2.290e+04 9.648e-07
 89.67590     57.0 2.070e+04 2.390e-06
 89.67849     54.0 2.041e+04 2.450e-06
 89.68104     53.7 1.965e+04 4.089e-06
 89.68613     53.3 1.964e+04 3.280e-06
 89.69125     53.5 2.017e+04 2.139e-06
 89.69435     53.7 2.092e+04 1.357e-06
 89.69691     53.7 2.072e+04 1.620e-06
 89.70406     54.4 2.241e+04 5.875e-07
 89.71432     55.6 2.612e+04 1.087e-07
 89.72357     56.4 3.728e+04 7.974e-09
 89.72868     55.0 3.731e+04 7.618e-09
 89.73479     51.0 3.523e+04 2.858e-09
 89.74502     43.9 3.702e+04 2.178e-10
 89.75534     33.3 1.433e+04 4.987e-10
 89.76562     33.3 1.328e+04 5.800e-10
 89.78093     30.7 9.936e+03 4.911e-10
 89.80140     31.9 9.761e+03 4.933e-10
 89.83220     34.6 1.003e+04 5.303e-10
 89.86290     36.2 1.005e+04 5.698e-10
 89.88229     36.9 1.017e+04 6.149e-10
 89.89253     37.5 1.072e+04 8.005e-10
 89.90373     38.4 1.054e+04 7.449e-10
 89.92420     38.8 1.050e+04 7.270e-10
 89.94467     39.5 1.039e+04 6.778e-10
 89.95598     39.8 1.035e+04 6.584e-10
 89.96621     39.7 1.055e+04 7.399e-10
 89.98560     40.3 1.048e+04 6.979e-10
 90.00607     40.5 1.046e+04 6.815e-10
 90.01953     41.3 1.030e+04 6.044e-10
 90.04009     41.2 1.100e+04 9.259e-10
 90.07790     42.4 1.059e+04 7.140e-10
 90.11883     43.6 1.008e+04 4.691e-10
 90.14653     44.5 9.624e+03 2.852e-10
 90.16700     44.8 1.005e+04 4.243e-10
 90.20069     45.6 9.638e+03 2.797e-10
 90.24163     46.3 9.509e+03 2.354e-10
 90.27343     47.3 9.538e+03 2.390e-10
 90.29390     47.8 9.882e+03 3.220e-10
 90.32349     48.4 1.003e+04 3.516e-10
 90.36443     48.6 1.030e+04 4.440e-10
 90.40034     48.9 1.048e+04 5.722e-10
 90.42080     49.7 1.079e+04 6.896e-10
 90.44629     49.9 1.074e+04 6.828e-10
 90.47909     50.5 1.041e+04 6.001e-10
 90.49956     51.2 1.028e+04 5.613e-10
 90.52724     52.0 9.809e+03 4.316e-10
 90.54771     53.0 1.010e+04 5.019e-10
 90.56909     54.1 9.369e+03 2.835e-10
 90.61003     55.0 8.686e+03 1.652e-10
 90.65096     56.3 8.386e+03 1.431e-10
 90.67461     58.1 8.358e+03 1.456e-10
 90.69508     59.1 8.274e+03 1.245e-10
 90.73283     61.3 8.256e+03 1.380e-10
 90.77376     63.5 8.323e+03 1.686e-10
 90.80151     65.7 8.450e+03 2.088e-10
 90.82198     66.9 8.331e+03 1.818e-10
 90.85563     69.0 8.488e+03 2.242e-10
 90.89656     70.8 8.657e+03 2.699e-10
 90.92842     72.7 8.932e+03 3.292e-10
 90.94888     73.9 8.674e+03 2.697e-10
 90.97843     75.5 8.963e+03 3.378e-10
 91.01936     76.7 9.265e+03 4.125e-10
 91.05532     77.2 9.375e+03 4.561e-10
 91.07579     79.1 9.199e+03 3.970e-10
 91.10122     79.5 9.352e+03 4.466e-10
 91.12891     79.9 9.576e+03 5.390e-10
 91.13904     80.5 9.410e+03 4.796e-10
 91.15220     81.0 9.543e+03 5.308e-10
 91.17266     81.2 9.695e+03 5.984e-10
 91.19226     81.6 9.848e+03 6.715e-10
 91.20250     82.3 9.638e+03 5.773e-10
 91.21360     82.6 9.830e+03 6.453e-10
 91.23406     82.9 9.883e+03 6.526e-10
 91.25453     83.1 9.869e+03 6.375e-10
 91.26595     83.3 9.740e+03 5.722e-10
 91.27618     83.7 9.713e+03 5.641e-10
 91.30579     83.4 9.318e+03 4.140e-10
 91.32960     83.3 8.870e+03 3.124e-10
 91.35006     84.0 9.188e+03 3.931e-10
 91.38776     83.6 9.160e+03 3.886e-10
 91.42869     83.3 9.218e+03 4.193e-10
 91.45338     84.0 9.516e+03 5.113e-10
 91.46063     82.7 9.611e+03 5.408e-10
 91.46654     83.0 9.896e+03 6.788e-10
 91.47966     82.7 9.940e+03 6.791e-10
 91.50013     82.3 9.934e+03 6.530e-10
 91.51976     81.6 1.001e+04 6.530e-10
 91.52999     81.2 1.045e+04 7.691e-10
 91.54106     75.8 1.234e+04 9.686e-10
 91.55636     70.9 1.471e+04 1.247e-09
 91.56162     61.4 2.027e+04 2.526e-09
 91.56673     60.6 2.084e+04 2.878e-09
 91.57678     50.7 2.291e+04 9.111e-09
 91.58701     45.3 2.186e+04 2.212e-08
 91.59334     43.7 2.104e+04 3.695e-08
 91.59846     43.8 2.093e+04 4.240e-08
 91.60748     43.1 2.076e+04 4.511e-08
 91.61771     43.0 2.061e+04 4.119e-08
 91.62507     42.9 2.046e+04 2.912e-08
 91.63019     42.6 2.044e+04 3.302e-08
 91.64335     41.1 2.072e+04 1.096e-08
 91.65689     32.1 2.179e+04 1.316e-09
 91.66713     30.1 2.142e+04 1.223e-09
 91.68433     11.6 1.149e+04 4.001e-10
 91.70479      6.5 9.873e+03 3.857e-10
 91.72034      4.9 9.831e+03 4.463e-10
 91.73058      5.0 9.762e+03 4.425e-10
 91.74573      4.0 9.850e+03 5.018e-10
 91.76619      2.6 1.006e+04 5.451e-10
 91.78380     -0.5 1.084e+04 6.495e-10
 91.79403     -0.0 1.050e+04 5.569e-10
 91.80713     -4.3 1.142e+04 7.242e-10
 91.82759     -7.6 1.142e+04 1.041e-09
 91.84725     -9.1 1.127e+04 1.156e-09
 91.85748     -8.1 1.105e+04 1.020e-09
 91.86853     -8.3 1.089e+04 1.142e-09
 91.88899     -8.2 1.091e+04 9.916e-10
 91.90946    -10.0 1.153e+04 7.878e-10
 91.92093    -15.5 1.213e+04 7.836e-10
 91.93117    -13.8 1.135e+04 6.769e-10
 91.95039    -22.0 1.367e+04 8.952e-10
 91.97086    -28.2 1.494e+04 2.335e-09
 91.98438    -30.2 1.485e+04 4.303e-09
 91.99462    -29.1 1.487e+04 3.602e-09
 92.01179    -29.5 1.476e+04 4.998e-09
 92.03226    -29.1 1.474e+04 5.266e-09
 92.04784    -28.1 1.473e+04 3.869e-09
 92.05807    -27.9 1.431e+04 4.030e-09
 92.07319    -27.5 1.427e+04 1.799e-09
 92.09366    -36.2 1.369e+04 5.433e-10
 92.11129    -47.3 1.098e+04 3.596e-10
 92.12152    -45.7 1.141e+04 4.290e-10
 92.13459    -50.9 1.159e+04 5.250e-10
 92.15506    -53.6 1.258e+04 1.314e-09
 92.17474    -54.5 1.308e+04 2.219e-09
 92.18497    -54.1 1.334e+04 2.423e-09
 92.19599    -54.4 1.371e+04 2.999e-09
 92.21646    -54.9 1.374e+04 3.061e-09
 92.23693    -55.4 1.336e+04 2.290e-09
 92.24843    -57.0 1.246e+04 1.182e-09
 92.25866    -56.3 1.292e+04 1.426e-09
 92.27786    -59.2 1.157e+04 6.647e-10
 92.29833    -62.2 1.048e+04 3.841e-10
 92.31188    -63.7 1.008e+04 3.193e-10
 92.32211    -63.3 1.024e+04 3.408e-10
 92.33926    -64.1 1.011e+04 3.185e-10
 92.36519    -64.8 1.011e+04 3.157e-10
 92.38576    -64.2 1.014e+04 3.309e-10
 92.40740    -65.6 1.022e+04 3.425e-10
 92.42787    -64.7 1.013e+04 3.264e-10
 92.45202    -66.1 1.034e+04 3.739e-10
 92.49219    -67.5 1.054e+04 4.446e-10
 92.51266    -66.8 1.047e+04 4.090e-10
 92.53389    -68.1 1.056e+04 4.649e-10
 92.57482    -69.0 1.053e+04 4.826e-10
 92.61575    -69.5 1.039e+04 4.686e-10
 92.63957    -70.1 1.027e+04 4.394e-10
 92.66003    -69.8 1.031e+04 4.427e-10
 92.69762    -70.0 1.031e+04 4.421e-10
 92.73855    -70.1 1.038e+04 4.611e-10
 92.76647    -69.9 1.053e+04 5.221e-10
 92.78694    -69.9 1.053e+04 4.548e-10
 92.82042    -69.5 1.071e+04 5.039e-10
 92.86135    -69.2 1.098e+04 5.766e-10
 92.89337    -69.0 1.128e+04 6.945e-10
 92.91374    -70.2 1.185e+04 9.254e-10
 92.93279    -70.1 1.211e+04 1.121e-09
 92.95326    -69.8 1.233e+04 1.306e-09
 92.96686    -69.5 1.250e+04 1.467e-09
 92.97710    -69.9 1.270e+04 1.659e-09
 92.99419    -69.6 1.272e+04 1.717e-09
 93.01466    -69.2 1.267e+04 1.713e-09
 93.03031    -68.7 1.246e+04 1.538e-09
 93.04055    -68.6 1.195e+04 1.259e-09
 93.05559    -68.1 1.156e+04 1.000e-09
 93.07606    -67.7 1.122e+04 7.945e-10
 93.09377    -67.4 1.093e+04 6.359e-10
 93.10400    -67.9 1.088e+04 4.996e-10
 93.11699    -67.6 1.068e+04 4.073e-10
 93.13746    -67.1 1.054e+04 3.641e-10
 93.15722    -66.5 1.043e+04 3.436e-10
 93.16755    -67.4 1.020e+04 2.465e-10
 93.18882    -65.7 1.007e+04 2.173e-10
 93.22975    -64.1 1.004e+04 2.113e-10
 93.27068    -62.3 1.003e+04 2.107e-10
 93.29455    -61.0 1.019e+04 2.312e-10
 93.31502    -60.9 1.009e+04 2.288e-10
 93.35255    -60.1 1.055e+04 3.263e-10
 93.39348    -59.5 1.115e+04 5.420e-10
 93.42145    -59.3 1.189e+04 8.885e-10
 93.44192    -59.1 1.214e+04 1.092e-09
 93.47535    -59.3 1.282e+04 1.543e-09
 93.50595    -59.9 1.333e+04 1.951e-09
 93.52632    -60.5 1.347e+04 2.054e-09
 93.54679    -61.0 1.349e+04 2.133e-09
 93.55840    -61.6 1.346e+04 2.151e-09
 93.56863    -62.0 1.388e+04 2.581e-09
 93.58772    -62.5 1.367e+04 2.203e-09
 93.60819    -62.9 1.329e+04 1.685e-09
 93.63898    -63.7 1.277e+04 1.149e-09
 93.67526    -64.6 1.195e+04 6.445e-10
 93.69573    -65.0 1.131e+04 4.848e-10
 93.72095    -65.5 1.092e+04 3.622e-10
 93.76188    -65.9 1.076e+04 3.373e-10
 93.80216    -66.1 1.069e+04 3.444e-10
 93.82263    -65.8 1.060e+04 3.144e-10
 93.84375    -65.7 1.073e+04 3.581e-10
 93.88468    -65.0 1.070e+04 3.476e-10
 93.92561    -64.0 1.056e+04 2.578e-10
 93.94954    -63.0 1.042e+04 1.646e-10
 93.97000    -62.8 1.048e+04 1.888e-10
 94.00748    -61.9 1.032e+04 1.241e-10
 94.04841    -61.0 1.024e+04 9.781e-11
 94.07644    -59.9 1.023e+04 9.213e-11
 94.09691    -59.9 1.023e+04 1.201e-10
 94.13028    -58.9 1.029e+04 1.267e-10
 94.17121    -58.1 1.035e+04 1.630e-10
 94.20334    -57.0 1.032e+04 2.063e-10
 94.22381    -57.0 1.042e+04 2.655e-10
 94.25308    -55.9 1.039e+04 2.749e-10
 94.29401    -54.3 1.013e+04 2.502e-10
 94.33025    -52.5 9.858e+03 1.762e-10
 94.35071    -52.4 9.750e+03 1.661e-10
 94.35618    -51.0 9.619e+03 1.054e-10
 94.37665    -50.6 9.623e+03 1.272e-10
 94.41681    -49.3 9.539e+03 1.006e-10
 94.45715    -48.1 9.519e+03 8.935e-11
 94.47762    -47.9 9.423e+03 8.898e-11
 94.49868    -46.7 9.447e+03 8.720e-11
 94.53961    -45.6 9.530e+03 9.845e-11
 94.58055    -44.3 9.574e+03 1.305e-10
 94.60452    -43.0 9.620e+03 1.646e-10
 94.62499    -42.7 9.644e+03 1.316e-10
 94.66241    -41.7 9.713e+03 1.420e-10
 94.70335    -40.9 9.742e+03 1.436e-10
 94.73142    -40.4 9.712e+03 1.307e-10
 94.75189    -40.9 9.779e+03 1.060e-10
 94.78521    -41.3 9.766e+03 1.032e-10
 94.82614    -42.4 9.813e+03 1.234e-10
 94.85833    -43.5 9.976e+03 2.337e-10
 94.87879    -44.4 1.005e+04 2.753e-10
 94.90801    -44.9 1.050e+04 4.665e-10
 94.94894    -46.2 1.102e+04 6.437e-10
 94.98523    -49.0 1.131e+04 8.018e-10
 95.00570    -50.8 1.118e+04 7.034e-10
 95.03081    -53.3 1.118e+04 7.819e-10
 95.07174    -55.2 1.110e+04 8.161e-10
 95.11213    -56.1 1.077e+04 7.666e-10
 95.13260    -57.0 1.011e+04 4.859e-10
 95.15361    -57.4 9.741e+03 3.792e-10
 95.19454    -57.3 9.437e+03 2.947e-10
 95.23548    -57.0 9.255e+03 2.448e-10
 95.25950    -56.7 9.155e+03 2.248e-10
 95.27997    -57.5 9.088e+03 1.597e-10
 95.31734    -57.0 9.112e+03 1.775e-10
 95.35828    -56.2 9.139e+03 2.042e-10
 95.38641    -55.1 9.128e+03 2.156e-10
 95.40688    -55.3 9.060e+03 2.263e-10
 95.44014    -54.1 8.986e+03 2.213e-10
 95.48108    -52.7 8.853e+03 1.797e-10
 95.51331    -51.6 8.776e+03 1.341e-10
 95.53378    -52.5 8.849e+03 1.549e-10
 95.56294    -51.7 8.713e+03 1.434e-10
 95.60388    -50.5 8.582e+03 1.398e-10
 95.64022    -49.0 8.485e+03 1.369e-10
 95.66068    -48.9 8.432e+03 1.344e-10
 95.68574    -47.2 8.406e+03 1.062e-10
 95.72668    -45.7 8.464e+03 8.368e-11
 95.76712    -44.5 8.561e+03 7.038e-11
 95.78759    -45.4 8.442e+03 4.593e-11
 95.80854    -44.1 8.415e+03 4.340e-11
 95.84947    -42.7 8.452e+03 4.320e-11
 95.89041    -41.4 8.513e+03 4.799e-11
 95.91449    -40.2 8.445e+03 6.313e-11
 95.93496    -40.9 8.464e+03 4.729e-11
 95.97227    -40.3 8.598e+03 7.888e-11
 96.01321    -39.5 8.902e+03 1.447e-10
 96.04139    -38.2 9.288e+03 2.522e-10
 96.06186    -40.0 9.721e+03 4.255e-10
 96.09507    -38.1 9.985e+03 5.751e-10
 96.13601    -36.7 1.004e+04 6.054e-10
 96.16830    -36.0 1.004e+04 5.766e-10
 96.18876    -38.0 1.013e+04 5.781e-10
 96.21787    -38.9 1.025e+04 5.601e-10
 96.24188    -40.5 1.073e+04 6.902e-10
 96.25202    -41.0 1.072e+04 6.681e-10
 96.26884    -41.8 1.089e+04 7.382e-10
 96.28429    -43.6 1.113e+04 8.847e-10
 96.29453    -44.2 1.113e+04 9.282e-10
 96.30524    -45.5 1.114e+04 9.907e-10
 96.31547    -47.3 1.093e+04 9.578e-10
 96.33024    -48.2 1.091e+04 9.984e-10
 96.35071    -49.2 1.084e+04 9.949e-10
 96.36869    -50.1 1.069e+04 9.471e-10
 96.37892    -50.7 1.075e+04 9.668e-10
 96.39164    -51.6 1.052e+04 8.635e-10
 96.41211    -52.5 1.026e+04 7.606e-10
 96.43214    -53.4 9.998e+03 6.683e-10
 96.44238    -53.9 1.009e+04 6.927e-10
 96.45304    -54.9 9.976e+03 6.472e-10
 96.47351    -55.9 9.906e+03 6.151e-10
 96.49398    -56.8 9.863e+03 5.918e-10
 96.50583    -57.7 9.846e+03 5.810e-10
 96.51606    -58.2 1.018e+04 7.085e-10
 96.53491    -59.0 1.022e+04 7.159e-10
 96.55538    -59.9 1.031e+04 7.324e-10
 96.56928    -61.3 1.066e+04 7.721e-10
 96.57951    -61.9 1.110e+04 9.408e-10
 96.59631    -63.8 1.167e+04 1.122e-09
 96.61678    -65.5 1.225e+04 1.470e-09
 96.63273    -66.5 1.271e+04 1.934e-09
 96.64296    -66.7 1.296e+04 2.137e-09
 96.65771    -67.0 1.325e+04 2.521e-09
 96.67818    -67.0 1.342e+04 2.874e-09
 96.69618    -67.1 1.359e+04 2.975e-09
 96.70642    -68.3 1.447e+04 3.443e-09
 96.71911    -70.7 1.624e+04 3.935e-09
 96.73958    -73.8 1.828e+04 4.848e-09
 96.75963    -76.4 1.938e+04 6.105e-09
 96.76987    -78.9 2.029e+04 8.607e-09
 96.77144    -79.4 1.999e+04 8.294e-09
 96.77651    -81.9 1.711e+04 5.665e-09
 96.78553    -82.6 1.659e+04 5.667e-09
 96.79576    -84.1 1.592e+04 5.740e-09
 96.80150    -84.8 1.580e+04 5.751e-09
 96.80661    -85.5 1.571e+04 5.931e-09
 96.81623    -86.6 1.554e+04 6.321e-09
 96.82646    -87.2 1.590e+04 6.593e-09
 96.83322    -87.8 1.634e+04 6.915e-09
 96.83834    -88.7 1.610e+04 6.342e-09
 96.84693    -89.3 1.627e+04 6.358e-09
 96.85716    -89.9 1.639e+04 6.365e-09
 96.86495    -90.5 1.645e+04 6.360e-09
 96.87007    -91.4 1.564e+04 5.290e-09
 96.87763    -91.8 1.564e+04 5.233e-09
 96.88786    -92.1 1.566e+04 5.194e-09
 96.89667    -92.4 1.570e+04 5.157e-09
 96.90179    -93.0 1.520e+04 4.535e-09
 96.90833    -93.1 1.525e+04 4.519e-09
 96.91856    -93.1 1.528e+04 4.412e-09
 96.92840    -93.1 1.537e+04 4.395e-09
 96.93352    -93.3 1.524e+04 4.269e-09
 96.93903    -93.3 1.530e+04 4.101e-09
 96.94926    -93.3 1.547e+04 4.283e-09
 96.96017    -93.4 1.558e+04 4.305e-09
 96.97046    -93.6 1.477e+04 3.498e-09
 96.98518    -93.5 1.481e+04 3.409e-09
 97.00564    -93.6 1.523e+04 3.586e-09
 97.02368    -94.2 1.593e+04 4.156e-09
 97.03391    -93.6 1.519e+04 3.479e-09
 97.04658    -95.0 1.622e+04 4.544e-09
 97.06704    -96.2 1.735e+04 6.625e-09
 97.08713    -97.1 1.820e+04 9.269e-09
 97.09736    -97.5 1.853e+04 1.043e-08
 97.10281    -98.6 1.826e+04 1.020e-08
 97.11299    -98.9 1.855e+04 1.140e-08
 97.12323    -99.5 1.876e+04 1.289e-08
 97.12899   -100.2 1.881e+04 1.331e-08
 97.13411   -100.5 1.929e+04 1.557e-08
 97.14369   -101.2 1.922e+04 1.567e-08
 97.15393   -101.6 1.862e+04 1.421e-08
 97.16071   -101.8 1.792e+04 1.150e-08
 97.16583   -101.8 1.839e+04 1.391e-08
 97.17439   -101.9 1.761e+04 1.029e-08
 97.18463   -102.3 1.669e+04 7.237e-09
 97.19244   -103.0 1.572e+04 5.162e-09
 97.19756   -102.7 1.604e+04 5.618e-09
 97.21026   -103.6 1.489e+04 3.805e-09
 97.22426   -103.9 1.366e+04 2.400e-09
 97.23450   -103.8 1.393e+04 2.732e-09
 97.24845   -103.6 1.241e+04 1.442e-09
 97.25868   -103.6 1.246e+04 1.537e-09
 97.27171   -103.7 1.154e+04 9.852e-10
 97.28772   -103.6 1.117e+04 7.757e-10
 97.29795   -103.2 1.107e+04 7.238e-10
 97.31264   -102.6 1.089e+04 6.499e-10
 97.33311   -101.6 1.083e+04 6.331e-10
 97.35117   -100.8 1.081e+04 6.306e-10
 97.36140   -100.2 1.065e+04 5.575e-10
 97.37404    -99.3 1.063e+04 5.640e-10
 97.39451    -98.6 1.069e+04 6.001e-10
 97.41462    -97.9 1.077e+04 6.438e-10
 97.42485    -97.2 1.058e+04 5.356e-10
 97.43544    -96.6 1.066e+04 5.779e-10
 97.45591    -96.1 1.076e+04 6.198e-10
 97.47637    -95.7 1.089e+04 6.617e-10
 97.48831    -95.4 1.103e+04 7.105e-10
 97.49854    -94.4 1.078e+04 5.873e-10
 97.51731    -94.1 1.091e+04 6.497e-10
 97.53777    -93.6 1.103e+04 7.078e-10
 97.55176    -93.1 1.111e+04 7.626e-10
 97.56199    -92.2 1.095e+04 6.570e-10
 97.57871    -91.5 1.103e+04 7.070e-10
 97.59917    -90.8 1.104e+04 7.301e-10
 97.61521    -90.1 1.103e+04 7.335e-10
 97.62544    -89.2 1.100e+04 6.681e-10
 97.64011    -88.5 1.100e+04 6.670e-10
 97.66057    -88.0 1.097e+04 6.291e-10
 97.67866    -87.7 1.105e+04 5.846e-10
 97.68889    -86.7 1.111e+04 5.961e-10
 97.70151    -86.3 1.117e+04 5.860e-10
 97.72197    -86.0 1.137e+04 5.828e-10
 97.74211    -86.0 1.158e+04 6.075e-10
 97.75235    -84.5 1.169e+04 6.195e-10
 97.76291    -84.2 1.182e+04 6.412e-10
 97.78337    -84.4 1.203e+04 6.813e-10
 97.81417    -85.0 1.270e+04 1.025e-09
 97.84487    -86.1 1.339e+04 1.915e-09
 97.86524    -87.9 1.400e+04 2.788e-09
 97.87925    -90.1 1.464e+04 3.672e-09
 97.88948    -90.2 1.499e+04 5.601e-09
 97.90617    -93.4 1.566e+04 6.758e-09
 97.92664    -96.8 1.620e+04 6.924e-09
 97.94270    -99.7 1.729e+04 5.871e-09
 97.95293   -103.9 2.172e+04 1.053e-08
 97.96757   -106.9 2.173e+04 6.215e-09
 97.98804   -109.5 1.943e+04 3.730e-09
 98.00615   -110.6 1.694e+04 2.534e-09
 98.01639   -114.1 1.644e+04 4.605e-09
 98.02897   -112.8 1.520e+04 3.404e-09
 98.04944   -111.4 1.438e+04 2.692e-09
 98.06960   -109.8 1.360e+04 2.178e-09
 98.07984   -110.3 1.375e+04 2.630e-09
 98.09037   -108.6 1.304e+04 2.013e-09
 98.11084   -107.0 1.250e+04 1.586e-09
 98.13130   -105.7 1.204e+04 1.278e-09
 98.14329   -104.5 1.155e+04 1.038e-09
 98.15352   -105.0 1.137e+04 9.673e-10
 98.17224   -103.7 1.088e+04 7.909e-10
 98.19270   -102.2 1.053e+04 6.902e-10
 98.20674   -100.6 1.034e+04 6.405e-10
 98.21641   -100.9 1.017e+04 5.630e-10
 98.22284   -101.1 1.009e+04 5.377e-10
 98.23364    -99.6 9.990e+03 5.126e-10
 98.25410    -98.2 9.894e+03 4.909e-10
 98.27019    -96.9 9.780e+03 4.721e-10
 98.28052    -97.7 9.644e+03 3.841e-10
 98.30547    -95.0 9.506e+03 3.740e-10
 98.34640    -92.4 9.434e+03 3.680e-10
 98.37700    -90.4 9.316e+03 3.482e-10
 98.39710    -89.7 9.274e+03 3.518e-10
 98.40743    -90.0 9.157e+03 2.896e-10
 98.42827    -88.1 9.170e+03 3.087e-10
 98.46920    -86.6 9.313e+03 3.585e-10
 98.49980    -85.5 9.380e+03 3.875e-10
 98.52017    -85.4 9.460e+03 4.330e-10
 98.53423    -85.4 9.886e+03 5.508e-10
 98.54447    -85.4 9.847e+03 5.321e-10
 98.56110    -85.9 1.033e+04 6.867e-10
 98.58157    -86.5 1.088e+04 9.136e-10
 98.59769    -87.1 1.142e+04 1.164e-09
 98.60792    -86.9 1.122e+04 1.116e-09
 98.62250    -87.4 1.148e+04 1.297e-09
 98.64297    -88.0 1.165e+04 1.416e-09
 98.66114    -88.7 1.172e+04 1.487e-09
 98.67137    -88.2 1.143e+04 1.337e-09
 98.68390    -88.8 1.137e+04 1.311e-09
 98.70437    -89.3 1.128e+04 1.268e-09
 98.72459    -89.7 1.117e+04 1.218e-09
 98.73482    -89.0 1.087e+04 1.045e-09
 98.74530    -89.4 1.074e+04 9.927e-10
 98.76577    -89.7 1.063e+04 9.598e-10
 98.78624    -89.8 1.058e+04 9.485e-10
 98.79827    -90.1 1.058e+04 9.794e-10
 98.80851    -89.4 1.029e+04 8.398e-10
 98.82717    -90.6 1.077e+04 1.004e-09
 98.84764    -92.9 1.184e+04 1.381e-09
 98.86173    -95.7 1.283e+04 2.016e-09
 98.87196    -95.4 1.269e+04 1.812e-09
 98.88857    -97.9 1.341e+04 2.656e-09
 98.90904    -99.5 1.384e+04 3.422e-09
 98.92518   -100.9 1.401e+04 3.728e-09
 98.93541   -100.8 1.376e+04 3.313e-09
 98.94997   -102.4 1.374e+04 3.257e-09
 98.97043   -104.8 1.338e+04 2.751e-09
 98.98863   -107.8 1.292e+04 2.317e-09
 98.99886   -107.9 1.266e+04 2.058e-09
 99.01137   -110.4 1.220e+04 1.839e-09
 99.03183   -112.0 1.183e+04 1.652e-09
 99.05208   -113.1 1.145e+04 1.407e-09
 99.06232   -113.2 1.118e+04 1.192e-09
 99.07277   -114.2 1.076e+04 9.267e-10
 99.09323   -115.6 1.034e+04 7.076e-10
 99.11370   -117.4 1.002e+04 5.860e-10
 99.12577   -119.2 9.911e+03 5.540e-10
 99.13600   -119.6 9.884e+03 5.394e-10
 99.15463   -121.2 9.877e+03 5.390e-10
 99.17510   -122.6 9.979e+03 5.887e-10
 99.18699   -123.8 1.018e+04 6.878e-10
 99.19088   -123.9 1.018e+04 7.029e-10
 99.19945   -124.1 1.014e+04 6.884e-10
 99.21603   -124.8 1.026e+04 7.486e-10
 99.23650   -125.5 1.036e+04 7.993e-10
 99.25267   -126.3 1.044e+04 8.343e-10
 99.26290   -126.2 1.028e+04 7.629e-10
 99.27743   -126.9 1.028e+04 7.666e-10
 99.29790   -127.5 1.025e+04 7.670e-10
 99.31612   -128.0 1.021e+04 7.639e-10
 99.32636   -127.6 1.003e+04 6.714e-10
 99.33883   -128.0 9.980e+03 6.678e-10
 99.35930   -128.2 9.929e+03 6.625e-10
 99.37957   -128.3 9.893e+03 6.509e-10
 99.38981   -127.7 9.703e+03 5.627e-10
 99.40023   -127.7 9.706e+03 5.667e-10
 99.42070   -127.8 9.745e+03 5.687e-10
 99.44117   -127.8 9.823e+03 5.735e-10
 99.45326   -127.9 9.920e+03 5.844e-10
 99.46349   -127.2 9.935e+03 5.912e-10
 99.48210   -127.2 1.005e+04 6.259e-10
 99.50257   -127.0 1.009e+04 6.464e-10
 99.51671   -126.6 1.008e+04 6.489e-10
 99.52694   -125.7 1.008e+04 6.544e-10
 99.54350   -125.0 9.979e+03 6.136e-10
 99.56397   -124.5 9.865e+03 5.173e-10
 99.58016   -124.4 9.828e+03 4.621e-10
 99.59049   -123.3 9.922e+03 4.738e-10
 99.61533   -123.0 9.708e+03 3.718e-10
 99.65626   -121.9 9.366e+03 2.677e-10
 99.69703   -120.4 9.052e+03 1.925e-10
 99.73796   -117.4 8.824e+03 1.296e-10
 99.77906   -115.9 8.809e+03 1.073e-10
 99.81999   -114.4 8.810e+03 9.273e-11
 99.84440   -113.0 8.826e+03 8.126e-11
 99.86487   -111.6 8.847e+03 8.226e-11
 99.90186   -110.2 8.864e+03 7.291e-11
 99.94279   -108.8 8.879e+03 6.655e-11
 99.97130   -107.3 8.909e+03 6.352e-11
 99.99177   -105.9 8.929e+03 6.094e-11
