# Columns:
#   distance along LOS (in CHIMPs)
#   peculiar velocity  (in km/s)
#   temperature (K)
#   HI number density
# pos=(149.699,213.734,63.1037), angles=(1.58416,2.94913)
  0.00668    145.2 1.046e+04 4.456e-10
  0.02268    146.3 1.055e+04 4.597e-10
  0.05191    147.1 1.052e+04 4.482e-10
  0.09171    148.0 1.036e+04 3.915e-10
  0.13151    149.1 1.010e+04 2.936e-10
  0.17132    150.4 9.806e+03 1.990e-10
  0.20440    151.8 9.542e+03 1.309e-10
  0.22430    152.8 9.677e+03 1.443e-10
  0.25092    154.2 9.498e+03 9.724e-11
  0.29072    155.7 9.377e+03 7.276e-11
  0.33052    157.3 9.267e+03 6.278e-11
  0.37032    159.0 9.184e+03 5.931e-11
  0.40602    161.0 9.124e+03 5.717e-11
  0.42593    161.8 9.299e+03 6.389e-11
  0.44992    163.8 9.224e+03 5.889e-11
  0.48972    165.9 9.161e+03 5.297e-11
  0.52952    168.1 9.098e+03 4.715e-11
  0.56932    170.3 9.026e+03 4.311e-11
  0.60765    172.5 9.005e+03 4.225e-11
  0.62755    173.2 9.124e+03 4.322e-11
  0.64893    175.5 9.123e+03 4.323e-11
  0.68873    177.7 9.135e+03 4.370e-11
  0.72853    179.9 9.188e+03 4.590e-11
  0.76833    182.1 9.246e+03 5.072e-11
  0.80813    184.2 9.306e+03 5.743e-11
  0.82917    186.3 9.365e+03 6.512e-11
  0.84907    186.8 9.442e+03 8.017e-11
  0.88773    188.9 9.489e+03 8.958e-11
  0.92753    190.9 9.522e+03 9.676e-11
  0.96733    193.0 9.557e+03 1.007e-10
  1.00713    195.2 9.591e+03 1.024e-10
  1.03079    197.3 9.631e+03 1.036e-10
  1.05069    197.5 9.693e+03 1.133e-10
  1.08674    199.6 9.726e+03 1.123e-10
  1.12654    201.7 9.768e+03 1.125e-10
  1.16634    203.7 9.819e+03 1.147e-10
  1.19981    205.7 9.860e+03 1.190e-10
  1.21971    205.8 9.871e+03 1.349e-10
  1.23241    207.7 9.889e+03 1.406e-10
  1.25231    207.7 9.859e+03 1.256e-10
  1.28574    209.4 9.848e+03 1.321e-10
  1.32554    211.0 9.846e+03 1.413e-10
  1.36534    212.6 9.856e+03 1.531e-10
  1.40514    214.1 9.861e+03 1.652e-10
  1.43403    215.6 9.866e+03 1.789e-10
  1.45393    215.7 9.901e+03 1.925e-10
  1.48474    217.2 9.933e+03 2.114e-10
  1.52454    218.7 9.955e+03 2.271e-10
  1.56435    220.2 9.975e+03 2.403e-10
  1.60415    221.7 9.998e+03 2.533e-10
  1.63565    223.0 1.004e+04 2.704e-10
  1.65555    223.0 1.002e+04 2.760e-10
  1.68375    224.3 1.007e+04 2.959e-10
  1.72355    225.2 1.015e+04 3.258e-10
  1.76335    225.8 1.021e+04 3.539e-10
  1.79310    226.1 1.028e+04 3.933e-10
  1.81291    226.3 1.049e+04 4.728e-10
  1.83281    226.2 1.076e+04 5.872e-10
  1.84703    226.1 1.105e+04 7.130e-10
  1.85698    225.9 1.101e+04 6.830e-10
  1.87261    225.5 1.134e+04 8.248e-10
  1.89251    224.8 1.164e+04 9.809e-10
  1.91241    224.0 1.189e+04 1.141e-09
  1.93231    223.1 1.210e+04 1.291e-09
  1.94784    222.3 1.227e+04 1.402e-09
  1.95779    222.2 1.243e+04 1.530e-09
  1.97211    221.2 1.249e+04 1.544e-09
  1.99201    220.2 1.248e+04 1.532e-09
  2.01191    219.1 1.239e+04 1.461e-09
  2.03181    218.3 1.214e+04 1.295e-09
  2.04865    217.5 1.173e+04 1.079e-09
  2.05860    217.8 1.166e+04 1.058e-09
  2.07161    216.9 1.129e+04 8.872e-10
  2.09151    215.5 1.131e+04 8.761e-10
  2.11141    213.1 1.171e+04 9.235e-10
  2.13131    210.0 1.259e+04 1.061e-09
  2.14619    209.1 1.283e+04 1.080e-09
  2.15434    207.3 1.393e+04 1.213e-09
  2.15931    207.9 1.343e+04 1.100e-09
  2.16604    202.2 1.753e+04 1.747e-09
  2.17599    192.8 2.305e+04 5.692e-09
  2.18594    184.5 2.443e+04 1.880e-08
  2.19589    179.4 2.355e+04 4.080e-08
  2.20474    176.7 2.237e+04 5.119e-08
  2.20972    177.1 2.225e+04 4.513e-08
  2.21579    175.4 2.212e+04 4.396e-08
  2.22574    173.9 2.198e+04 3.601e-08
  2.23569    172.1 2.227e+04 2.366e-08
  2.25022    167.4 2.400e+04 9.195e-09
  2.26022    168.5 2.321e+04 9.340e-09
  2.27062    159.8 2.466e+04 2.537e-09
  2.29052    146.6 1.886e+04 8.118e-10
  2.31042    136.9 1.151e+04 8.714e-10
  2.33032    133.8 1.141e+04 8.796e-10
  2.35022    132.5 1.167e+04 1.009e-09
  2.36103    129.3 1.314e+04 1.399e-09
  2.37098    132.9 1.211e+04 1.186e-09
  2.39002    129.1 1.340e+04 1.596e-09
  2.40992    121.8 1.646e+04 3.215e-09
  2.42982    114.5 1.939e+04 7.879e-09
  2.44972    109.0 2.059e+04 1.546e-08
  2.46184    104.8 2.045e+04 1.794e-08
  2.47179    107.9 2.041e+04 1.469e-08
  2.48952    103.8 2.010e+04 1.447e-08
  2.50942    101.2 1.891e+04 1.097e-08
  2.52932     99.2 1.713e+04 5.642e-09
  2.54922     96.1 1.482e+04 2.230e-09
  2.56265     91.5 1.256e+04 1.167e-09
  2.57260     92.4 1.323e+04 1.583e-09
  2.58902     88.1 1.271e+04 1.438e-09
  2.60892     84.8 1.277e+04 1.567e-09
  2.62882     82.4 1.310e+04 2.140e-09
  2.64872     81.0 1.369e+04 3.153e-09
  2.66346     79.7 1.429e+04 4.120e-09
  2.67156     80.7 1.378e+04 3.315e-09
  2.67673     80.5 1.401e+04 3.607e-09
  2.68852     78.2 1.483e+04 4.009e-09
  2.70340     73.3 1.729e+04 5.163e-09
  2.71330     67.6 1.979e+04 7.198e-09
  2.71874     60.5 1.987e+04 1.076e-08
  2.72372     60.8 1.969e+04 9.631e-09
  2.73320     59.9 1.923e+04 1.068e-08
  2.74818     55.1 1.886e+04 1.123e-08
  2.76427     52.5 1.708e+04 9.339e-09
  2.77422     52.9 1.624e+04 7.355e-09
  2.78803     52.5 1.514e+04 5.042e-09
  2.80793     51.1 1.471e+04 2.492e-09
  2.82783     46.4 1.436e+04 1.072e-09
  2.84773     40.6 1.232e+04 6.532e-10
  2.86508     37.8 1.096e+04 6.276e-10
  2.87503     40.5 1.122e+04 5.507e-10
  2.88753     38.9 1.076e+04 5.531e-10
  2.90743     38.4 1.077e+04 5.877e-10
  2.92733     38.1 1.093e+04 6.687e-10
  2.94723     37.9 1.112e+04 7.554e-10
  2.96589     37.8 1.126e+04 8.252e-10
  2.97584     39.0 1.107e+04 7.311e-10
  2.98703     38.9 1.111e+04 7.776e-10
  3.00693     38.5 1.112e+04 7.739e-10
  3.03688     37.7 1.085e+04 6.617e-10
  3.06690     37.6 1.014e+04 4.269e-10
  3.08680     39.8 1.031e+04 4.886e-10
  3.11658     39.3 9.677e+03 2.850e-10
  3.15638     38.7 9.133e+03 1.604e-10
  3.19618     38.2 8.670e+03 1.144e-10
  3.23598     38.5 8.540e+03 1.112e-10
  3.26852     38.9 8.592e+03 1.161e-10
  3.28842     40.3 8.481e+03 1.085e-10
  3.31558     40.6 8.579e+03 1.185e-10
  3.35538     40.8 8.755e+03 1.592e-10
  3.39519     41.0 8.941e+03 2.240e-10
  3.43499     41.2 9.109e+03 2.724e-10
  3.47014     41.2 9.320e+03 2.938e-10
  3.49004     43.4 8.986e+03 2.319e-10
  3.51459     43.2 9.179e+03 2.505e-10
  3.55439     42.4 9.596e+03 2.968e-10
  3.58080     41.1 1.003e+04 3.840e-10
  3.59066     42.0 9.772e+03 3.403e-10
  3.60394     41.2 1.004e+04 4.344e-10
  3.62385     40.3 1.024e+04 5.751e-10
  3.64375     39.7 1.040e+04 7.314e-10
  3.66365     39.6 1.052e+04 8.562e-10
  3.68152     39.6 1.073e+04 9.108e-10
  3.69147     41.1 1.048e+04 8.699e-10
  3.70345     41.1 1.064e+04 8.713e-10
  3.72335     40.7 1.077e+04 8.438e-10
  3.74325     40.0 1.092e+04 7.661e-10
  3.76315     39.0 1.064e+04 6.678e-10
  3.78233     38.5 1.007e+04 5.571e-10
  3.79228     40.3 1.035e+04 5.778e-10
  3.80295     39.8 9.869e+03 5.086e-10
  3.83290     39.2 9.445e+03 4.100e-10
  3.87280     39.9 9.321e+03 3.650e-10
  3.89328     41.0 9.116e+03 3.116e-10
  3.91318     43.0 9.380e+03 3.758e-10
  3.95240     44.0 9.350e+03 3.513e-10
  3.99220     45.3 9.229e+03 3.259e-10
  4.03200     46.5 9.267e+03 3.376e-10
  4.07180     47.4 9.466e+03 3.986e-10
  4.09490     48.5 9.904e+03 5.414e-10
  4.11480     50.0 1.013e+04 5.827e-10
  4.13413     50.8 1.094e+04 9.209e-10
  4.15403     49.6 1.079e+04 7.963e-10
  4.19120     49.9 1.137e+04 1.092e-09
  4.22096     49.8 1.203e+04 1.484e-09
  4.24076     49.5 1.254e+04 1.877e-09
  4.26066     49.0 1.289e+04 2.189e-09
  4.28056     48.2 1.306e+04 2.317e-09
  4.29633     47.2 1.299e+04 2.270e-09
  4.30628     47.6 1.286e+04 2.069e-09
  4.32036     46.3 1.264e+04 1.935e-09
  4.34026     45.2 1.241e+04 1.685e-09
  4.36016     40.8 1.413e+04 2.056e-09
  4.38006     31.8 1.772e+04 4.404e-09
  4.39714     28.0 1.641e+04 6.706e-09
  4.40709     30.5 1.653e+04 5.185e-09
  4.41986     30.1 1.561e+04 5.579e-09
  4.43976     30.3 1.537e+04 4.780e-09
  4.45966     29.0 1.623e+04 3.109e-09
  4.47956     24.7 1.582e+04 1.573e-09
  4.49795     20.0 1.285e+04 1.068e-09
  4.50790     24.3 1.438e+04 1.033e-09
  4.51936     21.1 1.194e+04 9.602e-10
  4.53927     20.4 1.210e+04 1.104e-09
  4.55917     20.1 1.258e+04 1.313e-09
  4.57907     19.6 1.285e+04 1.580e-09
  4.59876     19.6 1.264e+04 1.806e-09
  4.60871     20.6 1.282e+04 2.163e-09
  4.61887     21.3 1.313e+04 2.334e-09
  4.63877     21.3 1.374e+04 2.096e-09
  4.65867     20.7 1.383e+04 1.718e-09
  4.67857     19.0 1.347e+04 1.277e-09
  4.69847     17.7 1.260e+04 1.147e-09
  4.70952     17.1 1.265e+04 9.451e-10
  4.71947     18.3 1.283e+04 9.181e-10
  4.73827     17.7 1.230e+04 8.915e-10
  4.75817     17.9 1.217e+04 8.294e-10
  4.77807     18.7 1.221e+04 6.718e-10
  4.79797     19.4 1.196e+04 5.766e-10
  4.81033     19.8 1.231e+04 4.081e-10
  4.82028     21.1 1.243e+04 4.959e-10
  4.83777     21.1 1.213e+04 4.201e-10
  4.85767     21.2 1.217e+04 3.197e-10
  4.87757     21.2 1.194e+04 2.950e-10
  4.89747     22.0 1.182e+04 2.984e-10
  4.91114     22.2 1.180e+04 3.108e-10
  4.92109     23.5 1.185e+04 3.605e-10
  4.93727     23.7 1.209e+04 4.000e-10
  4.95717     23.7 1.218e+04 5.038e-10
  4.97707     23.5 1.260e+04 6.199e-10
  4.99698     23.6 1.233e+04 8.682e-10
  5.01195     24.0 1.232e+04 1.086e-09
  5.02190     24.4 1.277e+04 1.286e-09
  5.03678     24.8 1.280e+04 1.555e-09
  5.05668     25.5 1.251e+04 1.714e-09
  5.07658     26.2 1.264e+04 1.457e-09
  5.09648     25.6 1.272e+04 1.212e-09
  5.11276     24.5 1.246e+04 9.275e-10
  5.12271     25.4 1.281e+04 1.121e-09
  5.13628     23.8 1.217e+04 9.191e-10
  5.15618     23.0 1.161e+04 8.229e-10
  5.17608     22.9 1.149e+04 7.795e-10
  5.19598     23.0 1.138e+04 7.247e-10
  5.21357     23.1 1.119e+04 6.719e-10
  5.22352     22.5 1.137e+04 7.942e-10
  5.23578     22.8 1.121e+04 7.463e-10
  5.25568     23.1 1.135e+04 6.612e-10
  5.27558     23.4 1.105e+04 6.668e-10
  5.29548     23.7 1.114e+04 5.794e-10
  5.31438     24.3 1.090e+04 5.890e-10
  5.32433     23.8 1.116e+04 6.855e-10
  5.33528     24.2 1.125e+04 6.435e-10
  5.35518     24.6 1.130e+04 6.521e-10
  5.37508     24.9 1.140e+04 6.883e-10
  5.39498     25.1 1.150e+04 7.478e-10
  5.41488     25.4 1.157e+04 8.228e-10
  5.42514     25.9 1.166e+04 9.344e-10
  5.43509     25.9 1.174e+04 9.611e-10
  5.45469     26.4 1.189e+04 1.023e-09
  5.47459     26.7 1.199e+04 1.069e-09
  5.49449     27.1 1.199e+04 1.059e-09
  5.51439     27.0 1.199e+04 1.058e-09
  5.52605     27.6 1.206e+04 1.143e-09
  5.54605     27.1 1.205e+04 1.196e-09
  5.58423     28.3 1.202e+04 1.181e-09
  5.62403     29.3 1.187e+04 1.058e-09
  5.66384     29.9 1.158e+04 8.386e-10
  5.70364     30.2 1.126e+04 6.921e-10
  5.72777     31.0 1.073e+04 5.791e-10
  5.73762     31.3 1.075e+04 5.376e-10
  5.75319     31.2 1.069e+04 5.295e-10
  5.78314     33.0 1.024e+04 4.014e-10
  5.82304     34.7 9.926e+03 2.677e-10
  5.86284     35.8 9.666e+03 1.924e-10
  5.90264     37.4 9.525e+03 1.868e-10
  5.92939     38.8 9.619e+03 2.137e-10
  5.94929     39.6 9.777e+03 2.489e-10
  5.98224     40.9 1.006e+04 3.552e-10
  6.02204     42.2 1.052e+04 5.376e-10
  6.06184     43.2 1.107e+04 7.799e-10
  6.10164     43.7 1.147e+04 9.949e-10
  6.13101     43.7 1.147e+04 9.781e-10
  6.15091     43.9 1.129e+04 8.715e-10
  6.18125     44.0 1.072e+04 6.709e-10
  6.22105     43.6 1.021e+04 4.724e-10
  6.26085     43.4 1.014e+04 3.850e-10
  6.30065     43.5 9.968e+03 3.269e-10
  6.33263     43.9 9.847e+03 3.180e-10
  6.35253     44.3 9.904e+03 3.191e-10
  6.38025     44.9 9.891e+03 3.363e-10
  6.42005     46.2 9.859e+03 3.562e-10
  6.44330     47.5 9.803e+03 3.532e-10
  6.45315     47.5 9.766e+03 3.465e-10
  6.46961     48.0 9.785e+03 3.367e-10
  6.48951     48.5 9.788e+03 3.121e-10
  6.50941     48.4 9.815e+03 2.916e-10
  6.52931     47.7 9.953e+03 2.937e-10
  6.54401     46.7 1.046e+04 3.362e-10
  6.55396     45.8 1.095e+04 4.104e-10
  6.56911     44.9 1.143e+04 6.085e-10
  6.58901     44.5 1.189e+04 9.271e-10
  6.60891     44.5 1.238e+04 1.373e-09
  6.62881     44.5 1.296e+04 1.967e-09
  6.64482     44.9 1.346e+04 2.600e-09
  6.65477     44.7 1.397e+04 3.307e-09
  6.66861     45.1 1.428e+04 3.742e-09
  6.68851     45.5 1.434e+04 3.804e-09
  6.70841     45.6 1.418e+04 3.546e-09
  6.72831     45.9 1.378e+04 2.949e-09
  6.74563     46.0 1.325e+04 2.211e-09
  6.75558     45.5 1.294e+04 1.790e-09
  6.76811     45.3 1.229e+04 1.132e-09
  6.78801     44.6 1.167e+04 7.573e-10
  6.80791     44.4 1.088e+04 5.160e-10
  6.82782     43.6 1.064e+04 4.280e-10
  6.84644     44.4 1.014e+04 3.432e-10
  6.85639     43.4 1.008e+04 3.448e-10
  6.86762     43.8 1.004e+04 3.363e-10
  6.89756     45.8 9.815e+03 3.149e-10
  6.93746     47.8 9.633e+03 3.072e-10
  6.97726     50.2 9.826e+03 3.657e-10
  7.01706     52.8 9.829e+03 3.683e-10
  7.04682     54.2 9.765e+03 3.627e-10
  7.05801     54.8 9.780e+03 3.693e-10
  7.05964     55.3 9.860e+03 4.080e-10
  7.06825     55.0 9.882e+03 4.191e-10
  7.08652     56.2 9.985e+03 4.635e-10
  7.10642     57.2 1.013e+04 5.208e-10
  7.12632     58.2 1.028e+04 5.817e-10
  7.14622     59.1 1.046e+04 6.540e-10
  7.15882     59.7 1.072e+04 7.460e-10
  7.16877     60.6 1.077e+04 7.509e-10
  7.18602     60.9 1.101e+04 8.543e-10
  7.20592     61.0 1.136e+04 1.008e-09
  7.22582     60.6 1.188e+04 1.252e-09
  7.24572     59.8 1.247e+04 1.634e-09
  7.25963     59.2 1.294e+04 2.079e-09
  7.26958     59.9 1.307e+04 2.234e-09
  7.28553     59.8 1.349e+04 2.797e-09
  7.30543     59.8 1.357e+04 2.872e-09
  7.32533     59.9 1.345e+04 2.727e-09
  7.34523     60.0 1.315e+04 2.280e-09
  7.36044     59.4 1.280e+04 1.755e-09
  7.37039     60.7 1.280e+04 1.752e-09
  7.38503     59.3 1.239e+04 1.261e-09
  7.40493     57.5 1.193e+04 9.986e-10
  7.42483     56.3 1.175e+04 9.762e-10
  7.44473     55.5 1.181e+04 1.016e-09
  7.46125     54.9 1.209e+04 1.152e-09
  7.47120     55.1 1.205e+04 1.081e-09
  7.48453     54.4 1.241e+04 1.292e-09
  7.50443     53.7 1.268e+04 1.550e-09
  7.52433     53.6 1.288e+04 1.802e-09
  7.54423     53.6 1.310e+04 2.048e-09
  7.56206     53.7 1.319e+04 2.123e-09
  7.57201     53.7 1.298e+04 1.927e-09
  7.58403     53.9 1.293e+04 1.885e-09
  7.60393     54.3 1.274e+04 1.733e-09
  7.62383     54.5 1.254e+04 1.541e-09
  7.64373     54.7 1.228e+04 1.330e-09
  7.66287     54.6 1.205e+04 1.156e-09
  7.67282     54.7 1.190e+04 1.069e-09
  7.68353     54.7 1.178e+04 9.804e-10
  7.70343     54.9 1.172e+04 9.559e-10
  7.72333     55.2 1.175e+04 9.653e-10
  7.74324     55.1 1.190e+04 1.015e-09
  7.76314     54.6 1.220e+04 1.203e-09
  7.77363     53.1 1.308e+04 1.695e-09
  7.78359     52.1 1.368e+04 2.030e-09
  7.80294     50.4 1.506e+04 3.465e-09
  7.82284     49.5 1.628e+04 5.511e-09
  7.84274     49.1 1.730e+04 7.974e-09
  7.86264     48.4 1.837e+04 1.082e-08
  7.87445     46.9 1.918e+04 1.278e-08
  7.88440     46.1 1.935e+04 1.309e-08
  7.90244     44.0 1.916e+04 1.277e-08
  7.92234     42.3 1.846e+04 1.111e-08
  7.94224     41.3 1.745e+04 8.624e-09
  7.96214     41.1 1.653e+04 6.298e-09
  7.97526     40.7 1.585e+04 4.546e-09
  7.98521     39.3 1.575e+04 3.311e-09
  8.00194     38.0 1.513e+04 2.476e-09
  8.02184     36.5 1.427e+04 1.969e-09
  8.04174     35.7 1.349e+04 1.734e-09
  8.06164     35.6 1.304e+04 1.675e-09
  8.07607     36.1 1.283e+04 1.690e-09
  8.08602     34.9 1.260e+04 1.609e-09
  8.10144     35.9 1.256e+04 1.606e-09
  8.12134     36.9 1.244e+04 1.544e-09
  8.14124     37.8 1.226e+04 1.408e-09
  8.16114     38.3 1.215e+04 1.281e-09
  8.17688     38.4 1.211e+04 1.190e-09
  8.18683     36.5 1.210e+04 1.037e-09
  8.20095     36.3 1.204e+04 1.036e-09
  8.22085     36.3 1.193e+04 1.066e-09
  8.24075     36.6 1.180e+04 1.089e-09
  8.26065     37.1 1.172e+04 1.083e-09
  8.27769     37.6 1.159e+04 1.048e-09
  8.28764     36.3 1.140e+04 9.588e-10
  8.30045     36.7 1.135e+04 9.198e-10
  8.32035     36.4 1.142e+04 9.253e-10
  8.34025     35.4 1.174e+04 9.798e-10
  8.36015     34.1 1.227e+04 1.122e-09
  8.37850     33.2 1.283e+04 1.401e-09
  8.38845     29.5 1.407e+04 2.418e-09
  8.39995     30.2 1.458e+04 3.010e-09
  8.41985     30.1 1.610e+04 4.251e-09
  8.43975     28.1 1.906e+04 6.492e-09
  8.45965     25.5 2.173e+04 1.042e-08
  8.47931     24.6 2.294e+04 1.540e-08
  8.48921     21.4 2.416e+04 2.154e-08
  8.49438     21.1 2.420e+04 2.525e-08
  8.50433     21.3 2.367e+04 2.937e-08
  8.51428     21.6 2.328e+04 3.114e-08
  8.52038     22.0 2.278e+04 3.054e-08
  8.52536     22.6 2.283e+04 3.465e-08
  8.53418     23.3 2.221e+04 3.330e-08
  8.53957     24.2 2.193e+04 3.133e-08
  8.54454     23.3 2.175e+04 3.107e-08
  8.55408     23.8 2.288e+04 3.076e-08
  8.56403     24.2 2.388e+04 3.058e-08
  8.57398     23.9 2.455e+04 3.020e-08
  8.58393     22.3 2.609e+04 3.183e-08
  8.58997     19.2 2.840e+04 3.654e-08
  8.59495      9.9 3.893e+04 7.150e-08
  8.60383      6.8 3.692e+04 1.040e-07
  8.61378      5.7 3.367e+04 1.577e-07
  8.62373      6.0 3.041e+04 2.379e-07
  8.63368      7.1 2.833e+04 3.633e-07
  8.64038      8.5 2.742e+04 4.814e-07
  8.64284      4.1 2.304e+04 1.536e-06
  8.64607      4.8 2.297e+04 1.586e-06
  8.65105      5.4 2.335e+04 1.490e-06
  8.65602      6.1 2.344e+04 1.437e-06
  8.66100      6.4 2.400e+04 1.330e-06
  8.66553      6.7 2.420e+04 1.241e-06
  8.66802      5.9 2.354e+04 2.033e-06
  8.67095      5.9 2.462e+04 1.550e-06
  8.67592      5.8 2.516e+04 1.286e-06
  8.68090      4.6 2.594e+04 1.056e-06
  8.68587      3.9 2.636e+04 9.159e-07
  8.69073      0.5 2.702e+04 7.491e-07
  8.69322      2.9 2.746e+04 6.802e-07
  8.69582     -0.4 3.142e+04 4.210e-07
  8.70080      8.7 3.266e+04 1.100e-06
  8.70577      2.5 2.617e+04 3.809e-06
  8.71075    -38.0 3.387e+04 1.729e-06
  8.71572    -65.2 2.323e+04 5.998e-06
  8.71842    -70.1 2.192e+04 8.557e-06
  8.71965    -82.4 1.441e+04 4.191e-04
  8.72192    -83.7 1.419e+04 4.482e-04
  8.72566    -82.7 1.363e+04 4.837e-04
  8.73065    -78.5 1.738e+04 2.825e-05
  8.73562    -72.1 2.188e+04 5.780e-06
  8.74060    -65.4 2.847e+04 8.601e-07
  8.74363    -63.2 3.035e+04 4.600e-07
  8.74611    -65.4 2.560e+04 1.275e-06
  8.75306    -64.3 2.681e+04 7.499e-07
  8.76303    -61.0 2.933e+04 2.616e-07
  8.77299    -58.3 2.966e+04 1.564e-07
  8.78294    -56.2 3.062e+04 1.087e-07
  8.79159    -54.2 3.134e+04 7.948e-08
  8.79657    -55.4 3.212e+04 9.280e-08
  8.80284    -53.6 3.187e+04 7.316e-08
  8.81279    -52.3 3.167e+04 5.701e-08
  8.82274    -51.2 3.113e+04 4.454e-08
  8.83269    -50.3 3.046e+04 3.485e-08
  8.84200    -49.4 2.967e+04 2.759e-08
  8.84697    -49.2 2.998e+04 3.372e-08
  8.85259    -48.1 2.933e+04 2.593e-08
  8.86254    -47.4 2.865e+04 1.982e-08
  8.87249    -46.8 2.796e+04 1.733e-08
  8.88244    -46.1 2.701e+04 1.469e-08
  8.89245    -45.5 2.521e+04 1.007e-08
  8.90245    -44.0 2.586e+04 1.427e-08
  8.91736    -42.3 2.416e+04 1.058e-08
  8.93726    -41.0 2.294e+04 7.894e-09
  8.95716    -39.6 2.185e+04 6.530e-09
  8.97706    -38.0 2.108e+04 5.827e-09
  8.99331    -36.4 2.050e+04 5.370e-09
  9.00326    -33.4 2.219e+04 7.192e-09
  9.01686    -31.6 2.203e+04 6.573e-09
  9.03676    -29.9 2.166e+04 5.772e-09
  9.05666    -28.0 2.106e+04 4.834e-09
  9.07656    -26.3 2.010e+04 3.797e-09
  9.09412    -25.0 1.857e+04 2.866e-09
  9.10407    -20.5 2.385e+04 4.008e-09
  9.11637    -19.2 2.218e+04 2.741e-09
  9.13627    -18.4 1.961e+04 2.049e-09
  9.15617    -18.9 1.762e+04 1.660e-09
  9.17607    -23.3 2.397e+04 1.370e-09
  9.19493    -30.1 3.785e+04 1.642e-09
  9.20488    -23.3 3.287e+04 1.392e-09
  9.21587    -29.4 3.954e+04 1.619e-09
  9.23074    -34.7 2.726e+04 5.471e-09
  9.24065    -39.9 2.594e+04 6.859e-09
  9.24899    -51.7 2.642e+04 8.986e-09
  9.25358    -47.8 1.632e+04 6.552e-09
  9.25519    -47.0 1.610e+04 5.843e-09
  9.26055    -52.3 1.751e+04 8.636e-09
  9.27050    -58.2 2.087e+04 1.218e-08
  9.28045    -61.4 2.257e+04 1.691e-08
  9.29040    -63.7 2.378e+04 2.186e-08
  9.30035    -65.1 2.455e+04 2.673e-08
  9.30559    -66.5 2.491e+04 3.157e-08
  9.31057    -67.4 2.429e+04 2.978e-08
  9.32025    -68.6 2.428e+04 3.537e-08
  9.33020    -69.4 2.435e+04 4.233e-08
  9.34015    -69.8 2.441e+04 5.130e-08
  9.35010    -70.2 2.422e+04 6.054e-08
  9.35600    -70.2 2.397e+04 6.696e-08
  9.36097    -70.4 2.353e+04 5.205e-08
  9.37000    -70.0 2.341e+04 5.432e-08
  9.37995    -69.7 2.339e+04 5.542e-08
  9.38990    -69.5 2.320e+04 5.460e-08
  9.39985    -69.3 2.267e+04 5.271e-08
  9.40640    -68.7 2.233e+04 5.165e-08
  9.41138    -68.7 2.208e+04 3.547e-08
  9.41975    -68.0 2.195e+04 3.555e-08
  9.42970    -67.3 2.181e+04 3.602e-08
  9.43965    -66.3 2.164e+04 3.511e-08
  9.44960    -65.1 2.129e+04 3.172e-08
  9.45681    -64.1 2.090e+04 2.748e-08
  9.46179    -64.3 2.078e+04 1.911e-08
  9.46950    -63.2 2.041e+04 1.707e-08
  9.47945    -62.2 2.008e+04 1.536e-08
  9.48940    -60.9 2.009e+04 1.428e-08
  9.49935    -60.0 2.010e+04 1.325e-08
  9.50722    -58.8 2.027e+04 1.241e-08
  9.51721    -58.4 2.021e+04 8.749e-09
  9.53427    -56.5 2.054e+04 7.841e-09
  9.54915    -54.7 2.050e+04 6.284e-09
  9.55762    -54.0 2.097e+04 6.379e-09
  9.56260    -54.2 1.975e+04 3.904e-09
  9.56900    -54.4 2.107e+04 4.070e-09
  9.57895    -54.6 2.229e+04 4.618e-09
  9.58890    -55.8 2.434e+04 4.790e-09
  9.59885    -57.5 2.589e+04 5.869e-09
  9.60803    -60.5 2.724e+04 7.393e-09
  9.61300    -60.8 3.316e+04 2.977e-09
  9.61875    -65.4 3.477e+04 4.367e-09
  9.62870    -69.2 3.218e+04 1.049e-08
  9.63865    -70.1 2.567e+04 3.939e-08
  9.64860    -70.0 2.346e+04 6.443e-08
  9.65843    -69.7 2.298e+04 7.013e-08
  9.66341    -70.0 2.500e+04 4.165e-08
  9.66850    -69.9 2.399e+04 4.542e-08
  9.67845    -69.9 2.326e+04 4.755e-08
  9.68841    -70.0 2.284e+04 4.966e-08
  9.69836    -70.4 2.307e+04 5.178e-08
  9.70831    -71.1 2.394e+04 5.407e-08
  9.71381    -71.9 2.513e+04 5.642e-08
  9.71879    -71.2 2.433e+04 5.261e-08
  9.72821    -71.9 2.523e+04 6.009e-08
  9.73816    -72.4 2.599e+04 6.658e-08
  9.74811    -72.7 2.667e+04 6.859e-08
  9.75806    -73.0 2.708e+04 6.614e-08
  9.76422    -73.0 2.739e+04 5.774e-08
  9.76919    -72.2 2.682e+04 6.884e-08
  9.77796    -72.1 2.715e+04 5.954e-08
  9.78791    -72.3 2.701e+04 4.997e-08
  9.79786    -72.6 2.686e+04 4.030e-08
  9.80781    -73.0 2.669e+04 2.897e-08
  9.81462    -74.0 2.574e+04 1.903e-08
  9.81960    -72.4 2.746e+04 2.947e-08
  9.82771    -74.1 2.661e+04 1.926e-08
  9.83766    -76.3 2.483e+04 1.242e-08
  9.84761    -78.6 2.291e+04 8.517e-09
  9.85756    -80.5 2.154e+04 6.444e-09
  9.86503    -81.7 2.044e+04 5.258e-09
  9.87000    -82.1 2.002e+04 5.248e-09
  9.87746    -83.2 1.877e+04 4.476e-09
  9.89243    -86.4 1.624e+04 3.388e-09
  9.91055    -88.3 1.406e+04 2.748e-09
  9.92046    -89.2 1.522e+04 3.825e-09
  9.93223    -89.8 1.481e+04 3.561e-09
  9.95218    -89.5 1.447e+04 3.314e-09
  9.97208    -89.0 1.398e+04 2.967e-09
  9.98266    -88.2 1.362e+04 2.666e-09
  9.99261    -88.5 1.465e+04 3.712e-09
 10.01137    -87.8 1.461e+04 3.654e-09
 10.02132    -91.0 1.508e+04 3.628e-09
 10.03179    -89.7 1.497e+04 3.571e-09
 10.05169    -87.9 1.475e+04 3.486e-09
 10.07159    -85.9 1.448e+04 3.400e-09
 10.09149    -84.1 1.423e+04 3.376e-09
 10.11139    -82.3 1.404e+04 3.381e-09
 10.12213    -80.4 1.396e+04 3.442e-09
 10.13208    -81.6 1.376e+04 3.293e-09
 10.15119    -79.7 1.384e+04 3.421e-09
 10.17109    -78.2 1.390e+04 3.381e-09
 10.19099    -76.9 1.391e+04 3.323e-09
 10.21089    -75.7 1.390e+04 3.336e-09
 10.22294    -74.9 1.410e+04 3.536e-09
 10.23289    -75.9 1.338e+04 2.591e-09
 10.25069    -75.1 1.354e+04 2.565e-09
 10.27059    -74.5 1.380e+04 2.516e-09
 10.29049    -73.9 1.417e+04 2.402e-09
 10.31039    -73.7 1.454e+04 2.187e-09
 10.32375    -73.8 1.487e+04 1.859e-09
 10.33370    -77.7 1.255e+04 1.017e-09
 10.35019    -79.2 1.215e+04 9.450e-10
 10.37009    -80.9 1.161e+04 8.705e-10
 10.38999    -82.4 1.102e+04 9.387e-10
 10.40989    -83.3 1.095e+04 1.035e-09
 10.42456    -84.0 1.100e+04 1.101e-09
 10.43451    -84.5 1.112e+04 1.230e-09
 10.44969    -85.2 1.111e+04 1.135e-09
 10.46959    -86.7 1.122e+04 1.040e-09
 10.48950    -89.1 1.132e+04 9.929e-10
 10.50940    -92.0 1.161e+04 1.014e-09
 10.52537    -94.9 1.183e+04 1.139e-09
 10.53532    -94.8 1.092e+04 7.512e-10
 10.54920    -96.7 1.111e+04 8.892e-10
 10.56910    -98.0 1.134e+04 1.084e-09
 10.58900    -98.8 1.151e+04 1.274e-09
 10.60890    -99.3 1.163e+04 1.424e-09
 10.62618    -99.7 1.170e+04 1.508e-09
 10.63613    -99.3 1.116e+04 1.112e-09
 10.64870    -99.5 1.126e+04 1.206e-09
 10.66860    -99.8 1.138e+04 1.285e-09
 10.68850   -100.0 1.148e+04 1.360e-09
 10.70840   -100.1 1.160e+04 1.430e-09
 10.72699    -99.9 1.173e+04 1.493e-09
 10.73694    -99.2 1.143e+04 1.308e-09
 10.74820    -99.0 1.162e+04 1.430e-09
 10.76810    -98.7 1.176e+04 1.504e-09
 10.78800    -98.5 1.180e+04 1.519e-09
 10.80790    -98.2 1.171e+04 1.438e-09
 10.82780    -98.1 1.145e+04 1.302e-09
 10.84770    -97.0 1.119e+04 1.171e-09
 10.86760    -96.4 1.090e+04 1.022e-09
 10.88750    -95.6 1.056e+04 8.423e-10
 10.90740    -94.9 1.016e+04 6.422e-10
 10.92730    -94.2 9.728e+03 4.735e-10
 10.95725    -93.5 9.423e+03 3.699e-10
 10.99715    -92.5 8.829e+03 2.383e-10
 11.02962    -91.6 8.458e+03 1.818e-10
 11.04952    -89.5 8.604e+03 1.965e-10
 11.07675    -88.9 8.502e+03 1.788e-10
 11.11655    -88.7 8.580e+03 1.885e-10
 11.15636    -89.3 9.111e+03 2.810e-10
 11.19616    -89.9 9.722e+03 4.457e-10
 11.23124    -90.7 1.028e+04 6.353e-10
 11.25114    -88.7 1.033e+04 6.466e-10
 11.27576    -89.7 1.076e+04 7.937e-10
 11.31556    -90.9 1.100e+04 8.706e-10
 11.34190    -92.0 1.095e+04 8.695e-10
 11.35175    -91.6 1.103e+04 9.003e-10
 11.36511    -92.2 1.107e+04 9.183e-10
 11.38501    -92.8 1.111e+04 9.340e-10
 11.40492    -93.3 1.112e+04 9.342e-10
 11.42482    -93.9 1.107e+04 8.889e-10
 11.43987    -94.4 1.102e+04 8.463e-10
 11.44772    -94.5 1.106e+04 8.670e-10
 11.45256    -94.5 1.148e+04 1.120e-09
 11.46462    -95.0 1.149e+04 1.114e-09
 11.48452    -95.6 1.156e+04 1.128e-09
 11.50442    -96.1 1.173e+04 1.197e-09
 11.52432    -96.7 1.193e+04 1.302e-09
 11.54342    -97.2 1.213e+04 1.406e-09
 11.55337    -97.4 1.248e+04 1.687e-09
 11.56412    -97.9 1.260e+04 1.744e-09
 11.58402    -98.5 1.265e+04 1.768e-09
 11.60392    -99.0 1.271e+04 1.782e-09
 11.62382    -99.5 1.280e+04 1.819e-09
 11.64372   -100.0 1.291e+04 1.885e-09
 11.65418   -100.5 1.299e+04 1.949e-09
 11.66413   -100.6 1.294e+04 1.928e-09
 11.68352   -101.1 1.294e+04 1.939e-09
 11.70342   -101.4 1.289e+04 1.926e-09
 11.72332   -101.8 1.264e+04 1.751e-09
 11.74322   -102.2 1.225e+04 1.470e-09
 11.75499   -102.6 1.179e+04 1.195e-09
 11.76494   -102.4 1.152e+04 9.871e-10
 11.78302   -102.4 1.114e+04 8.110e-10
 11.80292   -102.3 1.081e+04 6.669e-10
 11.82282   -101.9 1.052e+04 5.476e-10
 11.84272   -101.5 1.029e+04 4.537e-10
 11.85580   -101.1 1.013e+04 3.994e-10
 11.87580   -100.8 1.010e+04 3.393e-10
 11.91257   -100.1 9.997e+03 3.254e-10
 11.95237    -98.9 9.854e+03 3.136e-10
 11.99217    -97.7 9.698e+03 3.020e-10
 12.03197    -96.4 9.554e+03 2.782e-10
 12.05762    -95.3 9.453e+03 2.450e-10
 12.07752    -95.1 9.898e+03 3.280e-10
 12.11158    -94.4 9.982e+03 3.410e-10
 12.15138    -93.6 9.980e+03 3.473e-10
 12.19118    -92.7 9.852e+03 3.422e-10
 12.23098    -91.6 9.703e+03 3.233e-10
 12.25924    -90.6 9.530e+03 2.920e-10
 12.27914    -91.0 9.920e+03 3.484e-10
 12.31058    -90.4 9.661e+03 2.906e-10
 12.35038    -90.0 9.488e+03 2.729e-10
 12.39018    -89.4 9.433e+03 2.719e-10
 12.42998    -88.9 9.376e+03 2.816e-10
 12.46086    -88.2 9.333e+03 2.837e-10
 12.48076    -88.2 9.049e+03 2.308e-10
 12.50958    -87.1 8.838e+03 1.807e-10
 12.54939    -85.9 8.588e+03 1.281e-10
 12.58919    -84.8 8.359e+03 9.065e-11
 12.62899    -83.8 8.211e+03 7.301e-11
 12.66248    -82.6 8.165e+03 6.875e-11
 12.68238    -82.5 8.165e+03 6.677e-11
 12.70859    -81.7 8.219e+03 6.884e-11
 12.74839    -81.4 8.458e+03 9.279e-11
 12.78819    -81.2 8.714e+03 1.546e-10
 12.82799    -80.9 9.045e+03 2.466e-10
 12.86410    -80.7 9.434e+03 3.484e-10
 12.88400    -82.2 1.040e+04 5.891e-10
 12.89727    -82.5 1.058e+04 6.435e-10
 12.91717    -83.6 1.090e+04 8.104e-10
 12.94739    -83.4 1.055e+04 7.196e-10
 12.98720    -83.0 1.001e+04 5.114e-10
 13.02700    -82.7 9.561e+03 3.609e-10
 13.06572    -82.3 9.319e+03 2.834e-10
 13.08563    -83.5 9.087e+03 2.374e-10
 13.10660    -82.8 9.003e+03 2.055e-10
 13.14640    -82.0 8.991e+03 2.005e-10
 13.18620    -81.2 9.011e+03 2.161e-10
 13.22600    -80.2 9.234e+03 2.853e-10
 13.26580    -78.9 9.482e+03 3.594e-10
 13.28725    -77.4 9.848e+03 4.457e-10
 13.30715    -77.5 9.285e+03 3.159e-10
 13.34540    -75.6 9.551e+03 3.568e-10
 13.37516    -74.5 1.000e+04 4.635e-10
 13.38786    -74.3 1.021e+04 5.219e-10
 13.39781    -73.9 9.733e+03 3.699e-10
 13.41486    -73.6 1.022e+04 4.493e-10
 13.43476    -73.6 1.079e+04 6.002e-10
 13.45466    -74.0 1.146e+04 9.486e-10
 13.47456    -74.2 1.215e+04 1.506e-09
 13.48867    -74.1 1.291e+04 2.352e-09
 13.49862    -74.1 1.249e+04 1.642e-09
 13.51436    -73.9 1.319e+04 2.546e-09
 13.53426    -73.1 1.380e+04 3.596e-09
 13.55416    -72.5 1.414e+04 4.182e-09
 13.57406    -72.2 1.421e+04 4.315e-09
 13.58948    -71.8 1.404e+04 3.875e-09
 13.59943    -71.6 1.378e+04 3.549e-09
 13.61386    -71.2 1.329e+04 2.734e-09
 13.63376    -71.1 1.272e+04 1.878e-09
 13.65366    -71.9 1.224e+04 1.369e-09
 13.67356    -72.5 1.182e+04 1.102e-09
 13.69029    -72.7 1.155e+04 9.957e-10
 13.70024    -72.1 1.123e+04 8.106e-10
 13.71337    -72.0 1.114e+04 7.664e-10
 13.73327    -71.8 1.105e+04 7.527e-10
 13.75317    -71.2 1.085e+04 7.400e-10
 13.77307    -70.3 1.059e+04 6.975e-10
 13.79110    -69.5 1.035e+04 5.856e-10
 13.80105    -69.2 1.031e+04 5.185e-10
 13.82292    -68.7 1.011e+04 4.236e-10
 13.86281    -67.5 9.805e+03 3.107e-10
 13.89211    -65.8 9.385e+03 2.132e-10
 13.91201    -64.7 9.419e+03 2.182e-10
 13.94242    -63.0 9.155e+03 1.590e-10
 13.98222    -61.2 9.033e+03 1.308e-10
 14.02202    -59.3 8.989e+03 1.232e-10
 14.06182    -57.3 8.985e+03 1.233e-10
 14.09373    -55.5 9.055e+03 1.366e-10
 14.11363    -55.0 9.027e+03 9.732e-11
 14.14142    -53.4 9.085e+03 1.108e-10
 14.18122    -51.9 9.167e+03 1.352e-10
 14.22102    -50.4 9.293e+03 1.676e-10
 14.26082    -48.9 9.432e+03 2.056e-10
 14.29535    -47.5 9.563e+03 2.415e-10
 14.31525    -47.7 9.426e+03 1.966e-10
 14.34042    -46.2 9.488e+03 2.110e-10
 14.38023    -44.7 9.500e+03 2.111e-10
 14.42003    -43.3 9.501e+03 1.852e-10
 14.45983    -42.0 9.501e+03 1.578e-10
 14.49697    -41.0 9.504e+03 1.512e-10
 14.51687    -41.6 9.465e+03 1.428e-10
 14.53943    -40.9 9.476e+03 1.547e-10
 14.57923    -40.0 9.530e+03 1.975e-10
 14.61903    -39.0 9.700e+03 2.517e-10
 14.65883    -38.2 1.004e+04 3.099e-10
 14.69859    -37.9 1.046e+04 3.864e-10
 14.72835    -38.0 1.049e+04 4.183e-10
 14.74819    -38.2 1.060e+04 4.838e-10
 14.76809    -38.2 1.067e+04 5.462e-10
 14.78799    -37.9 1.069e+04 5.637e-10
 14.80789    -37.6 1.068e+04 5.603e-10
 14.81911    -37.5 1.063e+04 4.957e-10
 14.82906    -37.2 1.064e+04 5.090e-10
 14.84769    -37.4 1.065e+04 4.480e-10
 14.86759    -38.1 1.064e+04 4.148e-10
 14.88749    -38.8 1.067e+04 4.136e-10
 14.90739    -39.4 1.078e+04 4.746e-10
 14.91992    -39.8 1.097e+04 5.978e-10
 14.92987    -39.7 1.110e+04 6.146e-10
 14.94719    -40.0 1.136e+04 8.024e-10
 14.96709    -39.9 1.160e+04 1.036e-09
 14.98699    -39.5 1.182e+04 1.271e-09
 15.00689    -39.0 1.201e+04 1.454e-09
 15.02073    -38.4 1.217e+04 1.545e-09
 15.03068    -38.3 1.217e+04 1.546e-09
 15.04669    -37.9 1.222e+04 1.527e-09
 15.06660    -37.6 1.226e+04 1.479e-09
 15.08650    -37.4 1.232e+04 1.361e-09
 15.10640    -37.6 1.253e+04 1.248e-09
 15.12154    -38.3 1.275e+04 1.189e-09
 15.13149    -38.0 1.282e+04 1.029e-09
 15.14620    -39.1 1.301e+04 1.076e-09
 15.16610    -40.3 1.314e+04 1.253e-09
 15.18600    -41.3 1.322e+04 1.446e-09
 15.20590    -42.0 1.318e+04 1.578e-09
 15.22235    -42.2 1.314e+04 1.613e-09
 15.23230    -41.5 1.293e+04 1.427e-09
 15.24570    -41.3 1.298e+04 1.458e-09
 15.26560    -41.7 1.298e+04 1.290e-09
 15.29555    -42.8 1.294e+04 1.080e-09
 15.32336    -44.5 1.257e+04 6.555e-10
 15.34326    -42.2 1.261e+04 8.778e-10
 15.37525    -43.7 1.228e+04 6.294e-10
 15.41505    -45.1 1.184e+04 4.055e-10
 15.45485    -46.3 1.107e+04 2.625e-10
 15.49465    -46.6 1.052e+04 1.983e-10
 15.52498    -46.5 1.040e+04 1.549e-10
 15.54488    -45.7 1.048e+04 1.560e-10
 15.57425    -45.3 1.034e+04 1.214e-10
 15.61405    -44.5 1.021e+04 1.085e-10
 15.65385    -43.4 1.016e+04 1.074e-10
 15.69365    -42.0 1.012e+04 1.194e-10
 15.72660    -40.4 1.009e+04 1.279e-10
 15.74650    -39.8 1.016e+04 1.272e-10
 15.77326    -38.1 1.004e+04 1.250e-10
 15.81169    -36.5 1.003e+04 1.097e-10
 15.83159    -36.3 1.004e+04 9.271e-11
 15.85286    -35.2 1.005e+04 8.316e-11
 15.89266    -34.2 1.003e+04 8.241e-11
 15.92822    -33.1 9.962e+03 9.642e-11
 15.94812    -32.3 1.001e+04 8.984e-11
 15.97226    -30.9 9.920e+03 1.046e-10
 16.01206    -29.1 9.889e+03 1.098e-10
 16.05186    -27.4 9.806e+03 1.025e-10
 16.09166    -25.8 9.771e+03 7.873e-11
 16.12984    -24.9 9.862e+03 5.675e-11
 16.14974    -24.9 9.971e+03 6.114e-11
 16.17126    -24.8 1.011e+04 5.716e-11
 16.21107    -25.7 1.045e+04 6.228e-11
 16.25087    -26.8 1.025e+04 9.978e-11
 16.29067    -26.8 1.002e+04 1.713e-10
 16.33047    -25.5 1.023e+04 2.289e-10
 16.35126    -24.7 1.026e+04 2.095e-10
 16.36112    -25.1 1.059e+04 2.629e-10
 16.38002    -26.0 1.104e+04 2.959e-10
 16.40997    -28.4 1.266e+04 4.271e-10
 16.43982    -27.1 1.194e+04 5.050e-10
 16.45198    -29.9 1.420e+04 8.063e-10
 16.46193    -32.6 1.583e+04 1.469e-09
 16.47953    -34.1 1.606e+04 3.294e-09
 16.49943    -34.2 1.599e+04 5.736e-09
 16.51933    -32.8 1.607e+04 8.120e-09
 16.53923    -31.7 1.610e+04 9.097e-09
 16.55279    -31.1 1.620e+04 7.894e-09
 16.56274    -31.2 1.651e+04 8.529e-09
 16.57903    -31.8 1.623e+04 6.205e-09
 16.59893    -33.3 1.583e+04 4.216e-09
 16.61883    -35.1 1.486e+04 2.890e-09
 16.63873    -36.5 1.382e+04 2.119e-09
 16.65360    -37.8 1.295e+04 1.644e-09
 16.66355    -38.1 1.270e+04 1.594e-09
 16.67853    -39.0 1.224e+04 1.281e-09
 16.69843    -40.0 1.193e+04 1.067e-09
 16.72838    -41.0 1.179e+04 9.549e-10
 16.75451    -42.1 1.141e+04 8.273e-10
 16.77441    -41.8 1.103e+04 6.870e-10
 16.79803    -42.3 1.103e+04 7.528e-10
 16.81783    -42.3 1.090e+04 7.583e-10
 16.83773    -42.2 1.072e+04 7.507e-10
 16.85522    -41.8 1.052e+04 7.294e-10
 16.86517    -41.3 1.061e+04 6.699e-10
 16.87753    -40.9 1.036e+04 6.478e-10
 16.89744    -40.8 1.027e+04 5.683e-10
 16.91734    -40.7 1.017e+04 5.321e-10
 16.93724    -40.7 1.016e+04 5.209e-10
 16.95603    -40.7 1.019e+04 5.359e-10
 16.96598    -40.0 1.028e+04 5.446e-10
 16.97704    -39.8 1.041e+04 6.219e-10
 17.00699    -39.4 1.055e+04 7.482e-10
 17.04688    -38.3 1.095e+04 1.074e-09
 17.08668    -37.6 1.117e+04 1.180e-09
 17.12649    -37.5 1.121e+04 1.173e-09
 17.15784    -39.0 1.101e+04 9.205e-10
 17.17774    -36.7 1.145e+04 1.122e-09
 17.20609    -39.1 1.128e+04 9.341e-10
 17.24589    -41.8 1.057e+04 6.424e-10
 17.28569    -44.2 9.516e+03 3.526e-10
 17.32549    -46.0 8.677e+03 2.004e-10
 17.35947    -47.0 8.272e+03 1.484e-10
 17.37937    -46.2 8.578e+03 1.924e-10
 17.40509    -46.9 8.349e+03 1.539e-10
 17.44489    -47.2 8.280e+03 1.373e-10
 17.48469    -47.2 8.262e+03 1.330e-10
 17.52449    -46.8 8.280e+03 1.359e-10
 17.56109    -46.3 8.355e+03 1.547e-10
 17.58099    -46.2 8.366e+03 1.654e-10
 17.60410    -45.2 8.385e+03 1.694e-10
 17.64390    -44.1 8.403e+03 1.658e-10
 17.68370    -43.0 8.444e+03 1.605e-10
 17.72350    -42.2 8.616e+03 1.623e-10
 17.76271    -41.9 9.032e+03 2.071e-10
 17.78261    -42.3 9.157e+03 2.182e-10
 17.80310    -41.2 9.404e+03 3.419e-10
 17.84290    -39.4 9.709e+03 4.734e-10
 17.88270    -37.3 9.927e+03 5.396e-10
 17.92250    -35.4 9.963e+03 5.369e-10
 17.96230    -33.2 9.979e+03 5.027e-10
 17.98423    -31.6 1.074e+04 5.458e-10
 18.00413    -30.9 9.848e+03 3.709e-10
 18.03186    -32.9 1.180e+04 5.257e-10
 18.05166    -47.3 2.426e+04 1.946e-09
 18.06654    -54.5 2.594e+04 8.608e-09
 18.07644    -53.6 2.162e+04 5.968e-08
 18.08475    -51.4 2.018e+04 2.824e-07
 18.08972    -51.3 2.079e+04 1.080e-07
 18.09634    -48.6 2.101e+04 2.809e-07
 18.10629    -47.5 2.125e+04 5.162e-07
 18.11624    -47.9 2.131e+04 6.011e-07
 18.12619    -48.5 2.126e+04 4.041e-07
 18.13515    -47.7 2.180e+04 1.370e-07
 18.14013    -46.7 2.121e+04 1.147e-07
 18.14609    -46.0 2.206e+04 4.142e-08
 18.15604    -49.7 2.207e+04 1.637e-08
 18.16599    -54.7 1.757e+04 8.060e-09
 18.17594    -56.6 1.537e+04 5.430e-09
 18.18556    -56.9 1.478e+04 4.612e-09
 18.19556    -55.8 1.462e+04 2.981e-09
 18.21086    -55.7 1.405e+04 2.198e-09
 18.23076    -55.7 1.344e+04 1.560e-09
 18.25066    -56.0 1.324e+04 1.321e-09
 18.27057    -56.0 1.300e+04 1.196e-09
 18.28646    -55.9 1.269e+04 1.119e-09
 18.29641    -56.0 1.121e+04 6.940e-10
 18.31037    -55.8 1.102e+04 6.872e-10
 18.33027    -55.7 1.090e+04 6.879e-10
 18.35017    -55.5 1.085e+04 6.860e-10
 18.37007    -55.3 1.077e+04 7.143e-10
 18.38728    -55.0 1.084e+04 7.596e-10
 18.39723    -54.6 1.073e+04 6.574e-10
 18.40987    -54.3 1.086e+04 7.289e-10
 18.42977    -54.2 1.101e+04 8.085e-10
 18.44967    -54.1 1.113e+04 8.919e-10
 18.46957    -54.0 1.126e+04 9.846e-10
 18.48809    -53.8 1.144e+04 1.099e-09
 18.49804    -53.7 1.149e+04 1.107e-09
 18.51942    -53.4 1.175e+04 1.286e-09
 18.54927    -53.5 1.176e+04 1.358e-09
 18.56907    -53.4 1.185e+04 1.394e-09
 18.58890    -53.3 1.193e+04 1.427e-09
 18.60880    -53.4 1.207e+04 1.532e-09
 18.62877    -53.3 1.185e+04 1.365e-09
 18.64867    -53.1 1.160e+04 1.200e-09
 18.66857    -52.9 1.140e+04 1.067e-09
 18.68847    -52.7 1.130e+04 9.866e-10
 18.69966    -52.4 1.129e+04 9.648e-10
 18.70961    -52.4 1.121e+04 9.250e-10
 18.72828    -52.3 1.131e+04 9.308e-10
 18.74581    -52.4 1.159e+04 1.038e-09
 18.75576    -53.1 1.160e+04 1.099e-09
 18.76808    -53.0 1.191e+04 1.314e-09
 18.78798    -52.8 1.222e+04 1.581e-09
 18.80047    -52.7 1.250e+04 1.889e-09
 18.81042    -52.4 1.217e+04 1.597e-09
 18.83783    -52.3 1.237e+04 1.813e-09
 18.87772    -52.1 1.250e+04 1.976e-09
 18.91752    -52.2 1.211e+04 1.634e-09
 18.95733    -53.0 1.121e+04 1.028e-09
 18.99233    -54.1 1.047e+04 6.989e-10
 19.01223    -54.8 9.652e+03 4.946e-10
 19.03693    -55.8 9.351e+03 4.413e-10
 19.07673    -56.6 9.257e+03 4.338e-10
 19.11653    -57.1 9.308e+03 4.591e-10
 19.15633    -57.4 9.492e+03 4.740e-10
 19.19395    -57.3 9.584e+03 4.715e-10
 19.21385    -57.2 9.523e+03 5.307e-10
 19.23593    -57.4 9.328e+03 4.240e-10
 19.27573    -57.5 8.916e+03 2.696e-10
 19.31553    -58.1 8.598e+03 1.685e-10
 19.35533    -59.3 8.528e+03 1.442e-10
 19.39514    -60.7 8.683e+03 1.571e-10
 19.41548    -62.0 9.508e+03 3.190e-10
 19.43538    -62.1 9.484e+03 3.343e-10
 19.47474    -62.8 1.007e+04 5.591e-10
 19.51454    -63.8 1.030e+04 6.492e-10
 19.55434    -65.3 1.028e+04 6.382e-10
 19.59414    -66.7 9.887e+03 5.273e-10
 19.61710    -67.9 9.638e+03 4.685e-10
 19.62695    -67.0 9.561e+03 4.079e-10
 19.64370    -67.5 9.508e+03 3.955e-10
 19.66360    -68.2 9.499e+03 3.941e-10
 19.68350    -69.3 9.516e+03 4.107e-10
 19.70340    -70.9 9.829e+03 5.273e-10
 19.71771    -72.5 1.043e+04 7.503e-10
 19.72766    -73.1 1.077e+04 6.996e-10
 19.74320    -74.6 1.137e+04 1.057e-09
 19.76310    -75.8 1.188e+04 1.476e-09
 19.78300    -76.7 1.223e+04 1.777e-09
 19.80290    -77.8 1.230e+04 1.842e-09
 19.81852    -78.8 1.214e+04 1.763e-09
 19.82847    -79.6 1.185e+04 1.381e-09
 19.84270    -80.6 1.137e+04 1.104e-09
 19.86260    -81.7 1.087e+04 8.505e-10
 19.88250    -82.9 1.045e+04 6.599e-10
 19.90240    -84.0 1.013e+04 5.126e-10
 19.91933    -85.0 9.915e+03 4.046e-10
 19.92928    -85.2 9.741e+03 3.804e-10
 19.95225    -86.2 9.744e+03 3.312e-10
 19.99215    -87.8 9.594e+03 2.883e-10
 20.02034    -89.4 9.455e+03 2.753e-10
 20.04024    -88.5 9.359e+03 2.594e-10
 20.06170    -89.7 9.323e+03 2.867e-10
 20.08150    -91.5 9.629e+03 3.547e-10
 20.10141    -94.6 1.052e+04 5.135e-10
 20.12095    -98.4 1.170e+04 8.600e-10
 20.13090    -98.9 1.213e+04 1.166e-09
 20.14121   -101.9 1.280e+04 1.879e-09
 20.16111   -104.2 1.315e+04 2.535e-09
 20.18101   -106.3 1.324e+04 2.759e-09
 20.20091   -108.7 1.322e+04 2.722e-09
 20.21296   -111.7 1.294e+04 2.109e-09
 20.22291   -110.9 1.338e+04 2.614e-09
 20.23171   -115.1 1.296e+04 1.792e-09
 20.24166   -117.3 1.330e+04 1.517e-09
 20.26061   -123.3 1.273e+04 1.271e-09
 20.28051   -127.8 1.256e+04 1.241e-09
 20.30041   -131.1 1.265e+04 1.421e-09
 20.32031   -133.6 1.310e+04 1.774e-09
 20.33252   -136.1 1.340e+04 2.025e-09
 20.34247   -137.6 1.329e+04 1.916e-09
 20.36011   -140.0 1.332e+04 1.938e-09
 20.38001   -142.4 1.323e+04 1.890e-09
 20.39991   -144.5 1.298e+04 1.690e-09
 20.41981   -146.4 1.265e+04 1.447e-09
 20.43333   -148.1 1.230e+04 1.214e-09
 20.44329   -149.3 1.175e+04 8.771e-10
 20.46966   -151.2 1.128e+04 6.671e-10
 20.50956   -154.1 1.032e+04 4.106e-10
 20.54936   -156.0 9.942e+03 3.115e-10
 20.58916   -156.7 9.856e+03 2.893e-10
 20.62520   -156.9 9.847e+03 2.872e-10
 20.64510   -157.3 9.745e+03 2.903e-10
 20.66876   -158.1 9.949e+03 3.626e-10
 20.70856   -159.7 1.102e+04 5.984e-10
 20.74836   -162.1 1.272e+04 1.251e-09
 20.77812   -164.4 1.420e+04 2.658e-09
 20.79792   -165.6 1.528e+04 4.256e-09
 20.81782   -166.8 1.606e+04 5.959e-09
 20.83658   -168.2 1.642e+04 6.874e-09
 20.84653   -169.6 1.645e+04 6.830e-09
 20.85762   -171.3 1.645e+04 6.891e-09
 20.87752   -173.0 1.606e+04 6.167e-09
 20.89742   -174.7 1.535e+04 4.650e-09
 20.91732   -176.4 1.454e+04 3.356e-09
 20.93722   -177.9 1.385e+04 2.466e-09
 20.94734   -178.9 1.335e+04 1.880e-09
 20.95729   -179.9 1.393e+04 2.807e-09
 20.97702   -180.3 1.363e+04 2.387e-09
 20.99692   -180.5 1.335e+04 2.018e-09
 21.01683   -180.6 1.307e+04 1.698e-09
 21.03673   -180.6 1.277e+04 1.439e-09
 21.04815   -180.6 1.247e+04 1.255e-09
 21.05810   -181.1 1.335e+04 2.227e-09
 21.07653   -180.9 1.323e+04 2.053e-09
 21.09643   -180.7 1.319e+04 2.008e-09
 21.11633   -180.4 1.319e+04 2.005e-09
 21.13623   -180.0 1.327e+04 2.160e-09
 21.14896   -179.4 1.359e+04 2.629e-09
 21.15891   -179.7 1.427e+04 3.713e-09
 21.17603   -178.6 1.456e+04 4.272e-09
 21.19593   -177.4 1.483e+04 4.823e-09
 21.21583   -176.5 1.507e+04 5.263e-09
 21.23573   -176.2 1.522e+04 5.495e-09
 21.24977   -176.1 1.545e+04 5.645e-09
 21.25972   -176.9 1.589e+04 5.769e-09
 21.27553   -179.3 1.789e+04 7.246e-09
 21.29543   -183.2 1.996e+04 1.267e-08
 21.31031   -185.9 2.051e+04 1.812e-08
 21.32021   -187.4 2.103e+04 2.865e-08
 21.33016   -188.9 2.126e+04 4.645e-08
 21.34011   -189.9 2.142e+04 6.405e-08
 21.35006   -190.9 2.153e+04 7.487e-08
 21.35546   -192.2 2.163e+04 7.772e-08
 21.36043   -192.1 2.131e+04 6.472e-08
 21.36996   -195.4 2.250e+04 6.321e-08
 21.37991   -202.8 2.663e+04 5.946e-08
 21.38986   -213.8 3.029e+04 6.807e-08
 21.39981   -225.8 2.976e+04 9.818e-08
 21.40586   -236.2 2.702e+04 1.394e-07
 21.41084   -241.0 2.652e+04 1.024e-07
 21.41971   -247.3 2.528e+04 1.136e-07
 21.42966   -251.2 2.327e+04 1.193e-07
 21.43961   -253.4 2.191e+04 9.332e-08
 21.44956   -254.7 2.104e+04 5.607e-08
 21.45627   -255.8 2.010e+04 3.040e-08
 21.46124   -256.0 1.986e+04 2.647e-08
 21.46946   -257.4 1.872e+04 1.503e-08
 21.47941   -259.1 1.744e+04 9.041e-09
 21.48936   -260.9 1.610e+04 6.044e-09
 21.49931   -262.0 1.510e+04 4.749e-09
 21.51429   -262.6 1.454e+04 4.090e-09
 21.53424   -263.6 1.385e+04 3.222e-09
 21.55220   -264.4 1.309e+04 2.449e-09
 21.56215   -264.9 1.265e+04 2.059e-09
 21.57404   -265.6 1.252e+04 1.873e-09
 21.59394   -266.2 1.251e+04 1.840e-09
 21.61384   -266.9 1.257e+04 1.846e-09
 21.63374   -267.8 1.280e+04 1.944e-09
 21.65301   -268.7 1.305e+04 2.120e-09
 21.66296   -269.7 1.301e+04 2.129e-09
 21.67017   -270.6 1.312e+04 2.269e-09
 21.68012   -270.5 1.328e+04 2.366e-09
 21.69344   -271.3 1.331e+04 2.481e-09
 21.71334   -272.0 1.327e+04 2.481e-09
 21.73324   -272.5 1.308e+04 2.286e-09
 21.75314   -273.0 1.279e+04 1.918e-09
 21.76377   -273.6 1.246e+04 1.526e-09
 21.77372   -274.5 1.179e+04 1.014e-09
 21.79294   -275.2 1.144e+04 8.218e-10
 21.81284   -275.9 1.119e+04 7.135e-10
 21.83274   -276.4 1.107e+04 6.691e-10
 21.85264   -276.7 1.105e+04 6.601e-10
 21.86458   -276.9 1.107e+04 6.669e-10
 21.87453   -276.9 1.089e+04 5.864e-10
 21.89244   -276.9 1.099e+04 6.224e-10
 21.91234   -276.8 1.105e+04 6.472e-10
 21.93225   -276.6 1.110e+04 6.657e-10
 21.95215   -276.4 1.114e+04 6.826e-10
 21.96539   -276.2 1.118e+04 6.991e-10
 21.97534   -276.1 1.123e+04 7.138e-10
 21.99195   -275.9 1.129e+04 7.479e-10
 22.01185   -275.8 1.135e+04 7.840e-10
 22.03175   -275.7 1.142e+04 8.230e-10
 22.05165   -275.5 1.149e+04 8.654e-10
 22.06620   -275.3 1.157e+04 9.115e-10
 22.07615   -275.1 1.153e+04 8.925e-10
 22.09145   -274.9 1.156e+04 9.003e-10
 22.11135   -274.6 1.157e+04 8.996e-10
 22.13125   -274.4 1.158e+04 8.842e-10
 22.15115   -274.2 1.158e+04 8.452e-10
 22.16701   -274.0 1.156e+04 7.922e-10
 22.17696   -273.8 1.139e+04 6.845e-10
 22.19095   -273.7 1.138e+04 6.476e-10
 22.21085   -273.6 1.140e+04 6.253e-10
 22.23075   -273.5 1.141e+04 6.205e-10
 22.25065   -273.5 1.146e+04 6.253e-10
 22.26782   -273.4 1.158e+04 6.477e-10
 22.27777   -273.1 1.156e+04 6.400e-10
 22.29045   -272.9 1.172e+04 6.895e-10
 22.31035   -272.7 1.189e+04 7.350e-10
 22.33025   -272.5 1.206e+04 7.656e-10
 22.35015   -272.2 1.222e+04 7.737e-10
 22.36863   -272.0 1.230e+04 7.713e-10
 22.37858   -271.6 1.271e+04 8.738e-10
 22.38996   -271.4 1.282e+04 8.650e-10
 22.40986   -271.3 1.296e+04 8.091e-10
 22.42976   -271.2 1.293e+04 7.498e-10
 22.44966   -271.1 1.282e+04 6.792e-10
 22.46944   -270.9 1.254e+04 6.100e-10
 22.47939   -270.5 1.360e+04 7.811e-10
 22.48946   -270.2 1.339e+04 7.141e-10
 22.50936   -269.9 1.311e+04 6.613e-10
 22.52926   -269.5 1.281e+04 6.247e-10
 22.54916   -269.1 1.253e+04 6.045e-10
 22.56906   -268.8 1.230e+04 5.988e-10
 22.58021   -268.4 1.214e+04 6.019e-10
 22.59016   -268.5 1.388e+04 9.383e-10
 22.60886   -268.2 1.352e+04 9.175e-10
 22.62876   -267.9 1.312e+04 8.869e-10
 22.64866   -267.5 1.272e+04 8.448e-10
 22.66856   -267.1 1.235e+04 7.962e-10
 22.68102   -266.5 1.207e+04 7.459e-10
 22.69097   -266.5 1.246e+04 8.807e-10
 22.70836   -265.9 1.208e+04 7.760e-10
 22.72826   -265.2 1.187e+04 7.021e-10
 22.74816   -264.4 1.175e+04 6.521e-10
 22.76806   -263.6 1.167e+04 6.232e-10
 22.78183   -262.8 1.161e+04 6.102e-10
 22.79178   -262.7 1.163e+04 6.122e-10
 22.80786   -261.8 1.159e+04 6.085e-10
 22.82776   -260.8 1.157e+04 6.091e-10
 22.84767   -259.8 1.157e+04 6.112e-10
 22.86757   -258.9 1.157e+04 6.173e-10
 22.88264   -258.0 1.159e+04 6.246e-10
 22.89259   -257.7 1.158e+04 6.198e-10
 22.90737   -256.8 1.159e+04 6.274e-10
 22.92727   -255.9 1.158e+04 6.328e-10
 22.94717   -255.1 1.156e+04 6.372e-10
 22.96707   -254.2 1.155e+04 6.414e-10
 22.98345   -253.3 1.154e+04 6.443e-10
 22.99340   -253.1 1.157e+04 6.501e-10
 23.00687   -252.2 1.156e+04 6.503e-10
 23.02677   -251.4 1.154e+04 6.493e-10
 23.04667   -250.5 1.153e+04 6.483e-10
 23.06657   -249.6 1.152e+04 6.476e-10
 23.08426   -248.7 1.151e+04 6.478e-10
 23.09421   -248.6 1.148e+04 6.327e-10
 23.10637   -247.7 1.145e+04 6.224e-10
 23.12627   -246.8 1.142e+04 6.116e-10
 23.13733   -246.0 1.140e+04 6.016e-10
 23.14728   -245.9 1.133e+04 5.723e-10
 23.16607   -245.0 1.132e+04 5.682e-10
 23.18507   -244.1 1.130e+04 5.647e-10
 23.19502   -243.9 1.118e+04 5.011e-10
 23.20587   -242.9 1.117e+04 4.939e-10
 23.22577   -242.2 1.116e+04 4.904e-10
 23.24567   -241.3 1.117e+04 4.893e-10
 23.26557   -240.6 1.117e+04 4.904e-10
 23.28547   -239.7 1.118e+04 4.931e-10
 23.29583   -239.1 1.121e+04 5.016e-10
 23.30588   -239.3 1.106e+04 4.217e-10
 23.32537   -238.3 1.111e+04 4.536e-10
 23.34518   -237.6 1.114e+04 4.624e-10
 23.36508   -237.0 1.120e+04 4.751e-10
 23.38498   -236.4 1.127e+04 4.901e-10
 23.39664   -235.7 1.136e+04 5.078e-10
 23.40659   -235.6 1.119e+04 4.328e-10
 23.42478   -235.1 1.124e+04 4.399e-10
 23.44468   -234.4 1.131e+04 4.478e-10
 23.46458   -233.9 1.137e+04 4.535e-10
 23.48448   -233.3 1.146e+04 4.639e-10
 23.49745   -232.8 1.151e+04 4.786e-10
 23.50750   -233.2 1.140e+04 3.904e-10
 23.52438   -232.1 1.149e+04 4.483e-10
 23.54418   -231.5 1.158e+04 4.771e-10
 23.56408   -230.9 1.165e+04 5.164e-10
 23.58398   -230.3 1.173e+04 5.574e-10
 23.61393   -229.8 1.186e+04 6.175e-10
 23.65383   -228.5 1.208e+04 7.434e-10
 23.68932   -227.5 1.228e+04 8.438e-10
 23.70922   -227.2 1.241e+04 9.996e-10
 23.73343   -226.2 1.264e+04 1.164e-09
 23.77323   -225.2 1.275e+04 1.243e-09
 23.81303   -224.3 1.276e+04 1.262e-09
 23.85283   -223.4 1.269e+04 1.191e-09
 23.89094   -222.2 1.242e+04 9.336e-10
 23.91084   -222.1 1.273e+04 1.344e-09
 23.93243   -220.7 1.230e+04 9.246e-10
 23.97224   -219.0 1.188e+04 5.826e-10
 24.01204   -217.2 1.159e+04 3.659e-10
 24.05184   -215.6 1.149e+04 2.552e-10
 24.09164   -214.0 1.153e+04 2.185e-10
 24.11246   -212.4 1.154e+04 2.126e-10
 24.13236   -211.8 1.157e+04 2.956e-10
 24.17124   -210.4 1.155e+04 2.913e-10
 24.21104   -209.1 1.153e+04 2.896e-10
 24.25084   -207.9 1.143e+04 2.980e-10
 24.29064   -206.7 1.131e+04 3.106e-10
 24.31408   -205.5 1.116e+04 3.224e-10
 24.33398   -205.6 1.104e+04 3.296e-10
 24.37024   -204.5 1.087e+04 3.213e-10
 24.41004   -203.2 1.074e+04 3.157e-10
 24.44985   -201.8 1.065e+04 3.110e-10
 24.48965   -200.3 1.058e+04 3.055e-10
 24.51570   -198.6 1.050e+04 2.979e-10
 24.53560   -198.4 1.033e+04 2.469e-10
 24.56925   -196.5 1.025e+04 2.328e-10
 24.59473   -194.4 1.018e+04 2.212e-10
 24.61463   -194.5 1.001e+04 1.891e-10
 24.64885   -192.4 9.943e+03 1.743e-10
 24.68865   -190.2 9.901e+03 1.651e-10
 24.71732   -188.0 9.887e+03 1.626e-10
 24.73722   -187.4 9.781e+03 1.296e-10
 24.76825   -185.1 9.790e+03 1.285e-10
 24.80805   -183.0 9.807e+03 1.308e-10
 24.84785   -181.2 9.943e+03 1.661e-10
 24.88766   -179.4 1.019e+04 2.480e-10
 24.91894   -177.5 1.053e+04 4.002e-10
 24.93884   -176.8 1.033e+04 2.871e-10
 24.96726   -174.9 1.074e+04 4.909e-10
 25.00706   -172.9 1.119e+04 7.895e-10
 25.04686   -171.0 1.161e+04 1.116e-09
 25.08666   -169.1 1.190e+04 1.311e-09
 25.12056   -167.2 1.200e+04 1.389e-09
 25.14046   -166.5 1.198e+04 1.403e-09
 25.16626   -164.5 1.212e+04 1.499e-09
 25.20606   -162.5 1.217e+04 1.519e-09
 25.24586   -160.6 1.219e+04 1.396e-09
 25.28566   -158.9 1.222e+04 1.250e-09
 25.32218   -157.2 1.222e+04 1.122e-09
 25.34208   -156.7 1.232e+04 1.182e-09
 25.36527   -155.2 1.232e+04 1.119e-09
 25.40507   -153.8 1.233e+04 1.116e-09
 25.44487   -152.4 1.239e+04 1.190e-09
 25.48467   -150.9 1.245e+04 1.250e-09
 25.52380   -149.5 1.251e+04 1.268e-09
 25.54370   -149.0 1.253e+04 1.321e-09
 25.56427   -147.6 1.258e+04 1.329e-09
 25.60407   -146.4 1.260e+04 1.323e-09
 25.64387   -145.6 1.261e+04 1.293e-09
 25.68367   -145.0 1.262e+04 1.279e-09
 25.72347   -144.6 1.263e+04 1.279e-09
 25.74533   -144.5 1.279e+04 1.349e-09
 25.76523   -143.8 1.266e+04 1.256e-09
 25.80308   -143.6 1.288e+04 1.384e-09
 25.84288   -143.5 1.306e+04 1.579e-09
 25.88268   -143.1 1.310e+04 1.680e-09
 25.92248   -142.6 1.307e+04 1.686e-09
 25.94695   -141.7 1.294e+04 1.596e-09
 25.96685   -141.4 1.278e+04 1.353e-09
 26.00208   -140.2 1.256e+04 1.209e-09
 26.04188   -138.6 1.244e+04 1.118e-09
 26.08168   -137.0 1.242e+04 1.103e-09
 26.12148   -135.6 1.247e+04 1.130e-09
 26.14857   -134.4 1.275e+04 1.347e-09
 26.16847   -134.7 1.292e+04 1.381e-09
 26.20108   -134.0 1.333e+04 1.792e-09
 26.24088   -133.6 1.365e+04 2.199e-09
 26.28069   -133.6 1.371e+04 2.430e-09
 26.32049   -133.8 1.368e+04 2.468e-09
 26.35009   -133.7 1.342e+04 2.285e-09
 26.36999   -134.2 1.323e+04 2.004e-09
 26.40009   -134.4 1.320e+04 1.999e-09
 26.43989   -135.1 1.328e+04 2.069e-09
 26.47969   -136.1 1.346e+04 2.296e-09
 26.50944   -136.4 1.353e+04 2.376e-09
 26.52925   -136.8 1.361e+04 2.514e-09
 26.54915   -137.3 1.362e+04 2.626e-09
 26.56156   -137.7 1.360e+04 2.665e-09
 26.57161   -137.5 1.342e+04 2.257e-09
 26.59909   -138.2 1.347e+04 2.436e-09
 26.63889   -138.6 1.352e+04 2.592e-09
 26.67869   -139.0 1.358e+04 2.674e-09
 26.71850   -139.1 1.358e+04 2.632e-09
 26.74825   -138.9 1.337e+04 2.347e-09
 26.76318   -138.8 1.314e+04 2.023e-09
 26.77323   -138.8 1.317e+04 2.056e-09
 26.79810   -138.6 1.276e+04 1.560e-09
 26.83790   -137.9 1.235e+04 1.199e-09
 26.87770   -136.7 1.203e+04 9.762e-10
 26.91750   -135.4 1.178e+04 8.152e-10
 26.95505   -133.8 1.155e+04 6.681e-10
 26.97495   -133.6 1.149e+04 6.862e-10
 26.99710   -132.0 1.128e+04 5.513e-10
 27.03690   -130.3 1.112e+04 4.562e-10
 27.07670   -128.6 1.104e+04 4.099e-10
 27.11650   -127.0 1.102e+04 3.997e-10
 27.15630   -125.3 1.106e+04 4.015e-10
 27.17657   -123.8 1.118e+04 4.236e-10
 27.19647   -123.4 1.099e+04 4.121e-10
 27.23591   -121.9 1.099e+04 4.256e-10
 27.27571   -120.4 1.098e+04 4.287e-10
 27.31551   -118.8 1.097e+04 4.157e-10
 27.35531   -117.1 1.105e+04 3.933e-10
 27.37819   -115.6 1.110e+04 3.844e-10
 27.39809   -115.2 1.103e+04 3.959e-10
 27.43491   -113.8 1.119e+04 4.193e-10
 27.47471   -112.7 1.129e+04 4.324e-10
 27.50914   -111.8 1.131e+04 4.349e-10
 27.52904   -111.4 1.111e+04 3.100e-10
 27.55431   -110.2 1.108e+04 3.247e-10
 27.57981   -108.8 1.105e+04 3.266e-10
 27.59971   -108.3 1.097e+04 3.117e-10
 27.63392   -106.7 1.083e+04 2.867e-10
 27.67372   -105.1 1.069e+04 2.526e-10
 27.71352   -103.5 1.052e+04 2.167e-10
 27.75332   -101.8 1.034e+04 1.831e-10
 27.78144   -100.1 1.016e+04 1.544e-10
 27.80134    -99.3 1.009e+04 1.222e-10
 27.83292    -97.5 9.927e+03 1.034e-10
 27.87272    -95.5 9.834e+03 8.968e-11
 27.91252    -93.5 9.843e+03 8.365e-11
 27.95232    -91.5 9.854e+03 8.289e-11
 27.98306    -89.8 9.937e+03 8.609e-11
 28.00296    -89.0 9.854e+03 6.947e-11
 28.03192    -87.8 1.005e+04 9.977e-11
 28.07172    -86.5 1.011e+04 1.919e-10
 28.11153    -84.9 1.036e+04 3.478e-10
 28.15133    -83.3 1.070e+04 5.200e-10
 28.18468    -82.0 1.093e+04 6.071e-10
 28.20458    -81.0 1.072e+04 5.226e-10
 28.23093    -79.8 1.075e+04 5.229e-10
 28.27073    -78.4 1.066e+04 4.376e-10
 28.31053    -76.9 1.051e+04 3.313e-10
 28.35033    -75.4 1.046e+04 2.695e-10
 28.38630    -73.8 1.045e+04 2.579e-10
 28.40620    -72.7 1.030e+04 2.250e-10
 28.42993    -71.1 1.036e+04 2.435e-10
 28.46973    -69.8 1.057e+04 3.252e-10
 28.50953    -68.7 1.094e+04 4.926e-10
 28.54934    -67.6 1.141e+04 7.726e-10
 28.58792    -66.7 1.194e+04 1.160e-09
 28.60782    -65.5 1.196e+04 1.193e-09
 28.62894    -65.1 1.253e+04 1.610e-09
 28.66874    -65.1 1.303e+04 1.835e-09
 28.69849    -65.8 1.315e+04 1.927e-09
 28.71829    -65.8 1.350e+04 2.225e-09
 28.73819    -66.5 1.366e+04 2.294e-09
 28.75809    -67.2 1.375e+04 2.351e-09
 28.77799    -68.0 1.377e+04 2.307e-09
 28.79790    -68.7 1.367e+04 2.038e-09
 28.80924    -69.5 1.351e+04 1.713e-09
 28.81919    -69.5 1.364e+04 2.427e-09
 28.83770    -70.4 1.334e+04 1.934e-09
 28.85760    -71.2 1.312e+04 1.694e-09
 28.87750    -71.6 1.295e+04 1.589e-09
 28.89740    -71.7 1.288e+04 1.536e-09
 28.91006    -71.8 1.280e+04 1.499e-09
 28.92001    -71.8 1.253e+04 1.482e-09
 28.93720    -71.8 1.245e+04 1.372e-09
 28.95710    -71.6 1.229e+04 1.269e-09
 28.97611    -71.2 1.204e+04 1.152e-09
 28.98606    -71.0 1.179e+04 1.018e-09
 28.99690    -70.2 1.151e+04 9.000e-10
 29.01087    -69.1 1.121e+04 7.338e-10
 29.02082    -69.4 1.114e+04 7.232e-10
 29.03670    -68.3 1.098e+04 5.759e-10
 29.06665    -67.6 1.092e+04 4.638e-10
 29.10655    -66.9 1.089e+04 3.704e-10
 29.14635    -65.4 1.083e+04 2.931e-10
 29.18615    -63.9 1.086e+04 2.754e-10
 29.21268    -63.0 1.116e+04 2.982e-10
 29.22253    -62.9 1.117e+04 3.458e-10
 29.23570    -62.8 1.127e+04 3.989e-10
 29.25561    -62.5 1.139e+04 4.906e-10
 29.27551    -62.5 1.154e+04 6.401e-10
 29.29541    -62.0 1.179e+04 9.062e-10
 29.31330    -61.0 1.219e+04 1.271e-09
 29.32325    -60.8 1.222e+04 1.408e-09
 29.34525    -60.5 1.250e+04 1.618e-09
 29.38515    -59.2 1.261e+04 1.838e-09
 29.41421    -57.4 1.261e+04 1.764e-09
 29.42406    -57.1 1.228e+04 1.586e-09
 29.43471    -56.6 1.225e+04 1.460e-09
 29.45461    -55.9 1.208e+04 1.329e-09
 29.47451    -55.3 1.197e+04 1.244e-09
 29.49441    -54.6 1.175e+04 1.129e-09
 29.51431    -54.0 1.171e+04 1.082e-09
 29.52487    -53.4 1.167e+04 1.042e-09
 29.53482    -53.3 1.146e+04 8.907e-10
 29.55411    -52.9 1.155e+04 8.972e-10
 29.57401    -52.5 1.169e+04 9.404e-10
 29.59391    -52.3 1.193e+04 1.001e-09
 29.61583    -53.2 1.227e+04 1.080e-09
 29.63573    -52.7 1.267e+04 1.140e-09
 29.65361    -54.0 1.340e+04 1.522e-09
 29.67351    -55.5 1.405e+04 2.255e-09
 29.69341    -56.4 1.447e+04 3.228e-09
 29.71332    -56.9 1.465e+04 4.101e-09
 29.72649    -57.2 1.464e+04 4.461e-09
 29.73644    -57.0 1.545e+04 5.423e-09
 29.75312    -57.3 1.482e+04 4.684e-09
 29.77302    -57.9 1.421e+04 4.156e-09
 29.79292    -58.3 1.396e+04 3.999e-09
 29.81282    -58.3 1.386e+04 3.962e-09
 29.82730    -57.8 1.378e+04 3.953e-09
 29.83725    -57.7 1.360e+04 3.344e-09
 29.85262    -56.7 1.343e+04 3.203e-09
 29.87252    -55.9 1.325e+04 2.872e-09
 29.89242    -55.1 1.298e+04 2.481e-09
 29.91232    -54.4 1.261e+04 2.122e-09
 29.92811    -53.5 1.224e+04 1.832e-09
 29.93806    -53.5 1.205e+04 1.395e-09
 29.95212    -52.7 1.174e+04 1.296e-09
 29.97202    -51.6 1.152e+04 1.221e-09
 29.99192    -50.5 1.142e+04 1.165e-09
 30.01182    -49.4 1.143e+04 1.101e-09
 30.02892    -48.4 1.144e+04 1.037e-09
 30.03887    -48.7 1.150e+04 1.093e-09
 30.05162    -47.6 1.165e+04 1.093e-09
 30.07152    -46.6 1.181e+04 1.077e-09
 30.09142    -45.7 1.200e+04 1.039e-09
 30.11132    -45.1 1.208e+04 9.934e-10
 30.14127    -45.0 1.187e+04 9.266e-10
 30.18117    -43.4 1.128e+04 7.042e-10
 30.22079    -41.6 1.077e+04 5.373e-10
 30.26059    -39.7 1.052e+04 5.561e-10
 30.30057    -38.0 1.016e+04 3.918e-10
 30.34037    -36.1 9.949e+03 2.881e-10
 30.38017    -34.3 9.839e+03 2.296e-10
 30.41998    -32.4 9.738e+03 1.969e-10
 30.44231    -30.3 9.687e+03 1.706e-10
 30.44589    -30.6 9.642e+03 1.503e-10
 30.46336    -30.0 9.755e+03 1.742e-10
 30.49958    -28.1 9.716e+03 1.488e-10
 30.53938    -26.1 9.732e+03 1.337e-10
 30.57918    -24.1 9.800e+03 1.274e-10
 30.61898    -22.5 9.996e+03 1.339e-10
 30.64393    -20.9 9.993e+03 1.698e-10
 30.66383    -21.0 9.962e+03 1.794e-10
 30.69858    -18.8 9.984e+03 2.339e-10
 30.73838    -16.2 1.003e+04 2.816e-10
 30.77818    -13.6 1.016e+04 2.952e-10
 30.81798    -11.9 1.039e+04 2.724e-10
 30.84555    -10.7 1.048e+04 2.601e-10
 30.86545    -10.7 1.042e+04 1.889e-10
 30.89759     -9.5 1.009e+04 2.225e-10
 30.93739     -7.3 9.898e+03 2.734e-10
 30.97719     -4.9 9.796e+03 2.634e-10
 31.01699     -1.8 9.718e+03 1.911e-10
 31.04717      0.5 9.878e+03 1.149e-10
 31.06707      0.1 9.999e+03 1.309e-10
 31.09659      0.8 1.015e+04 1.032e-10
 31.13639      1.6 9.927e+03 1.230e-10
 31.17619      3.2 9.632e+03 1.826e-10
 31.21599      5.7 9.603e+03 2.521e-10
 31.24879      8.1 9.715e+03 2.754e-10
 31.26869      8.6 9.802e+03 3.122e-10
 31.29559     10.6 9.829e+03 2.592e-10
 31.33540     12.1 9.836e+03 1.989e-10
 31.37520     13.2 9.814e+03 1.580e-10
 31.41500     14.4 9.763e+03 1.325e-10
 31.45041     15.8 9.702e+03 1.132e-10
 31.47031     16.3 9.658e+03 1.417e-10
 31.49460     18.1 9.642e+03 1.128e-10
 31.53440     19.8 9.684e+03 8.275e-11
 31.57420     21.0 9.599e+03 6.652e-11
 31.61400     22.4 9.569e+03 6.645e-11
 31.65203     23.8 9.646e+03 7.326e-11
 31.67193     24.5 9.690e+03 7.244e-11
 31.69360     26.1 9.754e+03 9.099e-11
 31.73340     27.9 9.876e+03 1.227e-10
 31.77321     29.7 1.005e+04 1.668e-10
 31.81301     31.2 1.032e+04 2.318e-10
 31.85281     32.3 1.074e+04 3.633e-10
 31.87355     33.1 1.117e+04 6.162e-10
 31.89345     33.9 1.159e+04 9.279e-10
 31.93241     34.7 1.220e+04 1.541e-09
 31.97221     35.5 1.280e+04 2.022e-09
 32.01201     35.9 1.304e+04 2.029e-09
 32.05181     36.1 1.312e+04 1.758e-09
 32.07518     35.6 1.304e+04 1.348e-09
 32.08503     36.7 1.336e+04 1.886e-09
 32.10137     36.1 1.323e+04 1.749e-09
 32.12127     35.6 1.298e+04 1.759e-09
 32.14117     35.0 1.292e+04 1.796e-09
 32.16107     34.2 1.288e+04 1.929e-09
 32.17579     33.5 1.285e+04 2.051e-09
 32.18574     33.9 1.354e+04 2.723e-09
 32.20087     32.7 1.386e+04 3.016e-09
 32.22077     31.6 1.401e+04 3.333e-09
 32.24067     30.6 1.386e+04 3.298e-09
 32.26057     30.6 1.351e+04 3.033e-09
 32.27670     30.2 1.248e+04 1.870e-09
 32.28665     30.3 1.291e+04 2.422e-09
 32.30037     30.3 1.235e+04 1.670e-09
 32.33032     28.9 1.171e+04 8.235e-10
 32.37022     28.2 1.077e+04 3.913e-10
 32.41002     28.9 1.038e+04 3.636e-10
 32.44982     30.8 1.050e+04 4.307e-10
 32.47842     32.7 1.070e+04 5.930e-10
 32.48827     31.3 1.057e+04 6.156e-10
 32.49938     32.8 1.065e+04 7.500e-10
 32.51928     34.4 1.076e+04 8.757e-10
 32.53918     36.0 1.098e+04 9.725e-10
 32.55908     37.2 1.128e+04 1.061e-09
 32.57898     37.9 1.166e+04 1.173e-09
 32.59888     38.0 1.212e+04 1.436e-09
 32.61878     38.2 1.282e+04 1.835e-09
 32.63868     38.0 1.372e+04 2.456e-09
 32.65858     37.5 1.458e+04 3.296e-09
 32.67848     36.8 1.503e+04 4.298e-09
 32.68979     36.1 1.519e+04 5.164e-09
 32.69974     35.0 1.473e+04 5.455e-09
 32.71828     34.5 1.498e+04 6.464e-09
 32.73818     33.6 1.542e+04 7.497e-09
 32.75808     32.3 1.599e+04 8.982e-09
 32.77798     31.0 1.629e+04 1.020e-08
 32.79060     29.6 1.661e+04 1.140e-08
 32.80055     29.2 1.633e+04 1.026e-08
 32.81778     27.5 1.690e+04 1.105e-08
 32.83768     24.5 1.732e+04 1.078e-08
 32.85758     22.1 1.700e+04 9.161e-09
 32.87748     20.0 1.577e+04 6.609e-09
 32.89141     18.6 1.400e+04 4.232e-09
 32.90136     18.3 1.350e+04 3.479e-09
 32.91729     17.4 1.241e+04 2.474e-09
 32.93719     17.6 1.165e+04 1.791e-09
 32.96713     17.6 1.064e+04 9.126e-10
 33.00703     17.4 9.728e+03 4.275e-10
 33.04683     17.4 9.212e+03 2.595e-10
 33.08328     18.3 8.934e+03 2.196e-10
 33.10318     19.1 8.995e+03 2.558e-10
 33.12643     20.7 8.970e+03 2.591e-10
 33.16624     22.4 8.948e+03 2.563e-10
 33.20604     24.1 8.939e+03 2.636e-10
 33.24584     25.8 8.921e+03 2.673e-10
 33.28490     27.5 8.956e+03 2.632e-10
 33.30480     28.2 8.956e+03 2.440e-10
 33.32544     29.5 8.978e+03 2.445e-10
 33.35787     30.7 9.049e+03 2.679e-10
 33.37777     31.9 9.129e+03 3.192e-10
 33.40504     33.0 9.307e+03 3.642e-10
 33.44484     34.0 9.483e+03 4.257e-10
 33.48464     35.2 9.635e+03 4.456e-10
 33.50642     35.9 9.777e+03 4.549e-10
 33.52632     35.9 9.692e+03 4.951e-10
 33.55420     35.9 9.725e+03 4.808e-10
 33.57400     36.2 9.798e+03 4.978e-10
 33.59390     36.6 9.964e+03 5.506e-10
 33.60704     36.7 1.007e+04 6.092e-10
 33.61699     37.3 1.015e+04 6.072e-10
 33.63370     37.5 1.029e+04 6.227e-10
 33.65360     37.6 1.037e+04 6.254e-10
 33.67350     37.7 1.039e+04 6.165e-10
 33.69340     38.3 1.028e+04 5.711e-10
 33.70795     38.8 1.016e+04 5.105e-10
 33.72794     38.7 1.006e+04 4.181e-10
 33.76325     39.3 9.987e+03 3.642e-10
 33.80305     40.0 9.948e+03 2.881e-10
 33.84285     40.8 9.874e+03 2.344e-10
 33.88265     41.9 9.835e+03 2.297e-10
 33.90966     43.2 9.885e+03 2.392e-10
 33.92956     43.0 1.010e+04 2.883e-10
 33.96225     43.9 1.034e+04 3.471e-10
 34.00205     44.9 1.069e+04 5.137e-10
 34.04185     46.2 1.122e+04 8.540e-10
 34.08166     47.8 1.176e+04 1.275e-09
 34.11129     49.1 1.207e+04 1.378e-09
 34.13119     48.6 1.221e+04 1.527e-09
 34.16126     49.8 1.220e+04 1.501e-09
 34.20106     51.1 1.211e+04 1.346e-09
 34.24086     52.4 1.199e+04 1.113e-09
 34.28066     53.5 1.197e+04 9.353e-10
 34.31291     54.7 1.205e+04 9.336e-10
 34.33281     54.7 1.243e+04 1.173e-09
 34.36026     55.9 1.262e+04 1.220e-09
 34.40006     56.6 1.292e+04 1.347e-09
 34.42357     56.3 1.331e+04 1.673e-09
 34.43342     56.2 1.336e+04 1.684e-09
 34.44962     55.9 1.382e+04 2.180e-09
 34.46952     55.4 1.439e+04 3.016e-09
 34.48942     55.1 1.494e+04 4.317e-09
 34.50932     55.1 1.535e+04 5.668e-09
 34.52428     55.1 1.529e+04 6.000e-09
 34.53423     55.1 1.520e+04 6.010e-09
 34.54912     55.2 1.496e+04 5.541e-09
 34.56902     55.7 1.447e+04 4.470e-09
 34.58892     55.7 1.403e+04 3.529e-09
 34.60882     55.8 1.376e+04 2.961e-09
 34.63877     55.9 1.349e+04 2.394e-09
 34.67867     56.2 1.296e+04 1.811e-09
 34.71615     57.2 1.233e+04 1.210e-09
 34.73605     57.7 1.218e+04 1.138e-09
 34.75827     59.0 1.177e+04 7.817e-10
 34.79807     60.6 1.145e+04 5.513e-10
 34.83787     62.1 1.121e+04 4.133e-10
 34.87767     63.8 1.103e+04 3.554e-10
 34.91747     65.7 1.101e+04 3.556e-10
 34.93767     67.6 1.104e+04 3.711e-10
 34.95757     68.8 1.120e+04 4.405e-10
 34.99708     70.4 1.136e+04 4.782e-10
 35.03688     71.8 1.147e+04 5.437e-10
 35.06663     72.8 1.151e+04 6.207e-10
 35.08643     73.9 1.161e+04 7.091e-10
 35.10633     75.0 1.176e+04 8.134e-10
 35.12623     76.0 1.189e+04 8.920e-10
 35.13909     76.7 1.192e+04 9.066e-10
 35.14904     77.1 1.201e+04 9.605e-10
 35.16603     77.6 1.200e+04 9.548e-10
 35.18593     78.1 1.192e+04 9.173e-10
 35.20584     78.6 1.179e+04 8.477e-10
 35.22574     79.2 1.168e+04 7.438e-10
 35.23991     79.8 1.157e+04 6.469e-10
 35.24986     80.2 1.166e+04 6.344e-10
 35.27558     80.5 1.151e+04 5.300e-10
 35.31548     81.6 1.143e+04 4.320e-10
 35.34091     82.5 1.139e+04 3.670e-10
 35.36081     82.8 1.153e+04 3.771e-10
 35.39508     83.8 1.156e+04 3.970e-10
 35.43489     84.8 1.168e+04 4.602e-10
 35.47469     85.5 1.170e+04 5.275e-10
 35.50444     86.0 1.164e+04 5.659e-10
 35.52424     86.9 1.152e+04 6.072e-10
 35.54234     88.1 1.140e+04 6.524e-10
 35.55229     88.8 1.173e+04 7.535e-10
 35.56404     89.2 1.187e+04 7.970e-10
 35.58394     88.8 1.240e+04 9.235e-10
 35.60384     86.5 1.396e+04 1.456e-09
 35.62374     83.3 1.534e+04 3.212e-09
 35.64315     82.7 1.627e+04 7.332e-09
 35.65310     82.9 1.679e+04 1.026e-08
 35.66355     83.2 1.724e+04 1.145e-08
 35.68345     83.1 1.726e+04 1.049e-08
 35.70335     82.4 1.724e+04 7.224e-09
 35.72325     79.8 1.653e+04 3.983e-09
 35.74315     76.2 1.465e+04 2.343e-09
 35.75391     74.3 1.311e+04 2.070e-09
 35.76386     74.6 1.293e+04 1.868e-09
 35.78295     75.0 1.291e+04 1.880e-09
 35.80285     75.5 1.291e+04 1.950e-09
 35.82275     76.2 1.299e+04 2.073e-09
 35.84265     76.7 1.308e+04 2.243e-09
 35.85472     77.3 1.326e+04 2.490e-09
 35.86467     77.3 1.323e+04 2.203e-09
 35.88245     77.6 1.350e+04 2.596e-09
 35.90235     77.8 1.372e+04 3.015e-09
 35.92225     77.8 1.396e+04 3.324e-09
 35.94215     77.8 1.418e+04 3.521e-09
 35.95553     77.5 1.427e+04 3.497e-09
 35.96548     77.2 1.460e+04 3.683e-09
 35.98195     76.5 1.454e+04 3.565e-09
 36.00185     76.1 1.423e+04 3.181e-09
 36.02175     75.6 1.376e+04 2.561e-09
 36.04165     75.3 1.331e+04 2.051e-09
 36.07160     74.7 1.287e+04 1.535e-09
 36.11150     75.0 1.228e+04 9.794e-10
 36.14739     75.6 1.176e+04 5.764e-10
 36.16730     74.2 1.169e+04 7.489e-10
 36.19110     75.4 1.117e+04 5.213e-10
 36.23090     76.8 1.081e+04 3.859e-10
 36.27070     78.6 1.059e+04 3.123e-10
 36.29219     80.4 1.044e+04 2.753e-10
 36.31209     79.9 1.048e+04 2.795e-10
 36.34902     81.9 1.037e+04 2.558e-10
 36.36892     81.7 1.031e+04 2.318e-10
 36.39011     83.8 1.023e+04 2.005e-10
 36.42991     85.8 1.018e+04 1.744e-10
 36.46971     87.7 1.012e+04 1.538e-10
 36.50951     89.6 9.969e+03 1.477e-10
 36.54931     91.5 9.928e+03 1.491e-10
 36.57054     93.5 9.871e+03 1.558e-10
 36.59044     93.5 9.727e+03 1.546e-10
 36.62891     95.5 9.712e+03 1.661e-10
 36.66871     97.5 9.712e+03 1.662e-10
 36.70851     99.4 9.698e+03 1.620e-10
 36.74831    101.4 9.671e+03 1.474e-10
 36.77216    103.2 9.642e+03 1.267e-10
 36.79206    103.2 9.527e+03 1.129e-10
 36.82792    105.0 9.457e+03 1.009e-10
 36.86772    106.8 9.423e+03 1.002e-10
 36.90752    108.7 9.415e+03 1.021e-10
 36.94732    110.6 9.407e+03 1.118e-10
 36.97378    112.6 9.446e+03 1.344e-10
 36.99368    112.7 9.426e+03 1.377e-10
 37.02692    114.7 9.547e+03 1.773e-10
 37.06672    116.5 9.736e+03 2.372e-10
 37.10652    118.2 9.984e+03 3.216e-10
 37.14632    119.7 1.026e+04 4.325e-10
 37.17540    120.9 1.054e+04 5.655e-10
 37.19530    120.6 1.052e+04 5.571e-10
 37.22592    121.5 1.073e+04 6.795e-10
 37.26573    122.3 1.090e+04 7.601e-10
 37.30553    122.9 1.097e+04 7.653e-10
 37.34533    123.5 1.096e+04 7.409e-10
 37.37702    124.2 1.088e+04 6.617e-10
 37.39692    124.1 1.058e+04 5.538e-10
 37.42493    125.0 1.052e+04 5.166e-10
 37.46473    126.1 1.042e+04 4.583e-10
 37.50453    127.3 1.031e+04 3.826e-10
 37.54433    128.8 1.020e+04 2.988e-10
 37.57864    130.3 1.010e+04 2.225e-10
 37.59854    130.5 1.009e+04 2.767e-10
 37.62393    132.0 9.996e+03 1.939e-10
 37.66373    133.6 9.980e+03 1.321e-10
 37.70353    135.0 9.953e+03 9.510e-11
 37.74334    136.4 9.800e+03 8.450e-11
 37.78026    138.0 9.770e+03 8.425e-11
 37.80016    137.8 9.775e+03 8.326e-11
 37.82294    139.5 9.774e+03 8.368e-11
 37.86274    141.2 9.792e+03 8.623e-11
 37.90254    142.7 9.866e+03 9.258e-11
 37.94234    144.2 9.973e+03 1.028e-10
 37.98188    145.6 1.007e+04 1.173e-10
 38.00178    145.4 1.005e+04 1.428e-10
 38.02194    146.8 1.015e+04 1.749e-10
 38.06174    148.3 1.027e+04 2.125e-10
 38.10154    149.9 1.045e+04 2.478e-10
 38.14134    151.5 1.065e+04 2.627e-10
 38.18115    152.9 1.069e+04 2.609e-10
 38.20340    154.4 1.073e+04 2.498e-10
 38.22330    154.4 1.081e+04 2.550e-10
 38.26075    155.9 1.084e+04 2.108e-10
 38.30055    157.4 1.082e+04 1.686e-10
 38.34035    158.9 1.078e+04 1.347e-10
 38.38015    160.4 1.072e+04 1.108e-10
 38.40503    161.9 1.064e+04 9.601e-11
 38.42493    161.8 1.061e+04 8.230e-11
 38.45975    163.4 1.033e+04 7.919e-11
 38.49955    165.2 1.015e+04 7.995e-11
 38.53935    167.1 1.014e+04 8.027e-11
 38.57915    169.0 1.015e+04 8.154e-11
 38.60665    170.9 1.018e+04 8.653e-11
 38.62655    171.0 1.019e+04 8.729e-11
 38.65876    172.8 1.021e+04 1.002e-10
 38.69856    174.5 1.022e+04 1.202e-10
 38.73836    176.1 1.023e+04 1.487e-10
 38.77816    177.6 1.026e+04 1.866e-10
 38.80827    179.1 1.031e+04 2.327e-10
 38.82817    179.1 1.023e+04 2.340e-10
 38.85776    180.5 1.030e+04 2.766e-10
 38.89756    181.8 1.039e+04 3.070e-10
 38.93736    182.9 1.040e+04 3.069e-10
 38.97716    183.9 1.039e+04 2.955e-10
 39.00989    184.9 1.033e+04 2.728e-10
 39.02979    184.5 1.033e+04 2.625e-10
 39.05676    185.2 1.033e+04 2.642e-10
 39.09657    185.8 1.044e+04 2.813e-10
 39.13637    186.3 1.069e+04 3.529e-10
 39.17617    186.3 1.085e+04 4.433e-10
 39.20592    186.3 1.096e+04 6.230e-10
 39.21636    186.5 1.105e+04 8.240e-10
 39.22185    187.2 1.091e+04 6.425e-10
 39.23121    186.4 1.107e+04 8.754e-10
 39.24562    186.9 1.124e+04 1.068e-09
 39.26552    187.4 1.148e+04 1.245e-09
 39.28542    188.0 1.177e+04 1.404e-09
 39.30532    188.4 1.209e+04 1.540e-09
 39.32207    188.7 1.236e+04 1.659e-09
 39.33202    187.8 1.248e+04 1.614e-09
 39.34513    187.6 1.251e+04 1.612e-09
 39.36503    187.3 1.250e+04 1.597e-09
 39.38493    186.9 1.243e+04 1.535e-09
 39.40483    186.6 1.228e+04 1.420e-09
 39.42288    186.4 1.208e+04 1.270e-09
 39.43284    185.1 1.188e+04 1.107e-09
 39.44463    184.7 1.165e+04 9.479e-10
 39.46453    184.3 1.143e+04 7.963e-10
 39.48443    183.5 1.120e+04 6.398e-10
 39.50433    182.8 1.103e+04 5.573e-10
 39.53428    182.5 1.080e+04 4.775e-10
 39.57418    182.4 1.054e+04 4.068e-10
 39.61398    182.6 1.040e+04 3.842e-10
 39.63465    183.0 1.041e+04 3.859e-10
 39.65455    181.8 1.031e+04 3.874e-10
 39.69358    182.4 1.042e+04 4.146e-10
 39.73338    183.1 1.062e+04 4.683e-10
 39.77318    184.0 1.082e+04 5.347e-10
 39.81298    185.3 1.113e+04 6.491e-10
 39.83617    185.5 1.129e+04 7.360e-10
 39.84603    184.8 1.129e+04 7.354e-10
 39.86254    185.1 1.143e+04 8.104e-10
 39.88244    185.2 1.158e+04 8.910e-10
 39.90234    185.0 1.174e+04 1.001e-09
 39.92224    184.6 1.204e+04 1.176e-09
 39.93689    184.0 1.238e+04 1.506e-09
 39.94684    182.9 1.259e+04 1.765e-09
 39.96204    182.5 1.300e+04 2.376e-09
 39.98194    182.3 1.339e+04 3.001e-09
 40.00184    182.1 1.357e+04 3.185e-09
 40.02174    181.8 1.353e+04 3.121e-09
 40.03770    181.7 1.331e+04 2.796e-09
 40.04765    181.2 1.288e+04 2.166e-09
 40.06154    181.3 1.244e+04 1.574e-09
 40.08144    181.0 1.205e+04 1.057e-09
 40.10134    180.4 1.165e+04 7.119e-10
 40.12124    179.6 1.118e+04 5.457e-10
 40.13851    179.1 1.078e+04 5.190e-10
 40.14846    178.1 1.073e+04 5.148e-10
 40.16104    178.2 1.072e+04 5.184e-10
 40.18094    178.5 1.075e+04 5.477e-10
 40.20084    178.8 1.088e+04 6.326e-10
 40.22074    179.2 1.107e+04 7.669e-10
 40.23932    179.5 1.130e+04 9.449e-10
 40.24927    178.8 1.151e+04 1.191e-09
 40.26055    179.1 1.177e+04 1.437e-09
 40.28045    179.3 1.203e+04 1.691e-09
 40.30035    179.5 1.227e+04 1.945e-09
 40.32025    179.6 1.253e+04 2.142e-09
 40.34013    179.5 1.268e+04 2.332e-09
 40.36003    178.0 1.292e+04 2.105e-09
 40.37995    177.4 1.295e+04 1.969e-09
 40.39985    176.8 1.291e+04 1.743e-09
 40.41975    176.3 1.282e+04 1.547e-09
 40.43965    175.5 1.264e+04 1.322e-09
 40.45089    174.5 1.229e+04 1.114e-09
 40.46094    173.7 1.207e+04 1.036e-09
 40.48960    172.7 1.162e+04 8.673e-10
 40.52940    172.3 1.127e+04 7.247e-10
 40.56920    172.1 1.108e+04 5.973e-10
 40.60900    171.9 1.095e+04 4.919e-10
 40.64276    171.9 1.086e+04 4.241e-10
 40.66266    171.4 1.076e+04 3.860e-10
 40.68860    171.7 1.069e+04 3.724e-10
 40.72840    172.2 1.070e+04 3.801e-10
 40.76820    172.9 1.078e+04 4.144e-10
 40.80800    173.4 1.091e+04 4.753e-10
 40.83776    173.3 1.103e+04 5.589e-10
 40.85413    173.3 1.127e+04 7.447e-10
 40.86408    172.9 1.137e+04 7.984e-10
 40.87746    173.0 1.180e+04 1.194e-09
 40.89736    173.0 1.236e+04 1.761e-09
 40.91726    173.1 1.295e+04 2.497e-09
 40.93716    173.0 1.354e+04 3.343e-09
 40.95494    172.9 1.408e+04 4.064e-09
 40.96489    172.6 1.401e+04 3.746e-09
 40.97696    172.0 1.422e+04 3.794e-09
 40.99686    171.1 1.422e+04 3.716e-09
 41.01676    170.3 1.412e+04 3.315e-09
 41.03666    169.6 1.384e+04 2.712e-09
 41.05575    168.9 1.347e+04 2.121e-09
 41.06570    168.4 1.323e+04 1.793e-09
 41.07646    168.0 1.286e+04 1.439e-09
 41.09636    167.7 1.258e+04 1.204e-09
 41.11626    167.5 1.239e+04 1.066e-09
 41.13616    167.4 1.226e+04 9.881e-10
 41.15607    167.4 1.218e+04 9.457e-10
 41.16651    167.6 1.211e+04 9.243e-10
 41.17646    167.5 1.204e+04 8.362e-10
 41.19587    167.8 1.200e+04 8.372e-10
 41.21577    168.2 1.198e+04 8.396e-10
 41.23567    168.6 1.196e+04 8.434e-10
 41.25557    169.1 1.197e+04 8.456e-10
 41.26732    169.6 1.200e+04 8.495e-10
 41.27727    169.5 1.198e+04 7.668e-10
 41.29537    170.1 1.199e+04 7.686e-10
 41.31527    170.6 1.201e+04 7.778e-10
 41.33517    171.2 1.204e+04 8.014e-10
 41.35507    171.8 1.209e+04 8.438e-10
 41.36813    172.3 1.218e+04 9.061e-10
 41.37808    172.3 1.210e+04 8.397e-10
 41.39487    172.8 1.221e+04 9.465e-10
 41.41477    173.3 1.234e+04 1.073e-09
 41.43467    173.7 1.245e+04 1.194e-09
 41.45457    174.0 1.257e+04 1.238e-09
 41.46894    174.3 1.258e+04 1.238e-09
 41.47889    174.3 1.274e+04 1.358e-09
 41.49437    174.5 1.275e+04 1.346e-09
 41.51427    174.6 1.272e+04 1.291e-09
 41.53417    174.8 1.267e+04 1.227e-09
 41.55407    175.0 1.267e+04 1.216e-09
 41.56976    175.1 1.271e+04 1.237e-09
 41.57971    174.9 1.293e+04 1.532e-09
 41.59387    174.8 1.314e+04 1.725e-09
 41.61378    174.5 1.353e+04 2.225e-09
 41.63368    174.4 1.420e+04 3.278e-09
 41.65358    174.4 1.505e+04 5.181e-09
 41.67057    175.0 1.588e+04 7.773e-09
 41.68052    174.7 1.609e+04 9.340e-09
 41.68835    174.7 1.642e+04 1.063e-08
 41.69825    174.7 1.680e+04 1.202e-08
 41.70820    174.6 1.725e+04 1.407e-08
 41.71815    174.4 1.758e+04 1.624e-08
 41.72585    174.4 1.784e+04 1.813e-08
 41.73082    174.0 1.772e+04 1.804e-08
 41.73806    173.8 1.789e+04 1.915e-08
 41.74801    173.5 1.810e+04 2.015e-08
 41.75796    172.9 1.844e+04 2.128e-08
 41.76791    171.9 1.893e+04 2.286e-08
 41.77625    170.1 1.959e+04 2.516e-08
 41.78123    169.1 1.922e+04 2.126e-08
 41.78781    166.4 1.989e+04 2.261e-08
 41.79776    163.1 2.043e+04 2.380e-08
 41.80771    159.1 2.098e+04 2.498e-08
 41.81766    154.8 2.135e+04 2.519e-08
 41.83263    148.3 2.188e+04 2.377e-08
 41.85258    141.5 2.170e+04 1.708e-08
 41.87219    136.7 1.986e+04 8.198e-09
 41.88214    138.1 1.858e+04 9.339e-09
 41.89238    135.4 1.667e+04 4.343e-09
 41.91228    134.3 1.498e+04 1.859e-09
 41.93218    132.8 1.327e+04 7.429e-10
 41.96213    132.1 1.239e+04 2.725e-10
 42.00203    132.2 1.142e+04 1.967e-10
 42.04183    133.3 1.121e+04 1.850e-10
 42.07400    135.6 1.118e+04 1.829e-10
 42.09390    136.1 1.120e+04 1.788e-10
 42.12102    138.3 1.119e+04 1.791e-10
 42.14092    137.8 1.121e+04 1.827e-10
 42.16123    140.0 1.120e+04 1.917e-10
 42.20103    142.2 1.126e+04 2.303e-10
 42.24083    144.3 1.151e+04 3.206e-10
 42.27562    145.7 1.177e+04 4.396e-10
 42.29543    145.7 1.184e+04 5.033e-10
 42.31029    146.1 1.202e+04 6.229e-10
 42.33019    146.6 1.232e+04 8.713e-10
 42.35009    147.0 1.267e+04 1.249e-09
 42.36999    147.2 1.307e+04 1.757e-09
 42.38619    147.4 1.347e+04 2.349e-09
 42.39614    147.5 1.344e+04 2.552e-09
 42.40979    147.5 1.388e+04 3.128e-09
 42.42969    147.3 1.423e+04 3.358e-09
 42.44959    146.7 1.428e+04 3.334e-09
 42.46949    145.8 1.422e+04 3.180e-09
 42.48700    145.1 1.404e+04 2.956e-09
 42.49695    145.3 1.380e+04 2.775e-09
 42.51934    144.0 1.336e+04 2.201e-09
 42.55924    142.9 1.280e+04 1.550e-09
 42.59904    142.1 1.229e+04 1.055e-09
 42.63884    141.8 1.207e+04 8.777e-10
 42.67864    141.7 1.205e+04 8.183e-10
 42.69867    141.7 1.201e+04 7.673e-10
 42.70852    142.0 1.222e+04 8.308e-10
 42.72820    142.1 1.222e+04 7.936e-10
 42.74810    142.3 1.221e+04 7.616e-10
 42.76800    142.7 1.219e+04 7.507e-10
 42.78790    143.1 1.220e+04 7.514e-10
 42.79938    143.3 1.231e+04 7.717e-10
 42.80933    143.2 1.280e+04 8.826e-10
 42.82770    142.6 1.345e+04 1.038e-09
 42.84760    140.8 1.473e+04 1.749e-09
 42.86750    138.7 1.596e+04 3.699e-09
 42.88740    137.7 1.715e+04 8.052e-09
 42.90019    137.5 1.837e+04 1.633e-08
 42.91014    137.3 1.915e+04 2.394e-08
 42.92720    136.4 1.976e+04 2.812e-08
 42.94710    134.7 1.970e+04 2.643e-08
 42.96700    133.0 1.931e+04 2.068e-08
 42.98691    130.8 1.860e+04 1.387e-08
 43.00100    127.7 1.778e+04 9.959e-09
 43.01095    126.0 1.770e+04 9.402e-09
 43.02671    123.3 1.719e+04 8.741e-09
 43.04661    121.4 1.698e+04 8.245e-09
 43.06651    119.9 1.669e+04 7.283e-09
 43.08641    118.6 1.614e+04 5.717e-09
 43.10181    117.3 1.530e+04 3.997e-09
 43.11176    116.7 1.517e+04 3.658e-09
 43.12621    115.4 1.407e+04 2.394e-09
 43.15616    113.6 1.285e+04 1.511e-09
 43.19605    112.3 1.187e+04 9.562e-10
 43.23586    111.7 1.124e+04 6.515e-10
 43.27566    111.6 1.084e+04 5.040e-10
 43.30363    111.7 1.048e+04 4.610e-10
 43.32353    111.6 1.047e+04 4.869e-10
 43.35526    112.1 1.046e+04 4.851e-10
 43.39506    112.9 1.043e+04 4.924e-10
 43.43486    113.6 1.041e+04 4.994e-10
 43.47466    114.2 1.038e+04 4.892e-10
 43.50525    114.7 1.023e+04 4.415e-10
 43.52515    114.3 1.016e+04 4.268e-10
 43.55426    115.0 9.865e+03 3.083e-10
 43.59406    115.7 9.546e+03 1.963e-10
 43.63386    116.3 9.226e+03 1.225e-10
 43.67367    116.8 8.961e+03 8.630e-11
 43.70687    117.3 8.806e+03 6.979e-11
 43.72677    117.2 8.701e+03 6.078e-11
 43.75327    118.2 8.707e+03 6.018e-11
 43.79307    119.4 8.734e+03 6.047e-11
 43.83287    120.6 8.876e+03 6.307e-11
 43.87267    121.6 8.982e+03 7.394e-11
 43.90849    122.7 9.045e+03 9.764e-11
 43.92839    122.7 9.045e+03 1.083e-10
 43.95227    123.9 9.271e+03 1.652e-10
 43.99207    125.0 9.724e+03 2.619e-10
 44.03187    125.4 1.022e+04 3.878e-10
 44.06163    125.0 1.052e+04 4.777e-10
 44.08143    124.4 1.088e+04 6.190e-10
 44.10133    123.9 1.121e+04 7.951e-10
 44.11987    123.4 1.146e+04 8.717e-10
 44.12982    122.6 1.129e+04 7.743e-10
 44.15118    122.0 1.126e+04 7.393e-10
 44.19108    121.4 1.106e+04 6.069e-10
 44.23088    120.7 1.058e+04 4.383e-10
 44.27068    119.5 1.031e+04 3.403e-10
 44.31048    118.2 1.038e+04 3.240e-10
 44.33163    117.1 1.044e+04 3.222e-10
 44.35153    117.2 1.034e+04 3.133e-10
 44.39008    116.2 1.045e+04 3.108e-10
 44.42988    115.2 1.058e+04 3.082e-10
 44.46968    114.2 1.071e+04 3.069e-10
 44.50948    113.1 1.082e+04 3.101e-10
 44.53325    112.1 1.088e+04 3.206e-10
 44.55316    113.1 1.093e+04 3.230e-10
 44.58909    112.1 1.112e+04 3.633e-10
 44.62889    111.0 1.131e+04 4.106e-10
 44.66869    109.6 1.147e+04 4.434e-10
 44.70849    107.6 1.158e+04 4.649e-10
 44.73488    105.0 1.173e+04 5.081e-10
 44.75478    106.2 1.180e+04 4.770e-10
 44.78809    103.0 1.192e+04 4.910e-10
 44.82789     99.6 1.218e+04 6.084e-10
 44.86769     96.6 1.238e+04 8.309e-10
 44.90749     94.0 1.238e+04 9.256e-10
 44.93650     91.6 1.229e+04 8.851e-10
 44.95640     92.1 1.224e+04 8.274e-10
 44.98709     89.9 1.196e+04 7.179e-10
 45.02689     87.7 1.149e+04 5.334e-10
 45.05533     85.6 1.091e+04 3.963e-10
 45.07523     86.4 1.064e+04 2.497e-10
 45.10650     84.5 1.013e+04 1.957e-10
 45.13812     83.5 9.776e+03 1.716e-10
 45.15802     84.1 9.825e+03 1.294e-10
 45.18610     83.6 9.594e+03 1.042e-10
 45.22590     83.3 9.547e+03 9.133e-11
 45.26570     83.1 9.568e+03 9.176e-11
 45.30550     82.7 9.635e+03 9.999e-11
 45.33974     82.1 9.768e+03 1.358e-10
 45.35964     82.4 9.761e+03 1.258e-10
 45.38510     82.2 9.803e+03 1.909e-10
 45.42490     82.1 9.823e+03 2.473e-10
 45.46470     81.9 9.796e+03 2.493e-10
 45.50451     81.6 9.695e+03 2.335e-10
 45.54136     81.1 9.501e+03 2.098e-10
 45.56126     81.3 9.451e+03 1.768e-10
 45.58411     80.4 9.455e+03 1.811e-10
 45.62391     79.1 9.507e+03 2.161e-10
 45.66371     77.7 9.756e+03 3.115e-10
 45.70351     76.7 9.937e+03 4.262e-10
 45.74298     75.8 9.918e+03 4.505e-10
 45.76288     75.7 9.918e+03 4.402e-10
 45.78311     75.2 9.686e+03 3.945e-10
 45.82291     75.1 9.319e+03 3.103e-10
 45.86271     75.0 8.915e+03 2.270e-10
 45.90251     75.1 8.546e+03 1.673e-10
 45.94231     75.5 8.258e+03 1.302e-10
 45.96450     76.1 8.045e+03 1.071e-10
 45.98440     76.4 8.103e+03 1.090e-10
 46.02192     77.4 7.918e+03 8.944e-11
 46.06172     78.4 7.764e+03 7.521e-11
 46.10152     79.5 7.626e+03 6.632e-11
 46.14132     80.7 7.517e+03 6.362e-11
 46.16612     82.0 7.509e+03 6.368e-11
 46.18602     82.2 7.489e+03 5.741e-11
 46.22092     83.6 7.488e+03 5.814e-11
 46.26072     84.9 7.502e+03 6.163e-11
 46.30052     86.1 7.560e+03 6.905e-11
 46.34032     87.3 7.660e+03 7.968e-11
 46.36774     88.4 7.784e+03 9.188e-11
 46.38764     88.8 7.798e+03 8.546e-11
 46.41993     89.7 7.966e+03 9.828e-11
 46.45973     90.3 8.119e+03 1.097e-10
 46.49953     90.6 8.316e+03 1.204e-10
 46.53933     90.6 8.491e+03 1.350e-10
 46.56936     90.5 8.653e+03 1.557e-10
 46.58926     90.6 8.774e+03 1.701e-10
 46.61893     90.5 8.885e+03 1.857e-10
 46.65873     90.3 9.007e+03 2.014e-10
 46.69853     89.9 9.185e+03 2.228e-10
 46.73833     89.1 9.414e+03 2.443e-10
 46.77099     87.8 9.742e+03 2.631e-10
 46.79089     87.9 9.578e+03 1.958e-10
 46.81793     85.6 1.020e+04 2.550e-10
 46.84769     84.3 1.050e+04 3.059e-10
 46.86749     83.2 1.072e+04 3.603e-10
 46.88155     82.2 1.091e+04 4.284e-10
 46.89150     82.6 1.082e+04 4.150e-10
 46.90729     81.4 1.114e+04 5.225e-10
 46.92719     79.9 1.148e+04 6.613e-10
 46.94709     78.4 1.182e+04 8.177e-10
 46.96699     76.6 1.210e+04 9.724e-10
 46.98236     74.4 1.247e+04 1.134e-09
 46.99231     75.1 1.233e+04 1.129e-09
 47.00679     72.3 1.271e+04 1.266e-09
 47.02669     68.8 1.310e+04 1.534e-09
 47.04659     65.8 1.317e+04 1.858e-09
 47.06649     63.3 1.314e+04 2.167e-09
 47.08317     61.3 1.307e+04 2.314e-09
 47.09312     61.7 1.313e+04 2.273e-09
 47.10629     59.7 1.315e+04 2.392e-09
 47.12620     57.2 1.333e+04 2.337e-09
 47.14610     53.6 1.363e+04 2.332e-09
 47.16600     49.3 1.379e+04 2.382e-09
 47.18398     45.6 1.360e+04 2.332e-09
 47.19393     45.4 1.462e+04 3.459e-09
 47.20580     42.7 1.387e+04 3.059e-09
 47.22570     40.8 1.288e+04 2.269e-09
 47.24560     39.3 1.187e+04 1.459e-09
 47.26550     37.6 1.096e+04 9.129e-10
 47.29545     34.4 9.960e+03 4.672e-10
 47.33535     30.3 9.485e+03 3.610e-10
 47.37515     26.4 9.830e+03 4.465e-10
 47.39575     23.3 1.047e+04 7.291e-10
 47.41565     24.3 9.928e+03 5.187e-10
 47.45475     22.4 1.022e+04 6.280e-10
 47.49455     21.3 1.008e+04 5.702e-10
 47.53435     21.2 9.789e+03 3.905e-10
 47.57415     21.2 9.598e+03 2.188e-10
 47.59737     20.9 9.580e+03 1.214e-10
 47.61727     22.5 9.466e+03 1.234e-10
 47.65375     22.3 9.641e+03 1.203e-10
 47.69355     20.9 1.010e+04 1.729e-10
 47.73335     19.2 1.107e+04 5.117e-10
 47.76311     18.9 1.168e+04 8.346e-10
 47.78291     19.1 1.192e+04 9.895e-10
 47.79879     18.8 1.206e+04 9.558e-10
 47.81879     19.7 1.242e+04 1.157e-09
 47.85276     18.8 1.235e+04 7.187e-10
 47.89256     17.0 1.188e+04 4.060e-10
 47.93236     15.2 1.140e+04 2.679e-10
 47.96975     14.8 1.128e+04 2.506e-10
 47.98965     15.0 1.119e+04 2.594e-10
 48.00061     14.2 1.134e+04 2.826e-10
 48.02051     15.0 1.140e+04 3.420e-10
 48.05176     14.6 1.147e+04 3.635e-10
 48.09156     13.8 1.165e+04 4.773e-10
 48.13136     12.7 1.185e+04 8.097e-10
 48.17116     12.2 1.165e+04 8.517e-10
 48.20223     12.8 1.119e+04 6.411e-10
 48.22213     13.4 1.125e+04 7.037e-10
 48.25077     13.4 1.084e+04 4.311e-10
 48.29057     12.3 1.049e+04 2.800e-10
 48.33037     11.8 1.021e+04 2.079e-10
 48.37017     10.9 1.051e+04 2.382e-10
 48.40385      6.8 1.171e+04 5.809e-10
 48.42375      7.8 1.180e+04 7.375e-10
 48.44977      6.5 1.199e+04 1.546e-09
 48.48957      8.2 1.161e+04 9.965e-10
 48.52937      6.8 1.156e+04 3.479e-10
 48.56917      3.3 1.035e+04 1.476e-10
 48.60547      2.8 9.729e+03 9.645e-11
 48.62537      3.8 9.676e+03 1.072e-10
 48.64877      4.6 9.543e+03 8.281e-11
 48.68857      5.6 9.615e+03 6.842e-11
 48.72838      6.8 9.450e+03 6.065e-11
 48.76818      8.5 9.315e+03 5.044e-11
 48.80709     10.0 9.468e+03 3.847e-11
 48.82700     10.8 9.473e+03 4.394e-11
 48.84778     12.0 9.517e+03 3.851e-11
 48.88758     13.3 9.429e+03 3.700e-11
 48.92738     14.8 9.422e+03 3.748e-11
 48.96718     16.1 9.485e+03 4.003e-11
 49.00698     17.3 9.489e+03 4.841e-11
 49.02862     18.7 9.409e+03 6.354e-11
 49.04852     20.0 9.299e+03 7.293e-11
 49.08658     21.7 9.305e+03 8.216e-11
 49.12638     23.4 9.353e+03 8.726e-11
 49.16619     24.9 9.430e+03 9.163e-11
 49.20599     26.2 9.499e+03 9.765e-11
 49.23024     27.7 9.526e+03 1.036e-10
 49.25014     28.6 9.445e+03 1.027e-10
 49.28559     30.1 9.459e+03 1.190e-10
 49.32539     31.7 9.459e+03 1.279e-10
 49.36519     33.4 9.482e+03 1.248e-10
 49.40499     35.1 9.572e+03 1.073e-10
 49.43186     36.3 9.743e+03 8.251e-11
 49.45176     37.3 9.664e+03 1.391e-10
 49.48459     38.5 9.814e+03 1.154e-10
 49.52439     39.4 9.903e+03 9.392e-11
 49.56419     40.3 9.861e+03 7.894e-11
 49.60399     41.3 9.752e+03 6.667e-11
 49.63348     42.5 9.690e+03 5.389e-11
 49.65338     43.6 9.800e+03 5.819e-11
 49.68360     44.3 9.796e+03 4.100e-11
 49.72340     44.7 9.838e+03 3.180e-11
 49.76320     45.2 9.798e+03 3.126e-11
 49.80300     45.8 9.795e+03 3.227e-11
 49.83510     46.3 9.844e+03 3.691e-11
 49.85500     47.2 9.740e+03 4.101e-11
 49.88260     47.7 9.840e+03 5.511e-11
 49.92240     48.3 9.909e+03 8.093e-11
 49.96220     49.2 1.006e+04 1.128e-10
 50.00200     49.9 1.033e+04 1.232e-10
 50.03672     50.5 1.037e+04 1.187e-10
 50.05662     51.3 1.039e+04 1.428e-10
 50.08161     52.1 1.049e+04 1.193e-10
 50.12141     52.8 1.066e+04 8.195e-11
 50.16121     53.1 1.084e+04 5.373e-11
 50.20101     53.4 1.073e+04 4.733e-11
 50.23834     53.9 1.072e+04 4.899e-11
 50.25824     54.5 1.080e+04 5.915e-11
 50.28061     54.9 1.085e+04 7.193e-11
 50.32041     55.4 1.083e+04 1.125e-10
 50.36021     56.2 1.086e+04 1.854e-10
 50.40001     56.9 1.100e+04 2.689e-10
 50.43981     57.2 1.121e+04 3.144e-10
 50.47961     57.5 1.155e+04 3.626e-10
 50.51941     57.1 1.164e+04 3.735e-10
 50.55922     56.5 1.177e+04 4.010e-10
 50.59902     55.6 1.176e+04 3.985e-10
 50.63882     55.7 1.151e+04 3.475e-10
 50.66148     55.9 1.121e+04 2.221e-10
 50.68138     56.5 1.131e+04 2.336e-10
 50.71842     56.5 1.119e+04 1.257e-10
 50.75822     55.7 1.096e+04 7.974e-11
 50.79802     55.6 1.067e+04 7.592e-11
 50.83782     56.0 1.062e+04 7.668e-11
 50.86310     56.9 1.059e+04 7.950e-11
 50.88301     57.5 1.056e+04 8.209e-11
 50.90406     58.5 1.059e+04 8.202e-11
 50.92396     58.0 1.051e+04 7.944e-11
 50.95722     59.1 1.055e+04 6.951e-11
 50.99703     60.1 1.065e+04 6.004e-11
 51.03683     60.9 1.065e+04 6.150e-11
 51.06473     61.9 1.057e+04 7.299e-11
 51.08463     62.8 1.063e+04 6.279e-11
 51.11643     64.0 1.069e+04 9.228e-11
 51.15623     64.7 1.106e+04 1.893e-10
 51.19603     64.2 1.139e+04 3.489e-10
 51.22578     64.1 1.183e+04 8.304e-10
 51.24559     64.6 1.219e+04 1.255e-09
 51.26549     64.7 1.261e+04 1.489e-09
 51.27610     64.0 1.319e+04 1.621e-09
 51.28605     64.3 1.328e+04 1.818e-09
 51.30529     61.9 1.422e+04 2.110e-09
 51.32519     57.6 1.500e+04 2.717e-09
 51.34509     52.5 1.583e+04 3.892e-09
 51.36499     47.7 1.639e+04 4.556e-09
 51.37691     44.1 1.603e+04 3.898e-09
 51.38686     45.0 1.550e+04 3.093e-09
 51.40479     40.9 1.453e+04 1.923e-09
 51.43474     34.5 1.301e+04 7.287e-10
 51.46797     27.1 1.055e+04 2.501e-10
 51.48787     27.3 1.057e+04 2.814e-10
 51.51444     24.4 1.000e+04 1.813e-10
 51.55424     23.6 9.892e+03 1.737e-10
 51.59404     23.0 9.930e+03 1.782e-10
 51.63384     22.1 1.001e+04 2.000e-10
 51.66959     21.2 1.007e+04 2.417e-10
 51.68949     21.6 1.007e+04 2.495e-10
 51.71344     20.9 1.001e+04 2.435e-10
 51.75324     20.5 9.884e+03 2.126e-10
 51.79304     19.7 9.814e+03 1.675e-10
 51.83284     18.6 9.727e+03 1.610e-10
 51.87121     16.6 9.808e+03 2.016e-10
 51.89111     17.0 9.772e+03 1.759e-10
 51.91245     15.1 1.009e+04 3.380e-10
 51.94220     12.6 1.081e+04 5.574e-10
 51.96200     10.3 1.138e+04 8.005e-10
 51.98177      9.6 1.103e+04 1.075e-09
 51.99172     10.1 1.090e+04 1.186e-09
 52.00180     10.4 1.071e+04 1.105e-09
 52.02170     10.6 1.053e+04 9.176e-10
 52.04160      9.7 1.060e+04 6.650e-10
 52.06150      7.0 1.022e+04 3.947e-10
 52.08140      6.5 9.967e+03 3.708e-10
 52.09263      4.4 9.446e+03 2.904e-10
 52.11263      4.4 9.032e+03 1.808e-10
 52.15125      3.5 9.020e+03 1.865e-10
 52.19105      3.0 9.089e+03 2.323e-10
 52.23085      2.9 9.242e+03 2.947e-10
 52.27065      3.1 9.353e+03 3.543e-10
 52.29435      3.4 9.502e+03 3.944e-10
 52.31425      3.9 9.113e+03 3.161e-10
 52.35025      3.5 9.262e+03 3.030e-10
 52.39006     -0.4 1.066e+04 4.755e-10
 52.41981     -4.1 1.163e+04 1.091e-09
 52.43961     -6.0 1.210e+04 1.943e-09
 52.45951     -4.7 1.273e+04 3.051e-09
 52.47941     -3.6 1.285e+04 3.226e-09
 52.49578     -2.6 1.264e+04 2.306e-09
 52.50573     -3.6 1.240e+04 2.186e-09
 52.51921     -4.9 1.183e+04 1.124e-09
 52.53911    -10.0 1.007e+04 5.083e-10
 52.55901    -12.0 9.347e+03 3.714e-10
 52.58896    -12.5 9.182e+03 3.559e-10
 52.62886    -12.8 9.078e+03 3.650e-10
 52.66866    -12.5 8.929e+03 3.749e-10
 52.69759    -11.8 8.694e+03 3.320e-10
 52.71749    -11.1 8.702e+03 3.099e-10
 52.74826    -10.7 8.501e+03 2.480e-10
 52.78806    -10.4 8.294e+03 2.117e-10
 52.82787     -9.6 8.195e+03 1.973e-10
 52.86767     -8.4 8.109e+03 1.825e-10
 52.89921     -7.0 8.027e+03 1.577e-10
 52.91911     -6.5 8.034e+03 1.552e-10
 52.94727     -5.3 7.964e+03 1.275e-10
 52.98707     -4.4 7.908e+03 1.102e-10
 53.02687     -3.5 7.872e+03 1.038e-10
 53.06667     -2.3 7.860e+03 1.008e-10
 53.10084     -1.0 7.879e+03 9.717e-11
 53.12074     -0.4 7.898e+03 9.876e-11
 53.14627      0.7 7.958e+03 9.404e-11
 53.18607      1.5 8.079e+03 9.348e-11
 53.22587      2.2 8.176e+03 1.031e-10
 53.26567      3.1 8.282e+03 1.216e-10
 53.30246      4.2 8.433e+03 1.420e-10
 53.32236      5.0 8.572e+03 1.691e-10
 53.34528      5.9 8.750e+03 1.850e-10
 53.38508      6.3 8.908e+03 2.061e-10
 53.42488      6.7 8.960e+03 2.503e-10
 53.46468      7.5 9.106e+03 3.072e-10
 53.50408      7.9 9.412e+03 3.229e-10
 53.52398      8.7 9.783e+03 4.452e-10
 53.54428      8.5 1.003e+04 5.427e-10
 53.58408      8.5 1.033e+04 6.956e-10
 53.62388      8.6 1.050e+04 7.218e-10
 53.65364      7.8 1.071e+04 6.707e-10
 53.67344      7.3 1.049e+04 6.349e-10
 53.69334      7.2 1.009e+04 5.366e-10
 53.71324      7.4 9.796e+03 4.456e-10
 53.72550      7.6 9.375e+03 2.728e-10
 53.74550      8.3 9.854e+03 3.945e-10
 53.78309      7.9 9.278e+03 1.998e-10
 53.81847      7.1 8.814e+03 1.500e-10
 53.83837      6.1 8.852e+03 1.662e-10
 53.86269      7.2 8.678e+03 1.588e-10
 53.90249      8.5 8.760e+03 1.647e-10
 53.92722      9.3 8.998e+03 1.682e-10
 53.94712     10.1 9.199e+03 2.369e-10
 53.98209     10.4 9.365e+03 2.396e-10
 54.02189     10.4 9.509e+03 2.763e-10
 54.06169     10.6 9.575e+03 3.261e-10
 54.10149     11.3 9.500e+03 3.389e-10
 54.12884     12.3 9.572e+03 2.422e-10
 54.14874     12.5 9.757e+03 2.906e-10
 54.18109     12.3 9.795e+03 1.959e-10
 54.22090     11.2 1.000e+04 1.637e-10
 54.26070     10.1 9.844e+03 2.255e-10
 54.30050     10.7 9.934e+03 3.549e-10
 54.33046     11.8 1.025e+04 4.344e-10
 54.35036     12.5 1.027e+04 4.459e-10
 54.38010     13.0 1.033e+04 4.616e-10
 54.41990     13.5 1.036e+04 4.271e-10
 54.45970     14.1 1.024e+04 3.754e-10
 54.49950     15.0 9.987e+03 3.207e-10
 54.53208     16.3 9.917e+03 2.269e-10
 54.55198     16.8 1.013e+04 3.112e-10
 54.57910     17.9 1.008e+04 2.257e-10
 54.61890     18.8 9.760e+03 1.668e-10
 54.65871     19.8 9.459e+03 1.265e-10
 54.69851     20.9 9.298e+03 1.206e-10
 54.73370     22.0 9.282e+03 1.349e-10
 54.75360     22.5 9.491e+03 1.760e-10
 54.77811     23.9 9.626e+03 2.279e-10
 54.81791     25.7 9.820e+03 2.836e-10
 54.85771     27.3 9.954e+03 2.835e-10
 54.89751     28.6 9.993e+03 2.473e-10
 54.93532     29.0 1.010e+04 2.264e-10
 54.95522     29.4 1.029e+04 2.836e-10
 54.97711     29.1 1.039e+04 2.858e-10
 55.01691     28.6 1.062e+04 3.397e-10
 55.04599     28.0 1.093e+04 4.281e-10
 55.05584     28.2 1.081e+04 3.943e-10
 55.06647     28.0 1.095e+04 4.468e-10
 55.08637     27.6 1.109e+04 5.041e-10
 55.10627     27.3 1.114e+04 5.506e-10
 55.12617     26.9 1.115e+04 6.027e-10
 55.14607     26.5 1.108e+04 6.365e-10
 55.15665     26.1 1.106e+04 6.724e-10
 55.16660     26.1 1.116e+04 6.937e-10
 55.18587     25.5 1.125e+04 7.626e-10
 55.20577     24.3 1.160e+04 8.900e-10
 55.22567     22.6 1.217e+04 1.092e-09
 55.24557     21.1 1.235e+04 1.314e-09
 55.25746     20.8 1.210e+04 1.517e-09
 55.26741     21.1 1.238e+04 1.793e-09
 55.28537     21.3 1.218e+04 1.603e-09
 55.30527     20.7 1.172e+04 1.202e-09
 55.32517     19.5 1.156e+04 8.672e-10
 55.34507     17.7 1.115e+04 6.628e-10
 55.35827     16.1 1.079e+04 5.635e-10
 55.36822     15.2 1.083e+04 5.658e-10
 55.38488     14.3 1.070e+04 5.526e-10
 55.40478     13.7 1.071e+04 5.865e-10
 55.42468     13.3 1.088e+04 6.313e-10
 55.44458     12.8 1.103e+04 6.879e-10
 55.45908     12.5 1.104e+04 7.377e-10
 55.46903     11.8 1.108e+04 7.263e-10
 55.49443     12.1 1.099e+04 7.318e-10
 55.53432     11.4 1.082e+04 6.460e-10
 55.56009     10.7 1.032e+04 4.952e-10
 55.57999      8.9 1.002e+04 4.189e-10
 55.61393      9.0 9.701e+03 2.839e-10
 55.65373      8.6 9.508e+03 2.260e-10
 55.69353      9.0 9.535e+03 2.381e-10
 55.73333      9.7 9.625e+03 3.093e-10
 55.76171     10.8 9.948e+03 4.614e-10
 55.78161     10.0 1.030e+04 6.144e-10
 55.80288     11.3 1.066e+04 8.313e-10
 55.82269     12.0 1.102e+04 9.320e-10
 55.84259     12.9 1.123e+04 1.164e-09
 55.86232     13.6 1.141e+04 1.224e-09
 55.87227     13.7 1.151e+04 1.335e-09
 55.88239     14.6 1.153e+04 1.272e-09
 55.90229     15.4 1.140e+04 1.161e-09
 55.92219     15.7 1.141e+04 9.462e-10
 55.94209     16.0 1.115e+04 8.302e-10
 55.96199     16.1 1.096e+04 7.001e-10
 55.97308     16.3 1.080e+04 6.644e-10
 55.98303     15.8 1.080e+04 6.672e-10
 56.00179     16.3 1.072e+04 5.757e-10
 56.02169     16.6 1.064e+04 5.564e-10
 56.04159     17.3 1.057e+04 5.368e-10
 56.06149     17.7 1.056e+04 5.395e-10
 56.07389     18.5 1.041e+04 5.265e-10
 56.08384     18.3 1.079e+04 6.523e-10
 56.10129     19.3 1.069e+04 6.486e-10
 56.12119     20.1 1.067e+04 6.418e-10
 56.14109     20.8 1.070e+04 6.387e-10
 56.16099     21.4 1.084e+04 6.686e-10
 56.17470     21.8 1.115e+04 7.561e-10
 56.18465     20.7 1.208e+04 1.292e-09
 56.20079     20.9 1.240e+04 1.572e-09
 56.22069     21.4 1.261e+04 1.926e-09
 56.24059     22.3 1.280e+04 2.304e-09
 56.26049     23.4 1.306e+04 2.607e-09
 56.27551     24.4 1.354e+04 2.850e-09
 56.28547     23.9 1.436e+04 3.905e-09
 56.30030     23.2 1.512e+04 3.746e-09
 56.32020     19.8 1.667e+04 4.135e-09
 56.34010     16.2 1.633e+04 4.328e-09
 56.36000     15.7 1.458e+04 4.977e-09
 56.37633     17.5 1.377e+04 4.040e-09
 56.38628     15.5 1.348e+04 3.405e-09
 56.39980     16.3 1.369e+04 1.892e-09
 56.41970     13.1 1.330e+04 9.867e-10
 56.44965      7.5 1.138e+04 5.946e-10
 56.48955      5.0 1.081e+04 6.206e-10
 56.52935      4.9 1.140e+04 1.189e-09
 56.56819      7.1 1.195e+04 1.531e-09
 56.58809      7.0 1.197e+04 1.574e-09
 56.60895      8.5 1.216e+04 1.422e-09
 56.64875      9.5 1.165e+04 1.016e-09
 56.68855     10.6 1.072e+04 6.929e-10
 56.72835     12.3 9.847e+03 4.833e-10
 56.75279     14.5 9.267e+03 3.366e-10
 56.77269     14.6 9.484e+03 4.071e-10
 56.78971     15.7 9.094e+03 2.721e-10
 56.80961     15.4 8.920e+03 2.189e-10
 56.84775     17.1 8.710e+03 2.147e-10
 56.88755     19.6 8.502e+03 1.933e-10
 56.92735     21.5 8.433e+03 1.618e-10
 56.96716     22.7 8.509e+03 1.637e-10
 56.99133     23.0 8.692e+03 1.942e-10
 57.01123     23.3 8.761e+03 2.105e-10
 57.04676     23.4 8.962e+03 2.679e-10
 57.08656     22.7 9.247e+03 3.189e-10
 57.12636     18.3 1.054e+04 5.474e-10
 57.16616     15.7 1.117e+04 1.312e-09
 57.19295     14.3 1.165e+04 1.591e-09
 57.21286     15.8 1.153e+04 1.383e-09
 57.24576      7.6 1.321e+04 1.179e-09
 57.27551     -1.7 1.340e+04 2.073e-09
 57.29357     -3.6 1.281e+04 2.576e-09
 57.30352     -3.4 1.274e+04 2.299e-09
 57.31522     -3.6 1.267e+04 2.674e-09
 57.33512     -3.0 1.240e+04 2.550e-09
 57.35502     -2.3 1.215e+04 1.942e-09
 57.37492     -4.0 1.177e+04 1.151e-09
 57.39438     -8.1 1.004e+04 5.571e-10
 57.40433     -7.2 1.033e+04 6.708e-10
 57.41472     -7.0 1.009e+04 5.343e-10
 57.43462     -9.3 9.299e+03 3.281e-10
 57.45452     -9.4 9.257e+03 3.031e-10
 57.47442    -10.5 9.159e+03 2.702e-10
 57.49432    -10.8 9.239e+03 2.705e-10
 57.50514    -11.9 9.616e+03 3.086e-10
 57.51509    -11.5 9.656e+03 3.096e-10
 57.53412    -12.3 9.988e+03 4.329e-10
 57.55402    -12.5 1.044e+04 6.369e-10
 57.57392    -12.1 1.093e+04 8.986e-10
 57.59382    -11.4 1.135e+04 1.146e-09
 57.60595    -10.5 1.167e+04 1.319e-09
 57.61590    -10.1 1.184e+04 1.473e-09
 57.63362     -9.1 1.201e+04 1.541e-09
 57.65353     -8.4 1.196e+04 1.478e-09
 57.67343     -7.5 1.184e+04 1.303e-09
 57.69333     -6.9 1.173e+04 1.135e-09
 57.70676     -6.5 1.159e+04 9.914e-10
 57.71671     -6.3 1.152e+04 1.022e-09
 57.73313     -5.6 1.153e+04 9.158e-10
 57.75303     -5.8 1.114e+04 7.507e-10
 57.77293     -5.4 1.128e+04 7.511e-10
 57.79283     -5.2 1.187e+04 8.713e-10
 57.80757     -5.5 1.216e+04 1.023e-09
 57.81752     -4.3 1.199e+04 8.638e-10
 57.84268     -2.9 1.290e+04 1.102e-09
 57.87253     -3.7 1.362e+04 1.976e-09
 57.89233     -3.3 1.373e+04 2.246e-09
 57.90838     -2.3 1.383e+04 2.494e-09
 57.91833     -2.1 1.403e+04 2.828e-09
 57.93213     -1.1 1.426e+04 2.945e-09
 57.95203     -1.4 1.498e+04 2.820e-09
 57.97193     -4.5 1.633e+04 2.500e-09
 57.99183     -9.7 1.577e+04 2.337e-09
 58.00919    -13.5 1.424e+04 2.456e-09
 58.01914    -12.7 1.501e+04 2.486e-09
 58.03163    -15.1 1.387e+04 2.542e-09
 58.05153    -15.4 1.369e+04 2.676e-09
 58.07143    -15.3 1.350e+04 2.626e-09
 58.09133    -15.0 1.310e+04 2.119e-09
 58.11000    -15.1 1.251e+04 1.552e-09
 58.11995    -16.5 1.337e+04 2.091e-09
 58.13114    -16.5 1.282e+04 1.597e-09
 58.15104    -16.4 1.215e+04 1.216e-09
 58.17094    -16.1 1.174e+04 9.976e-10
 58.19084    -15.4 1.175e+04 9.035e-10
 58.20571    -15.2 1.361e+04 9.633e-10
 58.21468    -15.5 1.585e+04 9.967e-10
 58.21965    -20.0 3.195e+04 1.796e-09
 58.22067    -20.1 3.611e+04 2.417e-09
 58.22564    -23.1 3.053e+04 1.467e-08
 58.23552    -22.5 3.025e+04 1.923e-08
 58.24547    -21.7 3.000e+04 2.240e-08
 58.25542    -20.4 2.989e+04 2.351e-08
 58.26537    -18.6 3.019e+04 2.308e-08
 58.27107    -16.8 3.069e+04 2.236e-08
 58.27605    -17.1 2.336e+04 7.365e-08
 58.28527    -15.2 2.369e+04 6.847e-08
 58.29522    -13.4 2.407e+04 6.573e-08
 58.30517    -12.1 2.627e+04 6.424e-08
 58.31512    -13.1 2.951e+04 9.530e-08
 58.32148    -14.6 2.908e+04 2.526e-07
 58.32645    -23.6 2.623e+04 6.844e-07
 58.33502    -25.7 2.592e+04 7.361e-07
 58.34497    -27.7 3.157e+04 3.151e-07
 58.35492    -30.9 4.483e+04 6.032e-08
 58.36487    -37.5 6.535e+04 8.245e-09
 58.37188    -49.5 8.951e+04 1.397e-09
 58.37686    -85.3 4.154e+04 6.059e-10
 58.38477    -95.6 2.600e+04 5.658e-10
 58.39472   -101.9 2.150e+04 5.136e-10
 58.40467   -107.7 1.973e+04 4.237e-10
 58.41462   -112.7 1.707e+04 4.266e-10
 58.42229   -119.7 1.419e+04 4.403e-10
 58.43229   -116.2 1.212e+04 4.426e-10
 58.44954   -117.7 1.166e+04 4.430e-10
 58.46944   -117.5 1.155e+04 4.612e-10
 58.48934   -116.4 1.160e+04 4.836e-10
 58.50924   -115.2 1.158e+04 5.491e-10
 58.52320   -114.8 1.222e+04 7.081e-10
 58.53315   -115.9 1.292e+04 9.466e-10
 58.54904   -117.5 1.405e+04 1.483e-09
 58.56895   -119.0 1.540e+04 2.489e-09
 58.58885   -120.0 1.675e+04 4.090e-09
 58.60875   -120.4 1.793e+04 6.050e-09
 58.62401   -120.9 1.876e+04 7.480e-09
 58.63396   -122.7 1.838e+04 7.036e-09
 58.64855   -123.9 1.824e+04 6.775e-09
 58.66845   -125.6 1.698e+04 4.690e-09
 58.68835   -129.1 1.520e+04 2.498e-09
 58.70825   -134.7 1.618e+04 1.470e-09
 58.72482   -140.3 2.060e+04 1.216e-09
 58.73477   -140.1 1.535e+04 1.001e-09
 58.74805   -142.6 1.982e+04 1.226e-09
 58.76795   -144.0 2.245e+04 2.115e-09
 58.78785   -144.5 2.363e+04 3.686e-09
 58.80775   -144.4 2.397e+04 5.766e-09
 58.82563   -144.4 2.428e+04 8.054e-09
 58.83558   -141.7 2.136e+04 4.646e-09
 58.84755   -141.7 2.219e+04 6.191e-09
 58.86745   -142.3 2.443e+04 8.494e-09
 58.88735   -143.6 2.703e+04 1.223e-08
 58.90223   -144.4 2.787e+04 1.603e-08
 58.91213   -145.3 2.842e+04 2.110e-08
 58.92208   -146.9 2.811e+04 2.995e-08
 58.93131   -148.4 2.790e+04 4.157e-08
 58.93629   -146.6 2.822e+04 3.732e-08
 58.94198   -148.2 2.784e+04 5.475e-08
 58.94826   -149.5 2.670e+04 8.100e-08
 58.95323   -147.0 2.823e+04 7.202e-08
 58.96188   -148.3 2.749e+04 1.072e-07
 58.97183   -149.7 2.584e+04 1.438e-07
 58.98172   -151.2 2.520e+04 1.523e-07
 58.98670   -150.3 2.744e+04 1.296e-07
 58.99173   -151.7 2.549e+04 1.366e-07
 59.00168   -152.1 2.406e+04 1.083e-07
 59.01163   -152.1 2.309e+04 7.318e-08
 59.02158   -152.0 2.267e+04 4.653e-08
 59.03153   -152.4 2.288e+04 2.960e-08
 59.03710   -153.5 2.360e+04 1.888e-08
 59.04208   -152.3 2.217e+04 2.767e-08
 59.05143   -153.3 2.183e+04 1.864e-08
 59.06138   -154.6 2.197e+04 1.264e-08
 59.07133   -156.2 2.259e+04 8.755e-09
 59.08128   -157.8 2.357e+04 6.343e-09
 59.08751   -159.3 2.481e+04 4.871e-09
 59.09248   -157.4 2.265e+04 9.369e-09
 59.10118   -158.9 2.396e+04 8.467e-09
 59.11113   -160.4 2.659e+04 7.524e-09
 59.12108   -161.7 3.002e+04 6.334e-09
 59.13103   -163.1 3.357e+04 4.896e-09
 59.13791   -164.7 3.570e+04 3.582e-09
 59.14289   -163.5 3.308e+04 1.082e-08
 59.15094   -166.5 3.764e+04 7.369e-09
 59.16089   -169.9 3.863e+04 5.571e-09
 59.17084   -173.2 3.521e+04 5.644e-09
 59.18079   -176.1 3.161e+04 6.308e-09
 59.18832   -178.3 2.882e+04 7.721e-09
 59.19329   -181.0 2.865e+04 2.345e-08
 59.20069   -183.0 2.749e+04 2.502e-08
 59.21064   -184.2 2.634e+04 2.785e-08
 59.22059   -185.1 2.585e+04 2.891e-08
 59.23054   -185.8 2.494e+04 2.964e-08
 59.23872   -186.2 2.437e+04 2.805e-08
 59.24370   -187.4 2.329e+04 4.362e-08
 59.25044   -187.3 2.275e+04 3.724e-08
 59.26039   -187.1 2.225e+04 3.124e-08
 59.27034   -186.9 2.193e+04 2.596e-08
 59.28029   -186.8 2.161e+04 2.158e-08
 59.28913   -186.6 2.104e+04 1.820e-08
 59.29410   -187.1 2.102e+04 1.897e-08
 59.30019   -186.6 2.052e+04 1.554e-08
 59.31014   -186.2 2.012e+04 1.285e-08
 59.32009   -185.9 1.979e+04 1.056e-08
 59.33004   -185.7 1.935e+04 8.588e-09
 59.33953   -185.3 1.886e+04 6.974e-09
 59.34451   -186.1 1.837e+04 5.613e-09
 59.34994   -185.5 1.803e+04 4.927e-09
 59.36491   -184.8 1.796e+04 4.543e-09
 59.38486   -183.6 1.774e+04 3.594e-09
 59.40476   -182.7 1.743e+04 2.673e-09
 59.42466   -182.1 1.700e+04 2.037e-09
 59.44044   -181.7 1.664e+04 1.724e-09
 59.45039   -184.3 1.437e+04 1.457e-09
 59.46446   -184.0 1.409e+04 1.465e-09
 59.48437   -183.5 1.401e+04 1.478e-09
 59.50427   -182.9 1.380e+04 1.591e-09
 59.52417   -182.0 1.367e+04 1.672e-09
 59.54125   -181.1 1.358e+04 1.693e-09
 59.55120   -181.6 1.340e+04 1.744e-09
 59.56397   -180.5 1.313e+04 1.574e-09
 59.58387   -179.5 1.279e+04 1.341e-09
 59.60377   -178.6 1.246e+04 1.127e-09
 59.62367   -177.8 1.215e+04 9.737e-10
 59.64206   -176.8 1.188e+04 8.701e-10
 59.65201   -177.3 1.164e+04 7.364e-10
 59.66347   -176.1 1.147e+04 6.991e-10
 59.67696   -174.9 1.141e+04 6.901e-10
 59.68691   -175.3 1.125e+04 6.382e-10
 59.70327   -174.0 1.124e+04 6.357e-10
 59.72317   -172.8 1.124e+04 6.362e-10
 59.74287   -171.7 1.131e+04 6.750e-10
 59.75282   -171.9 1.107e+04 5.795e-10
 59.76297   -170.9 1.131e+04 6.552e-10
 59.78287   -170.0 1.159e+04 7.668e-10
 59.80277   -169.2 1.189e+04 9.109e-10
 59.82267   -168.2 1.223e+04 1.094e-09
 59.84257   -167.3 1.261e+04 1.317e-09
 59.85363   -166.4 1.300e+04 1.572e-09
 59.86358   -166.8 1.267e+04 1.355e-09
 59.88237   -165.9 1.299e+04 1.578e-09
 59.90227   -165.0 1.325e+04 1.785e-09
 59.92217   -164.3 1.344e+04 1.950e-09
 59.94208   -163.5 1.356e+04 2.064e-09
 59.95444   -162.7 1.363e+04 2.137e-09
 59.96439   -162.8 1.312e+04 1.769e-09
 59.98188   -161.9 1.314e+04 1.797e-09
 60.00178   -160.9 1.316e+04 1.826e-09
 60.02168   -159.9 1.323e+04 1.876e-09
 60.04158   -158.9 1.336e+04 1.950e-09
 60.05525   -158.1 1.352e+04 2.054e-09
 60.06520   -157.8 1.278e+04 1.562e-09
 60.08138   -156.8 1.292e+04 1.634e-09
 60.10128   -155.9 1.311e+04 1.741e-09
 60.12118   -155.1 1.336e+04 1.888e-09
 60.14108   -154.3 1.366e+04 2.088e-09
 60.15606   -153.5 1.400e+04 2.345e-09
 60.16601   -153.0 1.301e+04 1.697e-09
 60.18088   -152.2 1.334e+04 1.918e-09
 60.20078   -151.4 1.367e+04 2.169e-09
 60.22068   -150.7 1.396e+04 2.406e-09
 60.24058   -150.0 1.414e+04 2.567e-09
 60.25687   -149.3 1.419e+04 2.615e-09
 60.26682   -149.1 1.329e+04 2.053e-09
 60.28038   -148.5 1.327e+04 2.060e-09
 60.30028   -147.9 1.314e+04 1.993e-09
 60.32018   -147.4 1.311e+04 1.801e-09
 60.34008   -147.3 1.309e+04 1.598e-09
 60.35768   -147.3 1.318e+04 1.468e-09
 60.36763   -146.8 1.225e+04 1.204e-09
 60.37988   -146.8 1.232e+04 1.121e-09
 60.39979   -147.3 1.253e+04 1.092e-09
 60.41969   -148.1 1.265e+04 1.132e-09
 60.43959   -148.8 1.273e+04 1.219e-09
 60.45849   -149.5 1.264e+04 1.362e-09
 60.46844   -148.1 1.225e+04 1.058e-09
 60.47939   -148.6 1.220e+04 1.196e-09
 60.49929   -148.9 1.212e+04 1.313e-09
 60.51919   -149.0 1.207e+04 1.382e-09
 60.53909   -149.7 1.216e+04 1.478e-09
 60.55899   -155.1 1.558e+04 2.025e-09
 60.56926   -163.8 2.000e+04 4.285e-09
 60.57921   -159.9 1.927e+04 3.015e-09
 60.59879   -168.9 2.203e+04 7.094e-09
 60.61869   -178.4 2.222e+04 1.092e-08
 60.63859   -188.9 2.168e+04 1.154e-08
 60.65849   -199.3 1.844e+04 7.744e-09
 60.67007   -208.6 1.393e+04 3.104e-09
 60.68002   -205.0 1.585e+04 4.592e-09
 60.69829   -212.4 1.214e+04 1.592e-09
 60.71819   -215.1 1.103e+04 9.012e-10
 60.73809   -215.9 1.068e+04 7.389e-10
 60.75799   -216.5 1.051e+04 6.541e-10
 60.77088   -216.9 1.031e+04 5.692e-10
 60.78083   -216.1 1.016e+04 5.343e-10
 60.79779   -216.3 1.006e+04 4.768e-10
 60.81769   -216.5 1.004e+04 4.384e-10
 60.83759   -216.6 1.005e+04 4.162e-10
 60.86183   -216.8 1.004e+04 3.955e-10
 60.88183   -215.5 9.970e+03 3.882e-10
 60.90744   -215.2 9.988e+03 3.857e-10
 60.94724   -215.3 9.994e+03 3.651e-10
 60.98704   -215.8 9.984e+03 3.399e-10
 61.02684   -216.7 9.997e+03 3.246e-10
 61.06355   -218.0 1.003e+04 3.229e-10
 61.08345   -216.6 1.061e+04 4.732e-10
 61.10645   -218.5 1.075e+04 5.059e-10
 61.14625   -220.3 1.098e+04 5.810e-10
 61.18605   -222.0 1.122e+04 6.876e-10
 61.22585   -223.4 1.134e+04 7.513e-10
 61.26517   -224.5 1.137e+04 7.580e-10
 61.28507   -223.2 1.167e+04 1.002e-09
 61.29540   -224.4 1.149e+04 8.045e-10
 61.31521   -224.8 1.135e+04 6.898e-10
 61.33511   -225.2 1.119e+04 5.817e-10
 61.35501   -225.6 1.101e+04 4.941e-10
 61.37491   -226.0 1.085e+04 4.381e-10
 61.38569   -226.2 1.076e+04 4.083e-10
 61.39564   -226.0 1.090e+04 4.282e-10
 61.41471   -226.4 1.086e+04 4.215e-10
 61.43461   -226.8 1.086e+04 4.216e-10
 61.45451   -227.2 1.082e+04 4.543e-10
 61.47441   -227.4 1.084e+04 5.306e-10
 61.48650   -227.6 1.088e+04 6.210e-10
 61.49645   -227.3 1.101e+04 6.844e-10
 61.51421   -227.5 1.102e+04 7.444e-10
 61.53411   -227.5 1.100e+04 7.641e-10
 61.55401   -227.5 1.099e+04 7.686e-10
 61.57391   -227.5 1.084e+04 7.604e-10
 61.58731   -227.5 1.069e+04 7.224e-10
 61.59726   -227.1 1.052e+04 6.403e-10
 61.61371   -227.0 1.034e+04 5.859e-10
 61.63361   -226.8 1.020e+04 5.287e-10
 61.65351   -226.7 1.010e+04 4.737e-10
 61.67341   -226.5 1.005e+04 4.278e-10
 61.68822   -226.2 1.001e+04 3.953e-10
 61.70822   -225.2 9.809e+03 3.653e-10
 61.74326   -224.7 9.541e+03 3.138e-10
 61.78306   -223.9 9.255e+03 2.607e-10
 61.82286   -222.8 8.966e+03 2.139e-10
 61.86266   -221.4 8.689e+03 1.768e-10
 61.88994   -219.8 8.452e+03 1.501e-10
 61.90984   -218.8 8.531e+03 1.645e-10
 61.94226   -217.0 8.378e+03 1.466e-10
 61.98207   -215.2 8.259e+03 1.342e-10
 62.02187   -213.3 8.171e+03 1.249e-10
 62.06167   -211.4 8.114e+03 1.165e-10
 62.09156   -209.6 8.084e+03 1.085e-10
 62.11146   -209.0 8.174e+03 1.202e-10
 62.14127   -207.5 8.153e+03 1.097e-10
 62.18107   -206.1 8.161e+03 1.037e-10
 62.22087   -204.7 8.170e+03 1.023e-10
 62.26067   -203.5 8.192e+03 1.026e-10
 62.29318   -202.6 8.297e+03 1.126e-10
 62.31308   -202.7 8.273e+03 1.244e-10
 62.34027   -201.8 8.317e+03 1.370e-10
 62.38007   -200.9 8.345e+03 1.472e-10
 62.41987   -200.0 8.349e+03 1.502e-10
 62.45968   -199.1 8.340e+03 1.499e-10
 62.49480   -198.2 8.307e+03 1.365e-10
 62.51470   -198.5 8.328e+03 1.189e-10
 62.53928   -197.6 8.317e+03 1.043e-10
 62.57908   -196.7 8.300e+03 9.322e-11
 62.60152   -195.7 8.284e+03 8.619e-11
 62.62142   -196.4 8.155e+03 9.291e-11
 62.65868   -195.2 8.136e+03 8.551e-11
 62.69642   -193.9 8.149e+03 7.947e-11
 62.71632   -193.8 8.127e+03 8.749e-11
 62.73828   -192.6 8.151e+03 8.459e-11
 62.77808   -191.4 8.168e+03 8.372e-11
 62.81788   -190.3 8.179e+03 8.361e-11
 62.85768   -189.2 8.290e+03 8.415e-11
 62.89749   -188.1 8.341e+03 8.982e-11
 62.91794   -187.1 8.377e+03 9.963e-11
 62.93784   -186.4 8.315e+03 1.070e-10
 62.97709   -185.2 8.378e+03 1.180e-10
 63.01689   -184.1 8.528e+03 1.372e-10
 63.05669   -183.3 8.817e+03 1.774e-10
 63.09649   -182.9 9.267e+03 2.558e-10
 63.11956   -182.7 9.828e+03 3.845e-10
 63.13946   -181.3 9.537e+03 2.589e-10
 63.17609   -181.2 1.006e+04 3.993e-10
 63.21589   -181.5 1.054e+04 5.689e-10
 63.25569   -182.0 1.082e+04 6.798e-10
 63.29549   -182.7 1.088e+04 7.029e-10
 63.32118   -183.0 1.081e+04 6.699e-10
 63.34108   -181.0 1.079e+04 6.488e-10
 63.37510   -181.0 1.065e+04 5.838e-10
 63.41490   -180.6 1.040e+04 4.393e-10
 63.45470   -180.1 1.008e+04 3.070e-10
 63.49450   -179.3 9.800e+03 2.199e-10
 63.52280   -178.4 9.604e+03 1.718e-10
 63.54271   -176.6 9.807e+03 2.127e-10
 63.57410   -175.7 9.673e+03 1.883e-10
 63.61390   -174.9 9.590e+03 1.745e-10
 63.65370   -174.1 9.539e+03 1.654e-10
 63.69350   -173.3 9.522e+03 1.596e-10
 63.72443   -172.7 9.523e+03 1.583e-10
 63.74433   -171.0 9.734e+03 2.143e-10
 63.77310   -170.5 9.736e+03 2.196e-10
 63.81291   -170.0 9.741e+03 2.285e-10
 63.85271   -169.7 9.748e+03 2.400e-10
 63.89251   -169.5 9.753e+03 2.498e-10
 63.92605   -169.3 9.772e+03 2.570e-10
 63.94595   -167.7 9.989e+03 3.199e-10
 63.97211   -168.1 1.004e+04 3.228e-10
 64.01191   -169.2 1.023e+04 3.340e-10
 64.05171   -171.4 1.109e+04 4.184e-10
 64.09151   -174.6 1.224e+04 7.019e-10
 64.12767   -178.9 1.304e+04 1.219e-09
 64.14757   -176.0 1.294e+04 1.098e-09
 64.16107   -181.1 1.307e+04 1.525e-09
 64.18087   -183.5 1.313e+04 1.662e-09
 64.20077   -186.5 1.312e+04 1.688e-09
 64.22067   -189.3 1.309e+04 1.692e-09
 64.23823   -192.4 1.277e+04 1.659e-09
 64.24818   -190.7 1.280e+04 1.658e-09
 64.26047   -193.4 1.255e+04 1.559e-09
 64.28037   -196.1 1.226e+04 1.443e-09
 64.30027   -198.0 1.205e+04 1.340e-09
 64.32017   -199.7 1.178e+04 1.213e-09
 64.33904   -200.8 1.154e+04 1.087e-09
 64.34899   -200.4 1.154e+04 1.127e-09
 64.35997   -201.3 1.128e+04 1.000e-09
 64.37987   -201.9 1.104e+04 8.728e-10
 64.39977   -202.2 1.081e+04 7.537e-10
 64.41967   -202.2 1.061e+04 6.510e-10
 64.43957   -202.1 1.041e+04 5.572e-10
 64.44980   -201.5 1.022e+04 4.856e-10
 64.45975   -201.3 1.022e+04 5.213e-10
 64.48942   -200.5 1.013e+04 4.499e-10
 64.52932   -199.9 1.013e+04 4.159e-10
 64.55081   -198.8 1.014e+04 3.724e-10
 64.57071   -197.9 1.006e+04 3.679e-10
 64.60892   -196.6 1.003e+04 3.171e-10
 64.64872   -195.2 9.991e+03 2.723e-10
 64.68852   -193.6 9.955e+03 2.349e-10
 64.72833   -191.9 9.922e+03 2.082e-10
 64.75243   -190.1 9.890e+03 1.945e-10
 64.77233   -189.1 9.913e+03 2.045e-10
 64.80793   -187.1 9.913e+03 2.036e-10
 64.84773   -185.2 9.969e+03 2.062e-10
 64.88753   -183.4 1.016e+04 2.319e-10
 64.92733   -181.6 1.032e+04 2.779e-10
 64.95405   -179.7 1.050e+04 3.354e-10
 64.97395   -179.0 1.089e+04 4.678e-10
 65.00693   -177.3 1.122e+04 6.181e-10
 65.04673   -175.9 1.151e+04 7.850e-10
 65.08653   -174.6 1.170e+04 9.278e-10
 65.11629   -174.0 1.187e+04 1.144e-09
 65.13609   -173.4 1.198e+04 1.292e-09
 65.15548   -172.7 1.213e+04 1.445e-09
 65.16543   -172.4 1.260e+04 1.790e-09
 65.17589   -172.0 1.265e+04 1.810e-09
 65.19579   -171.6 1.267e+04 1.814e-09
 65.21569   -171.2 1.269e+04 1.791e-09
 65.23559   -170.8 1.268e+04 1.750e-09
 65.25549   -170.3 1.264e+04 1.691e-09
 65.26624   -169.8 1.257e+04 1.613e-09
 65.27619   -170.0 1.284e+04 1.718e-09
 65.29529   -169.4 1.267e+04 1.553e-09
 65.31519   -168.7 1.242e+04 1.383e-09
 65.33509   -167.9 1.218e+04 1.237e-09
 65.35499   -167.1 1.196e+04 1.102e-09
 65.36705   -166.2 1.176e+04 9.878e-10
 65.37700   -166.4 1.169e+04 8.925e-10
 65.39479   -165.4 1.150e+04 7.947e-10
 65.41469   -164.3 1.134e+04 7.140e-10
 65.43460   -163.2 1.121e+04 6.379e-10
 65.45450   -162.0 1.111e+04 5.608e-10
 65.48444   -160.6 1.102e+04 4.793e-10
 65.51593   -159.3 1.094e+04 4.384e-10
 65.53583   -159.5 1.108e+04 4.324e-10
 65.55891   -157.4 1.087e+04 3.692e-10
 65.57881   -157.1 1.074e+04 3.039e-10
 65.60394   -154.9 1.058e+04 2.613e-10
 65.64375   -152.6 1.044e+04 2.218e-10
 65.68355   -150.3 1.035e+04 1.905e-10
 65.72335   -147.9 1.025e+04 1.673e-10
 65.76054   -145.5 1.019e+04 1.494e-10
 65.78044   -145.1 1.027e+04 1.592e-10
 65.80295   -142.6 1.021e+04 1.441e-10
 65.84275   -140.0 1.015e+04 1.293e-10
 65.88255   -137.4 1.009e+04 1.145e-10
 65.92235   -134.7 1.004e+04 1.003e-10
 65.96215   -132.0 1.000e+04 8.731e-11
 66.00195   -128.9 1.003e+04 7.681e-11
 66.04175   -126.1 1.002e+04 6.708e-11
 66.08155   -123.3 1.003e+04 5.921e-11
 66.12136   -120.5 1.005e+04 5.315e-11
 66.16116   -117.7 1.008e+04 4.882e-11
 66.18368   -114.9 1.012e+04 4.615e-11
 66.20358   -114.6 1.014e+04 4.755e-11
 66.24076   -111.6 1.016e+04 4.677e-11
 66.28056   -108.7 1.017e+04 4.701e-11
 66.32036   -106.0 1.018e+04 4.752e-11
 66.36016   -103.6 1.050e+04 4.905e-11
 66.38530   -101.4 1.072e+04 6.169e-11
 66.40520   -101.3 1.080e+04 8.827e-11
 66.43976    -99.1 1.093e+04 1.337e-10
 66.47956    -96.9 1.112e+04 2.047e-10
 66.51936    -94.8 1.134e+04 2.997e-10
 66.55917    -92.7 1.153e+04 4.040e-10
 66.58692    -90.7 1.166e+04 4.955e-10
 66.60682    -90.9 1.203e+04 7.914e-10
 66.63877    -88.9 1.208e+04 8.643e-10
 66.67857    -86.8 1.207e+04 8.848e-10
 66.71837    -84.5 1.199e+04 8.530e-10
 66.75817    -82.1 1.194e+04 7.961e-10
 66.78854    -79.7 1.188e+04 7.367e-10
 66.80844    -79.8 1.195e+04 7.646e-10
 66.83777    -77.3 1.192e+04 7.311e-10
 66.87757    -74.9 1.190e+04 7.305e-10
 66.91737    -72.6 1.198e+04 7.655e-10
 66.95717    -70.6 1.216e+04 9.314e-10
 66.99016    -68.9 1.242e+04 1.218e-09
 67.01006    -69.3 1.260e+04 1.348e-09
 67.03678    -67.7 1.301e+04 1.872e-09
 67.07658    -66.6 1.330e+04 2.255e-09
 67.11638    -65.9 1.335e+04 2.363e-09
 67.15618    -65.2 1.314e+04 2.156e-09
 67.19178    -64.2 1.275e+04 1.758e-09
 67.21168    -65.2 1.271e+04 1.716e-09
 67.23578    -64.1 1.253e+04 1.540e-09
 67.27558    -63.0 1.254e+04 1.536e-09
 67.31538    -62.1 1.267e+04 1.721e-09
 67.35518    -61.1 1.288e+04 2.061e-09
 67.39340    -59.9 1.302e+04 2.267e-09
 67.41321    -60.4 1.246e+04 1.546e-09
 67.42464    -59.7 1.217e+04 1.240e-09
 67.44454    -58.9 1.209e+04 1.067e-09
 67.46444    -58.3 1.197e+04 8.304e-10
 67.48434    -58.0 1.174e+04 6.574e-10
 67.51429    -57.3 1.156e+04 4.773e-10
 67.55419    -56.9 1.158e+04 4.651e-10
 67.59399    -56.3 1.150e+04 5.287e-10
 67.61492    -55.7 1.157e+04 6.797e-10
 67.63482    -55.8 1.140e+04 5.588e-10
 67.67359    -55.0 1.150e+04 6.481e-10
 67.71339    -54.1 1.152e+04 6.755e-10
 67.75319    -53.3 1.150e+04 6.634e-10
 67.79299    -52.4 1.138e+04 5.743e-10
 67.81655    -51.5 1.122e+04 4.607e-10
 67.83645    -51.2 1.103e+04 3.840e-10
 67.87259    -50.1 1.095e+04 3.359e-10
 67.91239    -48.8 1.091e+04 2.979e-10
 67.95220    -47.4 1.089e+04 2.701e-10
 67.99200    -46.1 1.090e+04 2.553e-10
 68.01817    -44.9 1.093e+04 2.528e-10
 68.03807    -44.4 1.101e+04 3.221e-10
 68.07160    -43.4 1.105e+04 3.729e-10
 68.11140    -42.4 1.111e+04 4.533e-10
 68.15120    -41.4 1.117e+04 5.171e-10
 68.19100    -40.5 1.120e+04 5.335e-10
 68.21979    -39.5 1.116e+04 5.171e-10
 68.23969    -39.2 1.130e+04 7.013e-10
 68.27060    -37.8 1.117e+04 5.243e-10
 68.31040    -36.3 1.107e+04 3.600e-10
 68.35020    -34.9 1.095e+04 2.476e-10
 68.39001    -33.4 1.086e+04 1.816e-10
 68.42141    -31.8 1.080e+04 1.402e-10
 68.44131    -31.9 1.079e+04 1.095e-10
 68.45025    -30.4 1.075e+04 9.491e-11
 68.47015    -30.6 1.068e+04 8.871e-11
 68.50941    -29.0 1.067e+04 8.614e-11
 68.54921    -27.6 1.077e+04 8.705e-11
 68.58901    -26.7 1.091e+04 1.171e-10
 68.62303    -25.6 1.085e+04 1.993e-10
 68.64293    -25.0 1.080e+04 1.677e-10
 68.66861    -23.6 1.088e+04 2.556e-10
 68.70841    -22.2 1.106e+04 3.407e-10
 68.74821    -21.3 1.119e+04 3.727e-10
 68.78801    -20.8 1.123e+04 3.644e-10
 68.82465    -20.6 1.122e+04 3.013e-10
 68.84455    -20.1 1.118e+04 2.881e-10
 68.86762    -20.5 1.126e+04 2.645e-10
 68.90742    -21.9 1.142e+04 2.585e-10
 68.94722    -24.4 1.187e+04 3.840e-10
 68.98702    -26.5 1.195e+04 7.779e-10
 69.01677    -27.5 1.190e+04 1.148e-09
 69.03603    -27.3 1.193e+04 1.259e-09
 69.04598    -27.1 1.214e+04 1.593e-09
 69.05647    -27.4 1.209e+04 1.536e-09
 69.07637    -27.8 1.191e+04 1.096e-09
 69.10632    -29.2 1.180e+04 7.343e-10
 69.14622    -30.7 1.155e+04 5.275e-10
 69.18602    -31.1 1.130e+04 3.743e-10
 69.22582    -31.1 1.117e+04 2.925e-10
 69.24779    -30.8 1.108e+04 2.627e-10
 69.26769    -30.5 1.107e+04 2.597e-10
 69.30543    -29.8 1.105e+04 2.525e-10
 69.34523    -28.8 1.101e+04 2.725e-10
 69.38503    -27.5 1.102e+04 3.052e-10
 69.42483    -25.9 1.098e+04 3.191e-10
 69.44941    -24.1 1.096e+04 3.191e-10
 69.46931    -23.7 1.096e+04 2.950e-10
 69.50443    -21.9 1.089e+04 2.652e-10
 69.54423    -20.3 1.091e+04 2.456e-10
 69.58403    -18.7 1.095e+04 2.464e-10
 69.62383    -17.4 1.103e+04 2.868e-10
 69.65103    -16.1 1.115e+04 3.615e-10
 69.67093    -16.1 1.119e+04 4.134e-10
 69.70343    -14.8 1.142e+04 5.764e-10
 69.74323    -13.5 1.164e+04 7.710e-10
 69.78304    -12.2 1.178e+04 9.471e-10
 69.82284    -10.7 1.182e+04 1.009e-09
 69.85265     -9.1 1.175e+04 9.550e-10
 69.87256     -8.9 1.161e+04 8.705e-10
 69.90244     -7.1 1.140e+04 6.086e-10
 69.94224     -5.5 1.124e+04 4.201e-10
 69.98204     -4.1 1.107e+04 3.250e-10
 70.02184     -2.5 1.096e+04 3.009e-10
 70.05428     -0.7 1.101e+04 3.149e-10
 70.07418     -0.6 1.090e+04 2.398e-10
 70.10144      1.3 1.090e+04 3.003e-10
 70.14124      3.6 1.096e+04 3.572e-10
 70.18104      5.8 1.106e+04 3.831e-10
 70.22085      7.6 1.113e+04 3.776e-10
 70.25590      8.9 1.120e+04 3.531e-10
 70.27580      9.0 1.111e+04 3.203e-10
 70.30045     10.5 1.101e+04 3.768e-10
 70.34025     12.6 1.108e+04 4.383e-10
 70.38005     14.5 1.118e+04 4.762e-10
 70.41985     16.4 1.120e+04 5.060e-10
 70.45752     18.4 1.125e+04 5.539e-10
 70.47742     19.1 1.115e+04 5.104e-10
 70.49945     21.2 1.121e+04 5.513e-10
 70.53925     23.3 1.132e+04 5.857e-10
 70.57905     25.2 1.150e+04 6.415e-10
 70.61885     26.8 1.169e+04 7.888e-10
 70.65865     28.3 1.198e+04 1.119e-09
 70.67904     29.8 1.238e+04 1.744e-09
 70.69894     30.7 1.236e+04 1.688e-09
 70.73826     32.6 1.308e+04 2.857e-09
 70.76801     32.6 1.333e+04 3.276e-09
 70.77965     33.6 1.348e+04 3.500e-09
 70.78960     34.4 1.349e+04 3.591e-09
 70.80771     34.2 1.410e+04 4.230e-09
 70.82761     34.7 1.400e+04 4.381e-09
 70.84751     35.0 1.413e+04 4.609e-09
 70.86741     35.3 1.439e+04 4.891e-09
 70.88046     35.2 1.469e+04 5.273e-09
 70.89041     36.0 1.458e+04 5.018e-09
 70.90721     35.8 1.494e+04 5.560e-09
 70.92712     35.4 1.511e+04 6.456e-09
 70.94702     35.5 1.514e+04 7.178e-09
 70.96692     35.8 1.517e+04 7.433e-09
 70.98127     36.4 1.502e+04 6.968e-09
 70.99122     37.0 1.507e+04 7.042e-09
 71.00672     37.5 1.498e+04 6.474e-09
 71.02662     37.8 1.479e+04 5.512e-09
 71.04652     37.9 1.447e+04 4.273e-09
 71.06642     38.0 1.410e+04 3.427e-09
 71.08218     38.0 1.318e+04 1.944e-09
 71.09213     39.0 1.417e+04 3.439e-09
 71.10622     38.9 1.388e+04 2.973e-09
 71.12612     39.5 1.348e+04 2.149e-09
 71.14602     39.6 1.316e+04 1.808e-09
 71.16592     40.0 1.275e+04 1.255e-09
 71.18290     39.7 1.247e+04 1.034e-09
 71.19285     40.6 1.311e+04 1.551e-09
 71.20572     40.1 1.266e+04 1.146e-09
 71.22562     39.8 1.215e+04 9.904e-10
 71.25557     40.1 1.181e+04 9.060e-10
 71.28390     41.3 1.150e+04 8.281e-10
 71.30380     41.3 1.184e+04 1.094e-09
 71.33527     42.9 1.147e+04 8.867e-10
 71.36466     44.6 1.130e+04 6.984e-10
 71.38456     43.8 1.110e+04 5.378e-10
 71.41487     45.2 1.095e+04 4.073e-10
 71.45467     46.6 1.082e+04 3.649e-10
 71.48552     48.3 1.082e+04 3.694e-10
 71.50542     48.4 1.066e+04 3.320e-10
 71.53427     50.2 1.068e+04 3.438e-10
 71.57407     51.6 1.085e+04 4.127e-10
 71.61388     52.9 1.110e+04 5.073e-10
 71.65368     54.1 1.129e+04 5.797e-10
 71.68714     55.1 1.139e+04 6.344e-10
 71.70704     55.8 1.138e+04 6.560e-10
 71.73328     56.8 1.142e+04 6.377e-10
 71.77308     57.8 1.146e+04 5.639e-10
 71.81288     58.8 1.151e+04 5.725e-10
 71.85268     59.6 1.163e+04 6.307e-10
 71.88876     60.1 1.163e+04 7.545e-10
 71.90866     60.6 1.164e+04 7.045e-10
 71.92223     61.3 1.172e+04 9.965e-10
 71.94204     62.1 1.187e+04 1.238e-09
 71.96194     62.8 1.195e+04 1.425e-09
 71.98184     63.3 1.202e+04 1.522e-09
 71.99933     63.6 1.207e+04 1.526e-09
 72.00928     63.9 1.228e+04 1.704e-09
 72.02164     64.0 1.226e+04 1.699e-09
 72.04154     64.1 1.221e+04 1.645e-09
 72.06144     64.1 1.225e+04 1.597e-09
 72.08134     64.0 1.232e+04 1.602e-09
 72.10014     63.8 1.242e+04 1.627e-09
 72.11009     64.2 1.259e+04 1.781e-09
 72.12114     64.1 1.265e+04 1.816e-09
 72.14104     64.0 1.264e+04 1.805e-09
 72.16094     63.9 1.259e+04 1.747e-09
 72.18084     63.7 1.262e+04 1.710e-09
 72.20074     63.4 1.270e+04 1.728e-09
 72.21090     62.7 1.295e+04 1.845e-09
 72.22085     63.4 1.310e+04 2.091e-09
 72.24054     62.6 1.353e+04 2.481e-09
 72.26044     61.6 1.402e+04 3.271e-09
 72.28034     60.9 1.439e+04 4.474e-09
 72.30025     60.7 1.472e+04 5.673e-09
 72.31171     60.4 1.505e+04 5.859e-09
 72.32166     61.0 1.570e+04 8.738e-09
 72.34005     60.9 1.577e+04 8.137e-09
 72.35995     60.2 1.586e+04 6.643e-09
 72.37985     58.6 1.576e+04 4.513e-09
 72.39975     56.1 1.500e+04 2.894e-09
 72.41252     53.8 1.361e+04 1.982e-09
 72.42247     54.9 1.487e+04 2.968e-09
 72.43955     52.7 1.333e+04 2.181e-09
 72.45945     51.6 1.267e+04 1.814e-09
 72.47935     51.0 1.262e+04 1.606e-09
 72.49925     50.8 1.249e+04 1.436e-09
 72.51333     50.6 1.235e+04 1.313e-09
 72.52328     50.8 1.268e+04 1.694e-09
 72.53905     50.9 1.246e+04 1.503e-09
 72.55895     51.2 1.221e+04 1.277e-09
 72.57885     51.2 1.219e+04 1.251e-09
 72.60880     52.7 1.190e+04 9.791e-10
 72.64870     54.3 1.155e+04 5.797e-10
 72.68850     55.6 1.131e+04 3.157e-10
 72.71515     56.9 1.105e+04 2.254e-10
 72.73505     57.2 1.138e+04 3.369e-10
 72.76810     58.9 1.111e+04 3.041e-10
 72.80790     61.0 1.108e+04 3.056e-10
 72.84770     62.9 1.108e+04 3.254e-10
 72.88750     64.6 1.113e+04 3.674e-10
 72.91677     66.1 1.123e+04 4.425e-10
 72.93667     66.0 1.179e+04 8.292e-10
 72.96711     67.2 1.212e+04 1.138e-09
 73.00691     68.3 1.238e+04 1.305e-09
 73.04671     68.2 1.263e+04 1.396e-09
 73.08651     67.7 1.280e+04 1.495e-09
 73.11839     66.7 1.312e+04 1.860e-09
 73.13829     66.2 1.277e+04 1.371e-09
 73.15606     65.3 1.289e+04 1.513e-09
 73.17586     65.0 1.284e+04 1.602e-09
 73.19576     64.8 1.263e+04 1.678e-09
 73.21567     64.8 1.245e+04 1.649e-09
 73.22896     64.9 1.223e+04 1.529e-09
 73.23891     64.7 1.222e+04 1.464e-09
 73.25547     64.9 1.211e+04 1.386e-09
 73.27537     65.3 1.198e+04 1.295e-09
 73.29527     65.7 1.170e+04 1.145e-09
 73.31517     66.1 1.149e+04 9.569e-10
 73.32977     66.3 1.137e+04 8.096e-10
 73.33972     66.4 1.161e+04 9.657e-10
 73.35497     66.5 1.166e+04 9.113e-10
 73.37487     66.8 1.172e+04 9.209e-10
 73.40482     66.7 1.211e+04 1.207e-09
 73.44472     67.5 1.224e+04 1.353e-09
 73.48452     68.5 1.228e+04 1.372e-09
 73.52163     69.6 1.226e+04 1.283e-09
 73.54153     68.7 1.278e+04 1.460e-09
 73.56412     69.6 1.246e+04 1.079e-09
 73.60392     70.7 1.216e+04 8.222e-10
 73.64372     72.2 1.193e+04 6.428e-10
 73.68352     74.0 1.174e+04 5.223e-10
 73.72325     76.0 1.159e+04 4.491e-10
 73.76305     77.5 1.150e+04 4.299e-10
 73.80292     79.9 1.151e+04 4.307e-10
 73.84272     82.1 1.155e+04 4.432e-10
 73.88253     84.1 1.163e+04 4.770e-10
 73.92233     86.1 1.175e+04 5.252e-10
 73.94477     87.9 1.181e+04 5.555e-10
 73.96467     87.4 1.158e+04 4.384e-10
 74.00193     89.0 1.151e+04 4.196e-10
 74.04173     90.6 1.147e+04 4.176e-10
 74.08153     92.0 1.150e+04 4.467e-10
 74.12133     93.1 1.169e+04 5.529e-10
 74.14640     94.0 1.208e+04 8.194e-10
 74.16630     94.0 1.183e+04 6.201e-10
 74.20093     94.9 1.228e+04 9.675e-10
 74.24073     95.5 1.269e+04 1.363e-09
 74.27908     95.9 1.289e+04 1.558e-09
 74.29898     97.1 1.276e+04 1.445e-09
 74.32033     97.6 1.295e+04 1.629e-09
 74.34802     97.9 1.297e+04 1.616e-09
 74.36792     98.8 1.291e+04 1.537e-09
 74.39994     99.2 1.290e+04 1.499e-09
 74.43974     99.7 1.272e+04 1.281e-09
 74.47954    100.5 1.231e+04 8.705e-10
 74.51934    101.3 1.184e+04 5.017e-10
 74.54964    102.1 1.143e+04 2.680e-10
 74.56954    103.1 1.167e+04 4.094e-10
 74.59894    104.1 1.133e+04 2.327e-10
 74.63874    105.2 1.108e+04 1.408e-10
 74.67854    106.4 1.093e+04 9.423e-11
 74.71834    107.9 1.084e+04 7.011e-11
 74.75126    109.4 1.073e+04 6.039e-11
 74.77116    110.4 1.087e+04 7.602e-11
 74.79795    111.9 1.076e+04 6.631e-11
 74.83775    113.5 1.075e+04 6.726e-11
 74.87755    115.1 1.074e+04 7.181e-11
 74.91735    116.7 1.075e+04 8.132e-11
 74.95288    118.3 1.072e+04 9.519e-11
 74.97278    119.1 1.078e+04 9.343e-11
 74.99695    120.7 1.071e+04 1.084e-10
 75.03675    122.4 1.066e+04 1.229e-10
 75.07655    124.0 1.057e+04 1.279e-10
 75.11635    125.7 1.053e+04 1.252e-10
 75.15450    127.5 1.046e+04 1.146e-10
 75.17440    128.2 1.055e+04 1.319e-10
 75.19595    129.9 1.047e+04 1.169e-10
 75.23575    131.7 1.042e+04 9.616e-11
 75.27556    133.4 1.040e+04 7.558e-11
 75.31536    135.0 1.040e+04 5.923e-11
 75.35516    136.5 1.036e+04 4.920e-11
 75.37602    138.2 1.029e+04 4.573e-11
 75.39592    139.0 1.034e+04 5.049e-11
 75.43476    140.7 1.030e+04 4.871e-11
 75.47456    142.6 1.030e+04 4.966e-11
 75.51436    144.5 1.032e+04 5.364e-11
 75.55416    146.3 1.036e+04 6.113e-11
 75.57764    148.2 1.040e+04 7.669e-11
 75.59754    149.0 1.044e+04 7.104e-11
 75.63376    150.8 1.048e+04 8.961e-11
 75.67356    152.5 1.060e+04 1.190e-10
 75.71337    154.1 1.073e+04 1.627e-10
 75.75317    155.6 1.090e+04 2.250e-10
 75.77926    156.8 1.111e+04 3.091e-10
 75.79916    157.5 1.113e+04 2.891e-10
 75.83277    158.6 1.138e+04 3.928e-10
 75.87257    159.3 1.162e+04 5.043e-10
 75.91237    159.6 1.177e+04 6.004e-10
 75.94212    159.7 1.182e+04 6.629e-10
 75.96193    160.0 1.183e+04 7.069e-10
 75.98079    160.4 1.178e+04 6.976e-10
 76.00078    161.0 1.198e+04 8.087e-10
 76.03177    161.2 1.197e+04 8.073e-10
 76.07157    161.0 1.191e+04 7.478e-10
 76.11137    160.5 1.183e+04 6.200e-10
 76.15117    159.9 1.174e+04 4.787e-10
 76.18250    159.2 1.165e+04 3.679e-10
 76.20241    159.6 1.172e+04 3.623e-10
 76.23078    158.8 1.157e+04 2.602e-10
 76.27058    158.4 1.137e+04 2.266e-10
 76.31038    158.4 1.126e+04 2.185e-10
 76.35018    158.5 1.120e+04 2.138e-10
 76.38413    158.9 1.114e+04 2.101e-10
 76.40403    159.1 1.108e+04 2.009e-10
 76.42978    159.6 1.104e+04 2.000e-10
 76.46958    160.0 1.097e+04 1.973e-10
 76.50938    160.4 1.090e+04 1.864e-10
 76.54918    160.9 1.086e+04 1.636e-10
 76.58575    161.5 1.082e+04 1.348e-10
 76.60565    161.8 1.080e+04 1.337e-10
 76.62879    162.5 1.076e+04 1.061e-10
 76.66859    163.2 1.073e+04 8.488e-11
 76.70839    164.0 1.064e+04 7.499e-11
 76.74819    165.1 1.061e+04 7.437e-11
 76.78737    166.3 1.061e+04 7.488e-11
 76.80727    166.8 1.060e+04 7.580e-11
 76.82779    168.1 1.064e+04 7.876e-11
 76.86759    169.4 1.074e+04 9.111e-11
 76.90739    170.7 1.086e+04 1.237e-10
 76.94719    172.0 1.102e+04 1.815e-10
 76.98699    173.2 1.122e+04 2.587e-10
 77.00889    174.1 1.143e+04 3.266e-10
 77.02879    174.7 1.142e+04 3.225e-10
 77.06659    175.2 1.156e+04 3.416e-10
 77.10640    175.4 1.156e+04 3.353e-10
 77.14620    175.7 1.153e+04 3.226e-10
 77.18600    175.8 1.152e+04 3.200e-10
 77.21051    175.8 1.162e+04 3.375e-10
 77.21800    176.7 1.152e+04 3.324e-10
 77.23329    176.7 1.151e+04 3.468e-10
 77.26560    176.4 1.163e+04 4.113e-10
 77.29535    175.8 1.180e+04 5.331e-10
 77.31112    175.3 1.193e+04 7.431e-10
 77.32108    175.7 1.187e+04 7.364e-10
 77.33506    175.3 1.198e+04 1.031e-09
 77.35496    174.5 1.214e+04 1.214e-09
 77.37486    173.1 1.217e+04 1.213e-09
 77.39476    171.3 1.210e+04 1.171e-09
 77.41194    169.2 1.178e+04 1.055e-09
 77.42189    169.5 1.187e+04 1.128e-09
 77.43456    167.0 1.141e+04 1.042e-09
 77.45446    164.4 1.129e+04 1.038e-09
 77.47436    161.4 1.136e+04 1.096e-09
 77.49426    157.3 1.186e+04 1.432e-09
 77.51275    152.2 1.323e+04 2.408e-09
 77.52270    152.3 1.319e+04 2.460e-09
 77.53406    147.3 1.423e+04 3.814e-09
 77.55396    142.8 1.453e+04 4.530e-09
 77.57386    138.5 1.441e+04 4.406e-09
 77.59376    134.9 1.380e+04 3.799e-09
 77.61356    131.9 1.276e+04 2.821e-09
 77.62351    131.8 1.224e+04 2.393e-09
 77.63356    129.3 1.123e+04 1.708e-09
 77.65346    127.0 1.039e+04 1.194e-09
 77.67336    125.0 9.939e+03 9.441e-10
 77.70331    123.0 9.332e+03 7.211e-10
 77.74321    120.9 8.885e+03 6.440e-10
 77.78301    119.8 8.919e+03 6.642e-10
 77.81537    119.3 9.093e+03 7.498e-10
 77.83527    118.9 8.560e+03 5.756e-10
 77.86261    118.8 8.671e+03 6.194e-10
 77.90241    118.7 8.692e+03 6.241e-10
 77.94221    118.8 8.673e+03 6.107e-10
 77.98201    119.1 8.568e+03 5.552e-10
 78.01699    119.3 8.330e+03 4.648e-10
 78.03689    119.4 7.829e+03 3.416e-10
 78.06162    119.6 7.819e+03 3.287e-10
 78.10142    119.8 7.950e+03 3.391e-10
 78.14122    120.1 8.165e+03 3.937e-10
 78.18102    120.4 8.874e+03 5.628e-10
 78.21861    120.9 9.533e+03 7.818e-10
 78.23851    121.1 8.693e+03 5.115e-10
 78.26062    121.5 9.059e+03 5.973e-10
 78.30042    121.9 9.439e+03 6.843e-10
 78.32928    121.8 9.638e+03 7.600e-10
 78.33913    122.0 9.332e+03 6.317e-10
 78.34998    121.9 9.390e+03 6.461e-10
 78.36988    121.8 9.534e+03 7.012e-10
 78.38978    121.9 9.711e+03 7.751e-10
 78.40968    122.0 9.885e+03 8.458e-10
 78.42958    122.2 1.005e+04 9.003e-10
 78.43994    122.3 1.019e+04 9.339e-10
 78.44989    122.6 1.001e+04 8.693e-10
 78.46938    122.7 1.021e+04 9.216e-10
 78.48928    122.8 1.039e+04 9.427e-10
 78.50918    122.9 1.048e+04 9.388e-10
 78.52908    122.9 1.054e+04 9.103e-10
 78.54075    122.9 1.062e+04 8.442e-10
 78.55070    123.3 1.075e+04 9.976e-10
 78.56888    123.2 1.082e+04 9.111e-10
 78.58878    123.1 1.081e+04 8.512e-10
 78.61873    123.4 1.068e+04 7.343e-10
 78.64176    123.9 1.079e+04 6.759e-10
 78.66166    123.9 1.118e+04 8.987e-10
 78.69843    124.2 1.122e+04 7.690e-10
 78.73823    124.7 1.132e+04 6.527e-10
 78.77803    125.2 1.140e+04 5.716e-10
 78.81783    125.8 1.138e+04 5.304e-10
 78.84338    126.6 1.135e+04 5.410e-10
 78.86328    125.2 1.136e+04 5.296e-10
 78.89743    125.3 1.138e+04 5.372e-10
 78.93724    124.7 1.165e+04 6.237e-10
 78.97704    123.2 1.232e+04 8.064e-10
 79.00679    121.0 1.247e+04 7.612e-10
 79.02659    118.9 1.281e+04 1.038e-09
 79.04480    117.7 1.292e+04 1.290e-09
 79.06480    116.2 1.254e+04 9.856e-10
 79.08639    114.3 1.310e+04 1.793e-09
 79.10619    113.3 1.324e+04 2.062e-09
 79.12609    112.3 1.336e+04 2.249e-09
 79.14561    111.6 1.357e+04 2.409e-09
 79.15556    112.4 1.306e+04 1.839e-09
 79.16590    112.0 1.315e+04 1.817e-09
 79.18580    111.9 1.320e+04 1.760e-09
 79.21574    111.3 1.351e+04 1.850e-09
 79.24662    111.9 1.312e+04 1.461e-09
 79.26652    113.4 1.263e+04 1.145e-09
 79.29544    114.4 1.236e+04 8.797e-10
 79.33524    115.8 1.205e+04 6.616e-10
 79.37505    117.4 1.172e+04 5.186e-10
 79.41485    119.5 1.137e+04 4.167e-10
 79.44824    121.8 1.108e+04 3.268e-10
 79.46814    122.2 1.092e+04 2.381e-10
 79.49445    124.5 1.073e+04 2.049e-10
 79.53425    126.9 1.062e+04 1.784e-10
 79.57405    129.4 1.057e+04 1.616e-10
 79.61385    131.8 1.056e+04 1.522e-10
 79.64986    134.2 1.055e+04 1.490e-10
 79.66976    134.7 1.045e+04 1.519e-10
 79.69345    137.2 1.051e+04 1.542e-10
 79.73325    139.5 1.055e+04 1.534e-10
 79.77305    141.9 1.056e+04 1.504e-10
 79.81285    144.1 1.059e+04 1.464e-10
 79.85148    146.3 1.061e+04 1.433e-10
 79.87138    146.5 1.064e+04 1.606e-10
 79.89246    148.6 1.066e+04 1.574e-10
 79.93226    150.8 1.066e+04 1.579e-10
 79.97206    153.0 1.068e+04 1.642e-10
 80.01186    155.3 1.079e+04 1.879e-10
 80.05166    157.9 1.110e+04 2.375e-10
 80.07300    159.9 1.142e+04 3.061e-10
 80.09290    159.6 1.139e+04 3.146e-10
 80.12121    160.3 1.149e+04 3.627e-10
 80.13756    161.1 1.162e+04 4.528e-10
 80.14751    161.1 1.150e+04 4.035e-10
 80.16092    161.9 1.174e+04 5.925e-10
 80.17362    162.6 1.225e+04 9.755e-10
 80.18357    162.6 1.226e+04 9.707e-10
 80.20072    162.9 1.306e+04 1.694e-09
 80.22062    163.3 1.407e+04 2.975e-09
 80.24052    163.8 1.519e+04 4.954e-09
 80.26042    164.0 1.611e+04 6.716e-09
 80.27443    163.8 1.638e+04 6.839e-09
 80.28438    163.0 1.606e+04 6.290e-09
 80.30022    162.8 1.603e+04 5.946e-09
 80.32012    162.6 1.579e+04 4.711e-09
 80.34002    162.4 1.528e+04 3.146e-09
 80.35992    161.5 1.462e+04 1.891e-09
 80.37524    160.2 1.365e+04 1.285e-09
 80.38519    159.9 1.378e+04 1.400e-09
 80.39972    159.4 1.350e+04 1.320e-09
 80.41962    159.3 1.354e+04 1.340e-09
 80.43952    159.2 1.374e+04 1.481e-09
 80.45942    159.2 1.419e+04 1.898e-09
 80.47605    159.5 1.470e+04 2.684e-09
 80.48600    159.7 1.458e+04 2.762e-09
 80.49922    160.5 1.500e+04 3.801e-09
 80.51912    161.7 1.536e+04 4.952e-09
 80.53903    162.9 1.560e+04 5.442e-09
 80.55893    163.7 1.560e+04 5.350e-09
 80.57686    164.7 1.526e+04 4.697e-09
 80.58681    164.9 1.483e+04 4.325e-09
 80.59873    166.0 1.425e+04 3.293e-09
 80.61863    167.1 1.351e+04 2.241e-09
 80.63853    167.6 1.272e+04 1.417e-09
 80.65843    167.7 1.195e+04 8.876e-10
 80.67767    167.7 1.128e+04 6.263e-10
 80.68762    168.1 1.111e+04 6.130e-10
 80.69823    168.5 1.075e+04 5.537e-10
 80.71813    169.3 1.074e+04 5.524e-10
 80.73803    170.5 1.075e+04 5.545e-10
 80.75793    171.8 1.086e+04 5.681e-10
 80.77783    172.9 1.111e+04 6.137e-10
 80.78843    173.9 1.141e+04 7.009e-10
 80.79838    174.4 1.116e+04 6.800e-10
 80.81763    175.4 1.149e+04 8.053e-10
 80.83753    176.5 1.208e+04 1.035e-09
 80.85743    176.8 1.284e+04 1.434e-09
 80.87733    176.9 1.417e+04 2.358e-09
 80.88924    176.7 1.569e+04 4.196e-09
 80.89919    177.3 1.561e+04 3.891e-09
 80.91713    177.0 1.694e+04 6.323e-09
 80.93201    176.2 1.776e+04 8.281e-09
 80.93955    175.1 1.864e+04 1.089e-08
 80.94452    175.7 1.854e+04 1.041e-08
 80.95186    174.4 1.954e+04 1.416e-08
 80.96181    173.1 2.044e+04 1.939e-08
 80.97176    172.0 2.117e+04 2.492e-08
 80.98171    170.5 2.124e+04 2.537e-08
 80.98995    169.0 2.111e+04 2.424e-08
 80.99493    169.6 2.156e+04 2.771e-08
 81.00161    168.3 2.127e+04 2.542e-08
 81.01156    167.0 2.060e+04 1.825e-08
 81.02151    166.3 2.017e+04 1.498e-08
 81.03649    165.2 1.960e+04 8.846e-09
 81.05644    161.3 1.765e+04 2.362e-09
 81.07634    153.4 1.267e+04 6.099e-10
 81.09086    148.1 1.035e+04 5.214e-10
 81.10081    149.7 1.069e+04 5.723e-10
 81.11614    148.5 1.036e+04 5.714e-10
 81.13604    148.6 1.043e+04 6.065e-10
 81.15594    148.6 1.064e+04 6.992e-10
 81.17584    148.7 1.090e+04 8.233e-10
 81.19167    148.5 1.122e+04 9.787e-10
 81.20162    149.0 1.139e+04 1.050e-09
 81.21564    148.5 1.180e+04 1.290e-09
 81.23554    147.9 1.216e+04 1.553e-09
 81.25544    147.4 1.242e+04 1.746e-09
 81.27534    146.7 1.249e+04 1.760e-09
 81.29248    145.9 1.247e+04 1.708e-09
 81.30243    146.7 1.274e+04 1.930e-09
 81.31514    145.7 1.260e+04 1.654e-09
 81.33504    144.1 1.250e+04 1.411e-09
 81.35494    142.0 1.252e+04 1.381e-09
 81.37484    139.7 1.259e+04 1.436e-09
 81.39329    137.8 1.274e+04 1.642e-09
 81.40324    138.0 1.284e+04 1.718e-09
 81.41464    136.6 1.292e+04 1.915e-09
 81.43454    135.7 1.290e+04 1.909e-09
 81.45445    135.2 1.275e+04 1.761e-09
 81.47435    134.8 1.253e+04 1.385e-09
 81.49410    133.7 1.250e+04 1.038e-09
 81.50405    134.0 1.265e+04 1.166e-09
 81.51415    132.3 1.281e+04 1.086e-09
 81.53405    129.4 1.299e+04 1.154e-09
 81.55395    125.9 1.349e+04 1.579e-09
 81.57385    123.6 1.395e+04 2.575e-09
 81.59375    122.6 1.431e+04 3.561e-09
 81.60472    121.6 1.440e+04 3.629e-09
 81.60588    121.9 1.501e+04 4.681e-09
 81.61482    122.3 1.558e+04 5.235e-09
 81.63355    120.5 1.559e+04 5.004e-09
 81.65345    118.0 1.550e+04 3.998e-09
 81.67335    113.6 1.500e+04 2.912e-09
 81.69325    108.4 1.398e+04 2.434e-09
 81.70568    104.6 1.322e+04 2.385e-09
 81.71563    104.0 1.330e+04 2.580e-09
 81.73305    102.3 1.282e+04 2.297e-09
 81.75295    101.2 1.259e+04 1.824e-09
 81.77285     99.3 1.247e+04 1.358e-09
 81.79275     96.2 1.221e+04 1.107e-09
 81.80649     92.9 1.202e+04 1.101e-09
 81.81644     89.9 1.215e+04 1.163e-09
 81.83255     87.1 1.222e+04 1.338e-09
 81.85245     85.4 1.252e+04 1.796e-09
 81.87235     84.8 1.307e+04 2.538e-09
 81.89225     84.4 1.371e+04 3.030e-09
 81.90730     83.9 1.403e+04 3.059e-09
 81.91725     77.9 1.707e+04 5.159e-09
 81.93206     77.1 1.714e+04 5.147e-09
 81.95196     76.5 1.711e+04 5.156e-09
 81.97186     76.1 1.709e+04 5.488e-09
 81.99176     76.0 1.729e+04 6.307e-09
 82.00811     76.3 1.765e+04 7.598e-09
 82.01806     72.6 1.885e+04 1.194e-08
 82.03156     73.4 1.911e+04 1.268e-08
 82.05146     74.1 1.933e+04 1.334e-08
 82.07136     74.8 1.954e+04 1.405e-08
 82.09126     75.5 1.975e+04 1.455e-08
 82.10892     76.0 1.983e+04 1.425e-08
 82.11887     73.2 1.896e+04 9.503e-09
 82.13106     73.7 1.859e+04 7.596e-09
 82.15096     74.0 1.806e+04 5.628e-09
 82.17086     74.1 1.723e+04 3.931e-09
 82.19076     74.0 1.617e+04 2.650e-09
 82.20973     73.8 1.485e+04 1.813e-09
 82.21968     69.9 1.079e+04 7.747e-10
 82.23056     69.8 1.013e+04 7.195e-10
 82.25046     70.0 1.012e+04 6.409e-10
 82.27036     70.3 9.902e+03 5.782e-10
 82.29026     70.6 9.575e+03 4.977e-10
 82.31064     72.3 1.056e+04 6.004e-10
 82.33063     71.7 1.030e+04 4.591e-10
 82.36011     73.3 9.942e+03 3.362e-10
 82.39991     75.0 9.631e+03 2.296e-10
 82.43971     76.7 9.467e+03 1.477e-10
 82.47951     78.0 9.289e+03 1.025e-10
 82.51235     79.7 9.159e+03 9.464e-11
 82.53226     80.2 9.152e+03 9.637e-11
 82.55911     82.2 9.152e+03 9.752e-11
 82.59892     84.1 9.201e+03 1.064e-10
 82.63872     86.0 9.390e+03 1.321e-10
 82.67852     87.8 9.741e+03 1.813e-10
 82.71398     89.1 1.014e+04 2.535e-10
 82.73388     88.6 1.014e+04 2.382e-10
 82.74807     89.1 1.028e+04 2.802e-10
 82.76787     89.0 1.048e+04 3.371e-10
 82.78777     88.6 1.092e+04 4.568e-10
 82.80767     87.3 1.164e+04 7.183e-10
 82.82454     86.0 1.240e+04 1.232e-09
 82.83449     84.5 1.286e+04 1.600e-09
 82.84748     84.6 1.345e+04 2.551e-09
 82.86738     84.9 1.386e+04 3.151e-09
 82.88728     84.7 1.391e+04 3.104e-09
 82.90718     84.4 1.379e+04 2.733e-09
 82.92535     83.6 1.340e+04 2.078e-09
 82.93530     80.8 1.320e+04 1.755e-09
 82.94698     79.6 1.260e+04 1.399e-09
 82.96688     78.8 1.220e+04 1.224e-09
 82.99683     77.0 1.198e+04 1.201e-09
 83.03672     77.9 1.161e+04 1.098e-09
 83.06212     79.6 1.137e+04 9.976e-10
 83.08202     80.0 1.074e+04 7.013e-10
 83.11633     81.4 1.057e+04 6.234e-10
 83.13712     82.6 1.044e+04 5.879e-10
 83.15702     80.4 1.067e+04 6.730e-10
 83.19593     81.2 1.074e+04 6.852e-10
 83.23573     82.2 1.090e+04 7.421e-10
 83.27553     82.5 1.125e+04 8.830e-10
 83.31533     81.9 1.171e+04 1.125e-09
 83.33874     80.7 1.243e+04 1.598e-09
 83.35864     77.7 1.297e+04 1.983e-09
 83.38488     76.7 1.340e+04 2.302e-09
 83.40469     75.8 1.347e+04 2.290e-09
 83.43464     73.5 1.317e+04 1.903e-09
 83.47453     70.9 1.248e+04 1.190e-09
 83.51434     67.9 1.121e+04 6.345e-10
 83.54036     65.4 9.834e+03 4.006e-10
 83.56026     63.2 9.385e+03 3.066e-10
 83.59394     62.7 8.961e+03 2.490e-10
 83.63374     62.6 8.755e+03 2.152e-10
 83.67354     62.8 8.551e+03 1.851e-10
 83.71334     62.9 8.408e+03 1.703e-10
 83.74198     62.9 8.419e+03 1.756e-10
 83.76188     62.0 8.505e+03 1.929e-10
 83.79294     61.8 8.724e+03 2.374e-10
 83.83274     61.4 9.180e+03 3.414e-10
 83.86250     60.4 9.843e+03 5.162e-10
 83.88230     60.2 1.000e+04 5.826e-10
 83.90220     59.4 1.065e+04 8.073e-10
 83.92210     59.1 1.085e+04 8.951e-10
 83.94200     57.7 1.161e+04 1.190e-09
 83.95336     57.1 1.179e+04 1.323e-09
 83.96340     57.3 1.189e+04 1.374e-09
 83.99195     55.5 1.220e+04 1.531e-09
 84.03175     53.4 1.214e+04 1.504e-09
 84.07155     51.0 1.210e+04 1.396e-09
 84.11135     47.5 1.241e+04 1.493e-09
 84.14522     44.1 1.271e+04 1.845e-09
 84.16512     44.5 1.176e+04 1.212e-09
 84.19095     42.6 1.192e+04 1.505e-09
 84.22070     41.9 1.174e+04 1.558e-09
 84.24051     42.0 1.152e+04 1.362e-09
 84.25579     41.7 1.130e+04 1.061e-09
 84.26574     42.1 1.135e+04 1.213e-09
 84.28031     41.6 1.117e+04 9.575e-10
 84.30021     40.6 1.092e+04 7.526e-10
 84.32011     37.6 1.141e+04 6.295e-10
 84.34001     29.7 1.614e+04 8.860e-10
 84.35660     25.2 1.579e+04 2.168e-09
 84.36655     26.9 1.656e+04 2.200e-09
 84.37981     25.6 1.520e+04 3.887e-09
 84.39971     26.5 1.438e+04 4.320e-09
 84.41961     26.9 1.395e+04 3.485e-09
 84.43951     26.6 1.349e+04 2.247e-09
 84.45741     23.9 1.360e+04 1.068e-09
 84.46736     26.2 1.413e+04 1.400e-09
 84.47931     21.6 1.271e+04 6.119e-10
 84.49921     17.7 1.054e+04 3.918e-10
 84.51911     16.5 1.022e+04 3.948e-10
 84.53901     17.0 1.067e+04 5.610e-10
 84.55822     16.2 1.103e+04 6.738e-10
 84.56817     17.1 1.109e+04 6.895e-10
 84.57881     16.4 1.142e+04 9.168e-10
 84.59871     16.0 1.173e+04 1.092e-09
 84.62866     16.9 1.190e+04 1.434e-09
 84.66856     17.4 1.169e+04 1.213e-09
 84.70836     17.4 1.123e+04 9.383e-10
 84.74816     17.7 1.090e+04 7.599e-10
 84.76989     18.6 1.062e+04 6.812e-10
 84.77974     18.9 1.062e+04 6.989e-10
 84.79772     19.5 1.042e+04 6.594e-10
 84.81762     20.3 1.028e+04 5.961e-10
 84.83752     21.2 1.017e+04 5.546e-10
 84.85742     22.0 1.015e+04 5.227e-10
 84.87060     22.7 1.017e+04 5.122e-10
 84.88055     23.1 1.021e+04 5.276e-10
 84.89722     24.0 1.019e+04 5.067e-10
 84.91712     24.9 1.023e+04 5.096e-10
 84.94707     26.1 1.023e+04 4.978e-10
 84.97161     27.8 1.092e+04 7.208e-10
 84.99151     28.5 1.058e+04 6.168e-10
 85.02677     30.4 1.165e+04 9.632e-10
 85.05652     30.4 1.273e+04 1.459e-09
 85.07222     29.6 1.399e+04 2.265e-09
 85.08217     29.4 1.385e+04 2.184e-09
 85.09622     29.8 1.463e+04 3.314e-09
 85.11613     31.2 1.530e+04 4.849e-09
 85.13603     30.4 1.706e+04 7.002e-09
 85.15090     26.6 1.887e+04 8.032e-09
 85.16080     26.2 1.862e+04 7.767e-09
 85.17075     25.3 1.867e+04 7.605e-09
 85.17791     21.2 1.932e+04 6.564e-09
 85.18288     21.1 1.937e+04 6.285e-09
 85.19065     13.3 2.287e+04 8.004e-09
 85.20060      7.5 2.481e+04 8.418e-09
 85.21055      1.2 2.416e+04 6.911e-09
 85.22050     -5.0 2.134e+04 4.819e-09
 85.22831    -12.9 1.812e+04 4.257e-09
 85.23329    -13.2 1.856e+04 4.443e-09
 85.24041    -15.3 1.834e+04 5.005e-09
 85.25036    -17.6 1.783e+04 5.467e-09
 85.25759    -18.6 1.831e+04 6.107e-09
 85.26256    -20.9 1.913e+04 8.904e-09
 85.27379    -20.7 1.828e+04 7.379e-09
 85.28379    -21.9 1.872e+04 8.068e-09
 85.29523    -24.4 1.788e+04 6.683e-09
 85.31513    -26.4 1.657e+04 5.269e-09
 85.33503    -27.7 1.549e+04 4.073e-09
 85.35493    -28.4 1.436e+04 3.037e-09
 85.37465    -28.6 1.328e+04 2.254e-09
 85.38460    -28.9 1.318e+04 2.096e-09
 85.39473    -29.0 1.223e+04 1.449e-09
 85.42468    -28.5 1.172e+04 1.112e-09
 85.46458    -27.3 1.084e+04 7.020e-10
 85.50438    -25.3 9.644e+03 3.526e-10
 85.54418    -23.9 8.499e+03 1.719e-10
 85.57647    -22.5 8.011e+03 1.085e-10
 85.59637    -23.0 7.801e+03 9.072e-11
 85.62378    -20.7 7.670e+03 7.875e-11
 85.66358    -18.3 7.585e+03 7.109e-11
 85.70338    -15.9 7.560e+03 6.968e-11
 85.74318    -13.4 7.619e+03 7.401e-11
 85.77809    -10.8 7.611e+03 7.521e-11
 85.79799    -10.6 7.546e+03 7.170e-11
 85.82279     -8.1 7.511e+03 7.128e-11
 85.86259     -5.6 7.528e+03 6.839e-11
 85.90239     -3.4 7.546e+03 6.630e-11
 85.94219     -1.4 7.625e+03 6.725e-11
 85.97653      0.4 7.695e+03 7.862e-11
 85.99416      0.6 7.617e+03 6.432e-11
 85.99961      1.1 7.615e+03 7.112e-11
 86.02179      3.1 7.675e+03 8.845e-11
 86.06159      5.2 7.835e+03 1.100e-10
 86.10139      7.0 8.018e+03 1.305e-10
 86.14119      8.4 8.125e+03 1.521e-10
 86.18099     10.0 8.148e+03 1.750e-10
 86.20123     11.8 8.115e+03 1.763e-10
 86.22113     12.6 8.230e+03 1.972e-10
 86.26060     14.5 8.143e+03 1.561e-10
 86.30040     16.0 7.978e+03 1.106e-10
 86.34020     17.3 7.835e+03 7.607e-11
 86.38000     18.2 7.853e+03 6.014e-11
 86.40285     19.0 7.927e+03 6.556e-11
 86.42275     20.4 7.932e+03 6.791e-11
 86.45960     21.1 8.095e+03 8.911e-11
 86.49940     22.2 8.294e+03 1.433e-10
 86.53920     23.8 8.730e+03 2.345e-10
 86.57900     25.5 9.185e+03 3.269e-10
 86.60447     27.0 9.446e+03 3.824e-10
 86.61433     27.4 9.599e+03 4.565e-10
 86.62856     27.6 9.653e+03 4.657e-10
 86.65851     28.8 9.822e+03 5.305e-10
 86.69840     30.3 9.775e+03 4.919e-10
 86.73821     31.6 9.711e+03 4.389e-10
 86.77801     33.2 9.706e+03 4.190e-10
 86.80610     35.1 9.769e+03 4.220e-10
 86.82600     35.8 9.901e+03 4.383e-10
 86.85761     37.9 1.003e+04 4.701e-10
 86.89741     40.0 1.022e+04 5.154e-10
 86.93721     41.9 1.047e+04 5.768e-10
 86.97701     44.0 1.089e+04 7.128e-10
 87.00676     45.1 1.112e+04 8.082e-10
 87.01747     45.7 1.137e+04 8.953e-10
 87.02752     46.4 1.128e+04 8.586e-10
 87.04656     46.6 1.165e+04 9.940e-10
 87.06637     46.7 1.205e+04 1.193e-09
 87.08627     47.0 1.237e+04 1.431e-09
 87.10617     47.4 1.252e+04 1.595e-09
 87.11828     48.2 1.250e+04 1.582e-09
 87.12823     48.7 1.253e+04 1.556e-09
 87.14597     49.2 1.259e+04 1.567e-09
 87.16587     50.1 1.247e+04 1.482e-09
 87.18577     50.2 1.234e+04 1.299e-09
 87.20924     50.9 1.174e+04 7.886e-10
 87.22924     51.7 1.252e+04 1.386e-09
 87.25562     53.2 1.177e+04 8.048e-10
 87.28537     54.3 1.127e+04 4.487e-10
 87.30517     54.2 1.115e+04 3.690e-10
 87.33512     55.3 1.109e+04 3.185e-10
 87.37502     56.3 1.080e+04 2.362e-10
 87.41096     57.5 1.080e+04 2.255e-10
 87.43086     57.9 1.099e+04 2.422e-10
 87.45462     58.9 1.108e+04 2.486e-10
 87.49442     59.6 1.137e+04 2.899e-10
 87.53422     60.2 1.176e+04 3.743e-10
 87.56398     60.0 1.178e+04 3.552e-10
 87.58378     59.9 1.189e+04 3.664e-10
 87.60368     59.8 1.199e+04 3.920e-10
 87.62233     59.4 1.208e+04 4.204e-10
 87.63228     59.7 1.183e+04 3.753e-10
 87.64348     59.2 1.202e+04 4.020e-10
 87.66338     58.3 1.227e+04 4.587e-10
 87.68328     57.0 1.251e+04 5.788e-10
 87.70318     55.5 1.271e+04 7.941e-10
 87.72308     54.7 1.285e+04 1.088e-09
 87.74298     54.2 1.298e+04 1.272e-09
 87.76288     53.6 1.301e+04 1.284e-09
 87.78278     52.9 1.292e+04 1.192e-09
 87.80268     51.8 1.268e+04 9.938e-10
 87.82258     50.6 1.231e+04 7.947e-10
 87.83390     49.4 1.195e+04 6.334e-10
 87.84386     49.0 1.207e+04 7.615e-10
 87.86239     47.8 1.195e+04 6.277e-10
 87.88229     45.7 1.211e+04 6.164e-10
 87.90219     45.4 1.206e+04 6.066e-10
 87.93213     43.4 1.214e+04 6.705e-10
 87.96198     42.2 1.188e+04 6.082e-10
 87.98179     41.6 1.187e+04 5.683e-10
 88.00169     40.5 1.189e+04 5.048e-10
 88.02159     39.2 1.180e+04 4.337e-10
 88.03562     37.8 1.164e+04 4.270e-10
 88.05562     35.2 1.137e+04 3.947e-10
 88.09144     33.8 1.100e+04 3.468e-10
 88.13124     32.2 1.100e+04 3.495e-10
 88.17104     31.2 1.098e+04 3.866e-10
 88.21084     30.6 1.098e+04 4.367e-10
 88.23734     30.8 1.083e+04 4.189e-10
 88.25724     29.8 1.088e+04 4.171e-10
 88.29044     29.2 1.075e+04 3.647e-10
 88.33024     28.6 1.064e+04 3.523e-10
 88.37004     27.9 1.079e+04 3.956e-10
 88.39979     27.3 1.083e+04 3.770e-10
 88.41960     27.0 1.092e+04 3.828e-10
 88.43877     26.0 1.121e+04 4.347e-10
 88.44872     25.5 1.121e+04 4.359e-10
 88.45940     23.5 1.173e+04 5.879e-10
 88.47930     21.4 1.210e+04 9.166e-10
 88.49920     20.3 1.213e+04 1.382e-09
 88.51910     20.4 1.236e+04 1.954e-09
 88.53900     20.7 1.278e+04 2.290e-09
 88.54953     20.2 1.314e+04 2.401e-09
 88.55948     19.2 1.347e+04 2.797e-09
 88.57880     17.8 1.357e+04 2.849e-09
 88.59870     15.7 1.362e+04 2.885e-09
 88.61860     13.1 1.395e+04 3.335e-09
 88.63850     11.2 1.441e+04 4.066e-09
 88.65034      9.9 1.478e+04 4.574e-09
 88.66029      9.0 1.429e+04 3.279e-09
 88.67830      7.3 1.417e+04 2.943e-09
 88.69820      5.2 1.338e+04 2.205e-09
 88.71810      2.6 1.181e+04 1.488e-09
 88.73800      1.0 1.112e+04 1.120e-09
 88.75115     -0.2 1.026e+04 7.318e-10
 88.76110     -0.4 1.029e+04 7.337e-10
 88.77781      0.0 1.014e+04 6.439e-10
 88.80775     -1.1 9.307e+03 3.893e-10
 88.84220     -1.2 8.805e+03 2.772e-10
 88.86211     -2.0 8.969e+03 3.059e-10
 88.88745     -1.1 8.725e+03 2.647e-10
 88.91085     -0.2 8.656e+03 2.586e-10
 88.93075      0.3 8.999e+03 3.327e-10
 88.96705      1.3 9.034e+03 3.560e-10
 89.00686      2.5 9.127e+03 3.929e-10
 89.04383      4.1 9.269e+03 4.189e-10
 89.06373      3.6 9.193e+03 3.917e-10
 89.08646      5.3 9.060e+03 3.424e-10
 89.12626      6.8 8.936e+03 2.755e-10
 89.16606      7.7 8.861e+03 2.323e-10
 89.20586      8.5 8.819e+03 2.254e-10
 89.24545      9.6 8.845e+03 2.689e-10
 89.26535      8.6 8.959e+03 2.928e-10
 89.28546     10.4 9.240e+03 3.792e-10
 89.32526     11.7 9.750e+03 4.609e-10
 89.35502     12.2 1.002e+04 5.302e-10
 89.36596     12.4 1.011e+04 5.497e-10
 89.37591     11.7 1.029e+04 6.335e-10
 89.39472     11.0 1.059e+04 8.313e-10
 89.41462     11.3 1.086e+04 9.566e-10
 89.43452     11.3 1.109e+04 1.222e-09
 89.45442     11.7 1.156e+04 1.459e-09
 89.46677     11.5 1.202e+04 1.706e-09
 89.47672     10.6 1.224e+04 1.874e-09
 89.49422      8.5 1.349e+04 2.469e-09
 89.51412      5.9 1.464e+04 3.404e-09
 89.53402      4.2 1.469e+04 4.444e-09
 89.55392      3.7 1.484e+04 5.346e-09
 89.56758      3.1 1.530e+04 5.526e-09
 89.57753      2.6 1.538e+04 4.919e-09
 89.59372      0.3 1.654e+04 4.294e-09
 89.61362     -4.1 1.649e+04 3.747e-09
 89.63352     -8.1 1.616e+04 3.697e-09
 89.65342    -10.5 1.594e+04 4.494e-09
 89.66839    -11.1 1.562e+04 5.181e-09
 89.67834    -11.0 1.447e+04 3.499e-09
 89.69323    -10.9 1.412e+04 3.375e-09
 89.71313    -10.5 1.378e+04 2.729e-09
 89.73303    -10.8 1.309e+04 1.811e-09
 89.75293    -12.0 1.189e+04 1.075e-09
 89.76920    -12.8 1.082e+04 6.767e-10
 89.77915    -13.0 1.047e+04 5.589e-10
 89.79273    -12.6 1.017e+04 4.377e-10
 89.81263    -11.9 9.985e+03 3.553e-10
 89.83253    -11.3 9.807e+03 3.018e-10
 89.85243    -11.0 9.706e+03 2.894e-10
 89.87011     -8.4 9.692e+03 2.541e-10
 89.89011     -8.1 9.480e+03 2.503e-10
 89.92228     -6.0 9.244e+03 1.861e-10
 89.96208     -3.9 9.057e+03 1.343e-10
 90.00188     -1.9 8.997e+03 1.039e-10
 90.04168      0.1 9.010e+03 9.080e-11
 90.07183      2.2 9.059e+03 8.717e-11
 90.09173      2.0 9.071e+03 8.553e-11
 90.12128      4.0 9.108e+03 8.995e-11
 90.16108      6.2 9.140e+03 1.006e-10
 90.20088      8.7 9.164e+03 1.050e-10
 90.24068     11.2 9.199e+03 1.029e-10
 90.27345     13.5 9.321e+03 9.514e-11
 90.29335     13.0 9.452e+03 6.796e-11
 90.32028     14.7 9.489e+03 7.069e-11
 90.36008     16.6 9.410e+03 7.733e-11
 90.39989     18.9 9.429e+03 8.066e-11
 90.43969     21.1 9.501e+03 8.400e-11
 90.47507     23.4 9.561e+03 9.127e-11
 90.49497     23.2 9.606e+03 8.984e-11
 90.51929     25.4 9.686e+03 9.451e-11
 90.55909     27.5 9.765e+03 1.052e-10
 90.59889     29.6 9.804e+03 1.233e-10
 90.63869     31.9 9.883e+03 1.481e-10
 90.67669     34.2 9.969e+03 1.778e-10
 90.69659     34.3 9.910e+03 1.535e-10
 90.71829     36.6 1.003e+04 1.694e-10
 90.75809     38.7 1.012e+04 1.867e-10
 90.79789     40.7 1.022e+04 2.142e-10
 90.83770     42.5 1.032e+04 2.621e-10
 90.87750     44.4 1.045e+04 3.283e-10
 90.89821     46.2 1.056e+04 4.010e-10
 90.91812     47.0 1.043e+04 3.144e-10
 90.95710     48.8 1.053e+04 3.615e-10
 90.99690     50.4 1.060e+04 4.096e-10
 91.03670     52.1 1.066e+04 4.512e-10
 91.07650     53.7 1.065e+04 4.585e-10
 91.09984     55.3 1.062e+04 4.444e-10
 91.11974     55.8 1.099e+04 6.264e-10
 91.15610     57.3 1.096e+04 6.111e-10
 91.19590     58.8 1.083e+04 5.538e-10
 91.23570     60.3 1.066e+04 4.781e-10
 91.27550     62.0 1.047e+04 3.869e-10
 91.30146     63.7 1.025e+04 3.120e-10
 91.32136     64.3 1.042e+04 3.452e-10
 91.35511     66.1 1.016e+04 2.720e-10
 91.39491     68.0 9.969e+03 2.385e-10
 91.43471     70.1 9.844e+03 2.238e-10
 91.47451     72.2 9.756e+03 2.124e-10
 91.50308     74.4 9.656e+03 1.913e-10
 91.52298     74.9 9.862e+03 2.098e-10
 91.55411     77.0 9.723e+03 1.809e-10
 91.59391     79.1 9.584e+03 1.511e-10
 91.63371     81.1 9.458e+03 1.282e-10
 91.67351     83.1 9.366e+03 1.187e-10
 91.70470     85.1 9.367e+03 1.195e-10
 91.72460     85.9 9.587e+03 1.632e-10
 91.75312     87.9 9.596e+03 1.673e-10
 91.79292     89.5 9.684e+03 1.847e-10
 91.82526     90.8 9.877e+03 2.250e-10
 91.84516     90.4 1.019e+04 3.489e-10
 91.87252     91.3 1.049e+04 4.317e-10
 91.90632     91.9 1.082e+04 5.319e-10
 91.92622     92.4 1.104e+04 6.093e-10
 91.95212     92.6 1.120e+04 6.629e-10
 91.99192     92.6 1.119e+04 6.538e-10
 92.03172     92.6 1.103e+04 5.889e-10
 92.07152     92.8 1.074e+04 4.779e-10
 92.10794     93.2 1.045e+04 3.718e-10
 92.12784     93.9 1.072e+04 5.038e-10
 92.15112     94.6 1.054e+04 4.172e-10
 92.19092     95.5 1.040e+04 3.374e-10
 92.23073     96.4 1.031e+04 2.708e-10
 92.27053     97.2 1.026e+04 2.192e-10
 92.30956     97.9 1.023e+04 1.847e-10
 92.32946     98.8 1.047e+04 2.309e-10
 92.35013     99.4 1.036e+04 1.907e-10
 92.38993    100.0 1.034e+04 1.886e-10
 92.42973    100.6 1.038e+04 1.982e-10
 92.46953    101.2 1.056e+04 2.381e-10
 92.50933    101.8 1.083e+04 3.151e-10
 92.53108    102.3 1.113e+04 4.348e-10
 92.55098    103.0 1.128e+04 4.446e-10
 92.58893    103.5 1.166e+04 6.185e-10
 92.62873    103.9 1.211e+04 8.732e-10
 92.66854    104.2 1.260e+04 1.194e-09
 92.70834    104.2 1.291e+04 1.365e-09
 92.73270    103.9 1.289e+04 1.345e-09
 92.75260    103.9 1.304e+04 1.405e-09
 92.78794    103.7 1.302e+04 1.329e-09
 92.82774    103.6 1.304e+04 1.222e-09
 92.86754    104.1 1.306e+04 1.151e-09
 92.90734    105.1 1.298e+04 1.083e-09
 92.93423    105.2 1.313e+04 1.164e-09
 92.94408    104.8 1.356e+04 1.411e-09
 92.95690    105.4 1.347e+04 1.365e-09
 92.97680    106.1 1.333e+04 1.300e-09
 92.99670    106.8 1.322e+04 1.235e-09
 93.01660    107.6 1.312e+04 1.178e-09
 93.03494    108.4 1.305e+04 1.148e-09
 93.04489    107.9 1.326e+04 1.221e-09
 93.05640    108.6 1.327e+04 1.224e-09
 93.07630    109.2 1.334e+04 1.252e-09
 93.09620    109.4 1.353e+04 1.354e-09
 93.11610    109.5 1.375e+04 1.565e-09
 93.13575    109.7 1.398e+04 1.914e-09
 93.14570    109.0 1.422e+04 2.406e-09
 93.15590    109.5 1.437e+04 2.880e-09
 93.17580    110.1 1.452e+04 3.097e-09
 93.19570    110.6 1.450e+04 2.944e-09
 93.21560    110.9 1.435e+04 2.554e-09
 93.23550    111.0 1.402e+04 2.003e-09
 93.24651    110.8 1.353e+04 1.448e-09
 93.25646    110.0 1.331e+04 1.230e-09
 93.27530    109.5 1.268e+04 8.782e-10
 93.29222    109.1 1.205e+04 6.576e-10
 93.30218    110.2 1.284e+04 9.202e-10
 93.31510    109.6 1.210e+04 6.609e-10
 93.33500    109.6 1.154e+04 5.030e-10
 93.34732    109.7 1.130e+04 4.303e-10
 93.35727    109.8 1.127e+04 4.395e-10
 93.38485    111.0 1.117e+04 3.920e-10
 93.42475    112.5 1.096e+04 3.310e-10
 93.46455    113.9 1.083e+04 3.045e-10
 93.50435    115.2 1.083e+04 3.129e-10
 93.53919    116.4 1.082e+04 3.318e-10
 93.55909    117.5 1.100e+04 3.723e-10
 93.58396    118.7 1.095e+04 3.797e-10
 93.62376    120.2 1.085e+04 4.101e-10
 93.66356    121.7 1.084e+04 4.997e-10
 93.70336    123.1 1.119e+04 6.839e-10
 93.74081    124.2 1.165e+04 9.379e-10
 93.76071    124.3 1.205e+04 1.130e-09
 93.78296    124.3 1.238e+04 1.356e-09
 93.82276    123.8 1.245e+04 1.368e-09
 93.86256    123.1 1.206e+04 1.084e-09
 93.90236    122.3 1.111e+04 5.552e-10
 93.94216    120.9 1.020e+04 2.500e-10
 93.96233    118.9 9.512e+03 1.630e-10
 93.98223    116.9 9.427e+03 1.652e-10
 94.02176    116.2 9.242e+03 1.602e-10
 94.06157    116.2 9.216e+03 1.610e-10
 94.10137    116.4 9.146e+03 1.836e-10
 94.14117    116.6 9.345e+03 2.471e-10
 94.16395    116.7 9.585e+03 3.178e-10
 94.18385    116.7 9.889e+03 3.910e-10
 94.22077    116.7 9.927e+03 4.020e-10
 94.26057    116.5 9.895e+03 3.844e-10
 94.30037    116.0 9.930e+03 3.761e-10
 94.34017    115.2 1.002e+04 3.881e-10
 94.36547    114.4 1.026e+04 4.269e-10
 94.38537    114.5 1.026e+04 3.919e-10
 94.40973    113.6 1.062e+04 4.992e-10
 94.42953    113.2 1.082e+04 5.678e-10
 94.44943    113.0 1.101e+04 6.068e-10
 94.46619    112.7 1.123e+04 6.391e-10
 94.47614    112.9 1.127e+04 6.283e-10
 94.48923    112.5 1.146e+04 6.459e-10
 94.50913    111.8 1.164e+04 6.588e-10
 94.52903    111.0 1.178e+04 6.716e-10
 94.54893    109.9 1.187e+04 6.855e-10
 94.56700    108.7 1.191e+04 6.965e-10
 94.57695    109.5 1.181e+04 6.629e-10
 94.58873    108.4 1.183e+04 6.774e-10
 94.60863    107.4 1.184e+04 6.852e-10
 94.62853    106.3 1.186e+04 6.835e-10
 94.64843    105.2 1.188e+04 6.776e-10
 94.66781    104.0 1.188e+04 6.669e-10
 94.67776    105.0 1.186e+04 6.902e-10
 94.68823    103.7 1.187e+04 6.910e-10
 94.70813    102.2 1.187e+04 6.956e-10
 94.72804    100.5 1.187e+04 7.074e-10
 94.74794     98.7 1.184e+04 7.317e-10
 94.75938     96.8 1.184e+04 7.766e-10
 94.76933     95.9 1.195e+04 8.415e-10
 94.77857     94.0 1.195e+04 9.073e-10
 94.78852     95.1 1.208e+04 1.077e-09
 94.80764     92.5 1.234e+04 1.133e-09
 94.82754     91.2 1.231e+04 1.113e-09
 94.85749     87.6 1.255e+04 1.085e-09
 94.89738     82.0 1.230e+04 1.014e-09
 94.93718     77.2 1.219e+04 1.046e-09
 94.97043     73.8 1.206e+04 1.008e-09
 94.99033     74.6 1.141e+04 7.135e-10
 95.01679     72.6 1.129e+04 6.680e-10
 95.05659     71.4 1.109e+04 5.776e-10
 95.09639     70.4 1.092e+04 5.180e-10
 95.13619     69.6 1.082e+04 5.178e-10
 95.17205     69.4 1.090e+04 5.696e-10
 95.19196     69.8 1.083e+04 5.457e-10
 95.20574     69.1 1.095e+04 5.707e-10
 95.22555     68.4 1.106e+04 5.905e-10
 95.24545     67.7 1.117e+04 6.128e-10
 95.26535     66.8 1.130e+04 6.383e-10
 95.28262     65.8 1.147e+04 6.718e-10
 95.29257     65.9 1.147e+04 6.857e-10
 95.30515     64.5 1.166e+04 7.562e-10
 95.32505     62.7 1.190e+04 8.940e-10
 95.34495     60.5 1.227e+04 1.166e-09
 95.36485     58.0 1.289e+04 1.626e-09
 95.38343     55.2 1.360e+04 2.178e-09
 95.39338     56.8 1.302e+04 1.756e-09
 95.40465     53.7 1.355e+04 2.021e-09
 95.42455     48.8 1.441e+04 2.429e-09
 95.44445     42.1 1.554e+04 3.589e-09
 95.46435     37.5 1.466e+04 4.385e-09
 95.48424     36.8 1.400e+04 3.879e-09
 95.50414     37.3 1.356e+04 3.383e-09
 95.52405     36.3 1.309e+04 1.850e-09
 95.54395     32.6 1.211e+04 7.540e-10
 95.56385     27.1 1.015e+04 2.428e-10
 95.58375     23.7 8.879e+03 1.620e-10
 95.59510     21.7 8.626e+03 1.617e-10
 95.61510     24.2 8.757e+03 1.479e-10
 95.65360     22.5 8.454e+03 1.849e-10
 95.69340     22.8 8.637e+03 2.644e-10
 95.73320     22.3 9.279e+03 2.956e-10
 95.76296     22.2 9.854e+03 3.377e-10
 95.78276     18.6 1.083e+04 5.144e-10
 95.79662      8.7 1.742e+04 1.190e-09
 95.80657     12.4 1.491e+04 1.073e-09
 95.82256      1.1 2.176e+04 3.383e-09
 95.84246     -4.7 2.309e+04 8.184e-09
 95.86236     -9.2 2.204e+04 1.081e-08
 95.88226    -14.9 1.917e+04 6.696e-09
 95.89743    -24.1 1.595e+04 1.563e-09
 95.90738    -22.8 1.650e+04 1.809e-09
 95.92206    -34.8 1.016e+04 4.540e-10
 95.94196    -37.4 8.771e+03 3.305e-10
 95.96186    -37.9 8.664e+03 3.159e-10
 95.98176    -38.2 8.632e+03 3.114e-10
 95.99834    -38.7 8.647e+03 3.117e-10
 96.01834    -37.8 8.423e+03 2.745e-10
 96.05161    -38.5 8.228e+03 2.312e-10
 96.09141    -39.4 8.013e+03 1.886e-10
 96.13121    -40.5 7.954e+03 1.688e-10
 96.17101    -41.9 7.966e+03 1.663e-10
 96.20006    -43.6 8.270e+03 1.996e-10
 96.21996    -42.3 8.183e+03 1.901e-10
 96.25061    -44.0 8.754e+03 2.851e-10
 96.29041    -45.7 9.380e+03 4.131e-10
 96.33022    -47.9 9.951e+03 5.289e-10
 96.37002    -50.7 1.033e+04 5.902e-10
 96.40168    -53.4 1.051e+04 6.130e-10
 96.42158    -52.4 1.073e+04 7.144e-10
 96.44962    -55.5 1.085e+04 7.292e-10
 96.48942    -58.4 1.088e+04 8.122e-10
 96.52922    -60.7 1.085e+04 8.644e-10
 96.56902    -62.2 1.058e+04 7.737e-10
 96.60330    -63.3 1.014e+04 5.852e-10
 96.62320    -62.3 9.846e+03 4.777e-10
 96.64862    -63.3 9.018e+03 2.543e-10
 96.68842    -64.0 8.330e+03 1.440e-10
 96.72822    -64.4 8.139e+03 1.135e-10
 96.76802    -64.9 8.206e+03 1.086e-10
 96.80492    -74.0 1.117e+04 1.566e-10
 96.82482    -72.5 1.033e+04 1.340e-10
 96.83758    -84.1 1.370e+04 8.292e-10
 96.85738    -86.9 1.727e+04 4.174e-09
 96.87728    -88.7 1.944e+04 1.210e-08
 96.89718    -92.2 2.081e+04 1.934e-08
 96.91549    -97.7 2.105e+04 1.980e-08
 96.92544    -97.6 2.040e+04 1.519e-08
 96.93698   -104.9 1.981e+04 1.310e-08
 96.95688   -112.7 1.758e+04 7.959e-09
 96.97678   -118.8 1.541e+04 5.460e-09
 96.99668   -122.0 1.448e+04 4.410e-09
 97.01630   -123.3 1.400e+04 3.539e-09
 97.02625   -123.6 1.382e+04 3.230e-09
 97.03649   -125.4 1.342e+04 2.614e-09
 97.05639   -127.5 1.296e+04 2.085e-09
 97.07629   -129.5 1.251e+04 1.733e-09
 97.09619   -131.0 1.218e+04 1.528e-09
 97.11609   -132.0 1.197e+04 1.391e-09
 97.12706   -132.7 1.182e+04 1.269e-09
 97.13701   -133.1 1.189e+04 1.344e-09
 97.15589   -133.7 1.176e+04 1.198e-09
 97.17579   -134.4 1.170e+04 1.107e-09
 97.19569   -135.0 1.170e+04 1.081e-09
 97.21559   -135.5 1.171e+04 1.080e-09
 97.22787   -135.9 1.187e+04 1.164e-09
 97.23782   -136.3 1.175e+04 1.148e-09
 97.25539   -136.4 1.192e+04 1.284e-09
 97.27529   -136.3 1.208e+04 1.414e-09
 97.29519   -136.2 1.215e+04 1.464e-09
 97.31509   -136.1 1.215e+04 1.461e-09
 97.32868   -136.0 1.203e+04 1.363e-09
 97.33863   -136.3 1.184e+04 1.229e-09
 97.36494   -135.6 1.181e+04 1.210e-09
 97.40484   -134.2 1.156e+04 1.076e-09
 97.42969   -132.8 1.135e+04 9.495e-10
 97.44959   -133.3 1.139e+04 9.638e-10
 97.48444   -131.9 1.139e+04 9.647e-10
 97.52424   -130.4 1.140e+04 9.900e-10
 97.56404   -128.9 1.143e+04 1.050e-09
 97.60384   -127.3 1.152e+04 1.161e-09
 97.63131   -125.7 1.172e+04 1.316e-09
 97.65121   -126.1 1.188e+04 1.423e-09
 97.67399   -124.9 1.225e+04 1.672e-09
 97.69389   -126.2 1.218e+04 1.529e-09
 97.72325   -125.9 1.247e+04 1.607e-09
 97.75300   -125.5 1.285e+04 1.818e-09
 97.77280   -125.6 1.293e+04 1.807e-09
 97.79270   -126.1 1.303e+04 1.775e-09
 97.81260   -127.2 1.311e+04 1.785e-09
 97.83250   -128.4 1.297e+04 1.763e-09
 97.84268   -129.5 1.279e+04 1.757e-09
 97.85263   -130.9 1.248e+04 1.645e-09
 97.87230   -131.6 1.226e+04 1.595e-09
 97.89220   -131.9 1.211e+04 1.542e-09
 97.91210   -131.9 1.200e+04 1.476e-09
 97.93200   -131.8 1.187e+04 1.385e-09
 97.94349   -131.5 1.172e+04 1.264e-09
 97.95344   -132.3 1.092e+04 8.362e-10
 97.97181   -132.2 1.073e+04 7.478e-10
 97.99171   -132.0 1.056e+04 6.816e-10
 98.01161   -131.9 1.046e+04 6.515e-10
 98.03151   -131.7 1.042e+04 6.909e-10
 98.04430   -131.3 1.046e+04 7.539e-10
 98.05425   -131.7 1.040e+04 7.569e-10
 98.07131   -130.8 1.049e+04 8.263e-10
 98.09121   -129.8 1.058e+04 8.922e-10
 98.11111   -128.8 1.067e+04 9.463e-10
 98.13101   -127.7 1.071e+04 9.809e-10
 98.14511   -126.5 1.071e+04 9.950e-10
 98.15506   -126.6 1.068e+04 9.843e-10
 98.17081   -125.4 1.066e+04 9.790e-10
 98.19071   -124.0 1.066e+04 9.650e-10
 98.21061   -122.8 1.069e+04 9.603e-10
 98.23607   -121.4 1.079e+04 9.773e-10
 98.25607   -121.5 1.037e+04 7.685e-10
 98.28046   -118.9 1.032e+04 7.237e-10
 98.32026   -116.6 1.032e+04 7.059e-10
 98.36006   -114.4 1.041e+04 7.181e-10
 98.39986   -112.6 1.070e+04 7.816e-10
 98.43779   -111.3 1.116e+04 9.115e-10
 98.45769   -111.5 1.029e+04 6.114e-10
 98.47946   -110.5 1.077e+04 7.756e-10
 98.51926   -110.0 1.129e+04 1.006e-09
 98.55906   -109.9 1.179e+04 1.269e-09
 98.59886   -109.9 1.223e+04 1.514e-09
 98.62862   -109.8 1.246e+04 1.703e-09
 98.64842   -109.8 1.259e+04 1.790e-09
 98.65912   -109.7 1.269e+04 1.862e-09
 98.67911   -108.5 1.241e+04 1.630e-09
 98.71827   -108.8 1.246e+04 1.666e-09
 98.75807   -109.3 1.226e+04 1.594e-09
 98.79787   -109.8 1.173e+04 1.275e-09
 98.83767   -110.1 1.108e+04 9.182e-10
 98.86093   -110.0 1.045e+04 6.338e-10
 98.87078   -109.9 1.073e+04 7.670e-10
 98.88723   -109.9 1.054e+04 6.992e-10
 98.90713   -109.9 1.009e+04 5.502e-10
 98.92703   -109.4 9.740e+03 4.423e-10
 98.95698   -109.0 9.483e+03 3.745e-10
 98.99687   -108.3 9.243e+03 3.106e-10
 99.03667   -106.9 8.923e+03 2.492e-10
 99.06255   -105.4 8.692e+03 2.143e-10
 99.08245   -105.6 8.788e+03 2.343e-10
 99.11628   -104.1 8.635e+03 2.199e-10
 99.15608   -102.3 8.513e+03 2.109e-10
 99.19588   -100.5 8.379e+03 1.973e-10
 99.23568    -98.4 8.221e+03 1.762e-10
 99.26417    -96.2 8.040e+03 1.502e-10
 99.28407    -96.1 8.013e+03 1.454e-10
 99.31528    -93.7 7.794e+03 1.175e-10
 99.35508    -91.2 7.623e+03 9.832e-11
 99.39488    -88.5 7.537e+03 8.739e-11
 99.43468    -85.6 7.522e+03 8.383e-11
 99.46580    -82.6 7.523e+03 8.330e-11
 99.48570    -82.9 7.533e+03 8.329e-11
 99.51428    -80.2 7.596e+03 8.751e-11
 99.55409    -77.7 7.729e+03 1.036e-10
 99.59389    -75.1 8.044e+03 1.450e-10
 99.63369    -72.4 8.562e+03 2.261e-10
 99.66742    -69.7 9.232e+03 3.636e-10
 99.68732    -70.8 9.198e+03 3.658e-10
 99.71329    -67.7 9.725e+03 5.328e-10
 99.75309    -63.8 1.020e+04 7.616e-10
 99.77808    -60.4 1.022e+04 1.181e-09
 99.78793    -61.6 9.812e+03 1.044e-09
 99.80265    -59.9 1.218e+04 1.094e-09
 99.82255    -57.2 1.162e+04 1.327e-09
 99.84245    -58.1 1.825e+04 1.302e-09
 99.86235    -78.1 7.708e+04 1.004e-09
 99.87448    -94.5 4.835e+04 1.933e-08
 99.87941    -91.7 6.243e+04 5.666e-09
 99.88367    -93.6 3.283e+04 1.527e-07
 99.88864    -94.5 4.041e+04 3.557e-08
 99.89708    -95.9 2.732e+04 3.629e-07
 99.90451    -96.9 2.263e+04 1.528e-06
 99.90882    -97.4 2.208e+04 2.164e-06
 99.91131    -98.3 2.400e+04 1.148e-06
 99.91444   -102.4 2.555e+04 8.997e-07
 99.91941   -104.8 2.634e+04 8.253e-07
 99.92439   -110.4 3.065e+04 4.299e-07
 99.92936   -116.0 3.796e+04 1.558e-07
 99.93403   -127.1 5.018e+04 2.365e-08
 99.93651   -127.5 4.725e+04 4.770e-08
 99.93931   -133.2 5.544e+04 2.326e-08
 99.94429   -140.2 5.942e+04 1.007e-08
 99.94927   -140.4 5.942e+04 8.779e-09
 99.95675   -135.8 4.653e+04 2.044e-08
 99.96673   -141.5 4.133e+04 4.193e-09
 99.97668   -148.0 2.049e+04 1.437e-09
 99.98448   -148.6 1.329e+04 1.130e-09
 99.98945   -148.5 1.367e+04 1.202e-09
100.00160   -146.0 1.212e+04 1.074e-09
