# Columns:
#   distance along LOS (in CHIMPs)
#   peculiar velocity  (in km/s)
#   temperature (K)
#   HI number density
# pos=(176.527,71.3768,1.42098), angles=(1.41411,4.76463)
  0.01024   -122.8 1.081e+04 1.908e-10
  0.04028   -120.9 1.085e+04 2.037e-10
  0.06980   -119.1 1.091e+04 2.179e-10
  0.08960   -118.5 1.106e+04 2.274e-10
  0.11948   -116.8 1.107e+04 2.423e-10
  0.15908   -115.2 1.115e+04 2.683e-10
  0.19868   -113.7 1.127e+04 3.115e-10
  0.23829   -112.1 1.144e+04 3.642e-10
  0.27789   -110.7 1.166e+04 4.155e-10
  0.31376   -109.5 1.199e+04 4.785e-10
  0.33356   -109.1 1.247e+04 7.365e-10
  0.35709   -108.7 1.289e+04 9.293e-10
  0.39669   -108.7 1.327e+04 1.192e-09
  0.42629   -108.4 1.338e+04 1.226e-09
  0.44545   -108.7 1.353e+04 1.421e-09
  0.45535   -108.7 1.385e+04 1.895e-09
  0.46580   -109.2 1.404e+04 2.241e-09
  0.48560   -109.8 1.415e+04 2.480e-09
  0.50540   -110.6 1.419e+04 2.551e-09
  0.52520   -111.3 1.414e+04 2.509e-09
  0.54500   -111.9 1.397e+04 2.193e-09
  0.56480   -112.5 1.377e+04 1.837e-09
  0.57733   -112.9 1.355e+04 1.580e-09
  0.58723   -113.8 1.393e+04 1.881e-09
  0.60440   -114.1 1.369e+04 1.690e-09
  0.62420   -114.1 1.351e+04 1.581e-09
  0.64400   -113.8 1.337e+04 1.493e-09
  0.66380   -113.4 1.323e+04 1.414e-09
  0.67458   -112.9 1.309e+04 1.347e-09
  0.68458   -113.7 1.295e+04 1.193e-09
  0.71350   -112.0 1.252e+04 9.375e-10
  0.75310   -110.4 1.219e+04 7.091e-10
  0.79270   -108.4 1.198e+04 5.596e-10
  0.82149   -106.4 1.187e+04 4.945e-10
  0.84129   -106.7 1.197e+04 3.981e-10
  0.87190   -104.5 1.195e+04 3.950e-10
  0.91150   -102.6 1.200e+04 4.139e-10
  0.95110   -100.9 1.218e+04 4.824e-10
  0.99070    -99.6 1.232e+04 5.927e-10
  1.03031    -98.7 1.237e+04 7.129e-10
  1.05211    -98.0 1.244e+04 7.559e-10
  1.06191    -97.5 1.238e+04 7.481e-10
  1.07515    -97.4 1.243e+04 7.701e-10
  1.08515    -96.8 1.249e+04 7.510e-10
  1.09951    -96.8 1.247e+04 7.939e-10
  1.11921    -96.8 1.252e+04 8.102e-10
  1.13901    -96.8 1.252e+04 8.226e-10
  1.15881    -96.7 1.250e+04 8.272e-10
  1.17861    -96.5 1.246e+04 8.208e-10
  1.19713    -96.3 1.245e+04 8.014e-10
  1.20704    -96.6 1.254e+04 9.130e-10
  1.21822    -96.6 1.255e+04 9.410e-10
  1.23802    -97.1 1.262e+04 1.003e-09
  1.25782    -98.2 1.282e+04 1.147e-09
  1.27762    -99.5 1.304e+04 1.401e-09
  1.29742   -100.8 1.326e+04 1.746e-09
  1.31722   -102.2 1.347e+04 2.054e-09
  1.32902   -103.6 1.365e+04 2.180e-09
  1.33892   -103.7 1.376e+04 2.429e-09
  1.35682   -105.5 1.382e+04 2.216e-09
  1.37662   -107.6 1.368e+04 1.794e-09
  1.39642   -109.8 1.340e+04 1.429e-09
  1.41622   -111.9 1.311e+04 1.151e-09
  1.42944   -113.6 1.281e+04 9.409e-10
  1.43934   -115.8 1.316e+04 1.032e-09
  1.45100   -117.5 1.311e+04 8.994e-10
  1.46090   -119.3 1.302e+04 9.586e-10
  1.47562   -120.8 1.305e+04 9.406e-10
  1.49542   -121.8 1.299e+04 9.896e-10
  1.51522   -122.5 1.292e+04 1.180e-09
  1.53502   -122.9 1.300e+04 1.433e-09
  1.55482   -123.0 1.312e+04 1.710e-09
  1.57298   -122.9 1.326e+04 1.953e-09
  1.58288   -123.6 1.329e+04 2.008e-09
  1.59443   -123.4 1.330e+04 2.131e-09
  1.61423   -123.1 1.326e+04 2.146e-09
  1.63403   -122.8 1.307e+04 2.083e-09
  1.65383   -122.5 1.278e+04 1.900e-09
  1.67363   -122.0 1.245e+04 1.656e-09
  1.69343   -121.3 1.210e+04 1.403e-09
  1.70486   -120.6 1.174e+04 1.162e-09
  1.71476   -120.7 1.168e+04 1.099e-09
  1.73303   -119.8 1.138e+04 9.068e-10
  1.75283   -118.7 1.110e+04 7.397e-10
  1.77263   -117.7 1.086e+04 6.026e-10
  1.79243   -116.7 1.067e+04 4.988e-10
  1.81704   -115.3 1.054e+04 3.962e-10
  1.83684   -115.5 1.052e+04 3.672e-10
  1.85183   -114.3 1.047e+04 3.357e-10
  1.87163   -113.6 1.042e+04 3.215e-10
  1.89143   -112.2 1.039e+04 3.024e-10
  1.91123   -111.5 1.038e+04 2.979e-10
  1.93103   -110.6 1.043e+04 2.975e-10
  1.94882   -110.4 1.048e+04 3.002e-10
  1.95872   -111.1 1.073e+04 3.250e-10
  1.97063   -111.5 1.118e+04 4.013e-10
  1.99044   -112.4 1.177e+04 5.700e-10
  2.01024   -113.5 1.255e+04 1.015e-09
  2.03004   -114.2 1.318e+04 1.644e-09
  2.04984   -114.7 1.379e+04 3.024e-09
  2.06964   -114.9 1.421e+04 3.917e-09
  2.08071   -115.1 1.438e+04 4.213e-09
  2.09061   -115.5 1.454e+04 4.506e-09
  2.10924   -115.9 1.399e+04 3.314e-09
  2.12904   -116.6 1.326e+04 2.143e-09
  2.14884   -117.5 1.244e+04 1.318e-09
  2.16864   -118.6 1.169e+04 8.375e-10
  2.18430   -119.4 1.114e+04 5.891e-10
  2.19420   -119.0 1.122e+04 6.194e-10
  2.20269   -119.7 1.082e+04 4.743e-10
  2.21259   -120.8 1.069e+04 4.527e-10
  2.22804   -121.1 1.055e+04 4.058e-10
  2.24784   -121.2 1.045e+04 3.783e-10
  2.26764   -121.3 1.041e+04 3.715e-10
  2.28744   -121.1 1.042e+04 3.769e-10
  2.30724   -121.0 1.048e+04 4.036e-10
  2.32467   -120.9 1.053e+04 4.338e-10
  2.33457   -121.9 1.062e+04 4.793e-10
  2.34684   -121.7 1.060e+04 4.939e-10
  2.36665   -121.4 1.057e+04 5.078e-10
  2.38645   -121.1 1.057e+04 5.230e-10
  2.40625   -120.8 1.060e+04 5.486e-10
  2.42605   -120.6 1.067e+04 5.817e-10
  2.44585   -120.4 1.077e+04 6.297e-10
  2.45655   -120.3 1.088e+04 6.877e-10
  2.46645   -120.9 1.080e+04 6.502e-10
  2.48545   -120.8 1.089e+04 6.962e-10
  2.50525   -120.9 1.096e+04 7.320e-10
  2.52505   -121.0 1.104e+04 7.701e-10
  2.54485   -121.1 1.111e+04 8.149e-10
  2.56173   -121.3 1.119e+04 8.716e-10
  2.57163   -121.1 1.095e+04 7.444e-10
  2.57853   -121.4 1.109e+04 8.216e-10
  2.58843   -122.1 1.102e+04 7.572e-10
  2.60425   -122.6 1.114e+04 8.348e-10
  2.62405   -123.2 1.123e+04 8.982e-10
  2.64385   -124.0 1.126e+04 9.346e-10
  2.66365   -124.9 1.128e+04 9.477e-10
  2.68345   -126.1 1.130e+04 9.556e-10
  2.70051   -127.7 1.137e+04 9.764e-10
  2.71041   -128.4 1.125e+04 9.632e-10
  2.72305   -129.8 1.138e+04 1.067e-09
  2.74285   -131.0 1.165e+04 1.302e-09
  2.76266   -131.8 1.196e+04 1.624e-09
  2.78246   -132.3 1.222e+04 1.937e-09
  2.80226   -132.6 1.236e+04 2.137e-09
  2.82206   -132.9 1.240e+04 2.195e-09
  2.83239   -133.1 1.237e+04 2.190e-09
  2.84229   -133.1 1.160e+04 1.480e-09
  2.86166   -133.1 1.147e+04 1.442e-09
  2.88146   -133.0 1.137e+04 1.409e-09
  2.90126   -132.8 1.130e+04 1.382e-09
  2.92106   -132.4 1.125e+04 1.358e-09
  2.93916   -131.9 1.127e+04 1.344e-09
  2.94906   -132.0 1.115e+04 1.283e-09
  2.95438   -131.6 1.112e+04 1.213e-09
  2.96428   -131.3 1.057e+04 8.442e-10
  2.98046   -130.9 1.060e+04 8.379e-10
  3.00026   -130.6 1.065e+04 8.429e-10
  3.02006   -130.2 1.070e+04 8.590e-10
  3.03986   -129.7 1.075e+04 8.781e-10
  3.05966   -129.2 1.080e+04 8.939e-10
  3.07636   -128.8 1.091e+04 9.186e-10
  3.08626   -128.4 1.055e+04 7.822e-10
  3.09926   -128.0 1.071e+04 8.335e-10
  3.11906   -127.7 1.097e+04 9.303e-10
  3.13887   -127.4 1.122e+04 1.056e-09
  3.16866   -127.1 1.144e+04 1.179e-09
  3.20836   -126.5 1.203e+04 1.558e-09
  3.24796   -126.3 1.258e+04 1.967e-09
  3.28756   -126.0 1.291e+04 2.195e-09
  3.32051   -125.7 1.298e+04 2.199e-09
  3.34032   -125.2 1.258e+04 2.010e-09
  3.36677   -125.1 1.258e+04 1.928e-09
  3.40637   -125.0 1.227e+04 1.674e-09
  3.44597   -124.6 1.186e+04 1.413e-09
  3.48557   -124.2 1.152e+04 1.191e-09
  3.52517   -123.8 1.134e+04 1.075e-09
  3.56448   -123.4 1.129e+04 1.030e-09
  3.58428   -123.0 1.085e+04 8.237e-10
  3.60437   -122.4 1.082e+04 7.893e-10
  3.63398   -121.7 1.086e+04 7.899e-10
  3.65368   -121.4 1.081e+04 7.796e-10
  3.67348   -120.9 1.075e+04 7.169e-10
  3.69328   -120.3 1.058e+04 6.504e-10
  3.70393   -119.8 1.045e+04 5.779e-10
  3.70681   -119.2 1.028e+04 5.424e-10
  3.71596   -118.8 1.018e+04 4.874e-10
  3.73288   -118.6 1.018e+04 4.716e-10
  3.76268   -118.2 1.015e+04 4.490e-10
  3.80238   -117.3 1.004e+04 4.129e-10
  3.82824   -115.6 9.988e+03 3.881e-10
  3.84804   -115.2 9.831e+03 3.636e-10
  3.88158   -113.8 9.961e+03 3.754e-10
  3.92118   -112.5 1.009e+04 3.894e-10
  3.96078   -111.2 1.015e+04 3.748e-10
  4.00038   -110.0 1.015e+04 3.222e-10
  4.03998   -108.7 1.009e+04 2.392e-10
  4.07220   -107.4 9.980e+03 1.586e-10
  4.09200   -107.3 9.992e+03 1.685e-10
  4.11919   -106.0 9.847e+03 1.017e-10
  4.15879   -104.7 9.654e+03 7.616e-11
  4.19839   -103.2 9.576e+03 7.170e-11
  4.23799   -101.4 9.563e+03 6.978e-11
  4.27759    -99.7 9.559e+03 7.095e-11
  4.31617    -97.9 9.595e+03 7.676e-11
  4.33597    -98.0 9.523e+03 6.736e-11
  4.35679    -96.3 9.576e+03 7.708e-11
  4.39639    -94.6 9.649e+03 8.698e-11
  4.43599    -92.9 9.740e+03 9.564e-11
  4.45898    -91.4 9.846e+03 1.032e-10
  4.47878    -91.5 9.798e+03 1.018e-10
  4.51520    -90.1 9.890e+03 1.099e-10
  4.55480    -88.9 9.964e+03 1.181e-10
  4.57993    -87.9 1.001e+04 1.295e-10
  4.59973    -88.0 9.986e+03 1.292e-10
  4.63400    -87.2 9.989e+03 1.430e-10
  4.67360    -86.4 9.972e+03 1.587e-10
  4.71320    -85.7 9.937e+03 1.707e-10
  4.75280    -85.0 9.899e+03 1.745e-10
  4.79240    -84.2 9.794e+03 1.680e-10
  4.82389    -83.4 9.675e+03 1.490e-10
  4.84369    -83.0 9.624e+03 1.180e-10
  4.87161    -82.1 9.550e+03 1.043e-10
  4.91121    -81.2 9.528e+03 9.860e-11
  4.95081    -80.4 9.535e+03 9.797e-11
  4.99041    -79.7 9.615e+03 1.138e-10
  5.03001    -79.1 9.710e+03 1.648e-10
  5.06785    -78.2 9.888e+03 2.419e-10
  5.08766    -77.7 9.852e+03 2.326e-10
  5.10921    -76.6 1.009e+04 3.157e-10
  5.14881    -75.5 1.023e+04 3.494e-10
  5.18841    -74.5 1.026e+04 3.374e-10
  5.21385    -73.4 1.016e+04 2.600e-10
  5.23365    -72.9 1.032e+04 3.287e-10
  5.26762    -71.8 1.018e+04 2.238e-10
  5.30722    -71.1 1.006e+04 1.409e-10
  5.33162    -70.8 9.998e+03 9.913e-11
  5.35142    -70.0 1.019e+04 1.419e-10
  5.38642    -69.7 1.019e+04 1.277e-10
  5.42602    -69.4 1.036e+04 1.402e-10
  5.46562    -68.6 1.050e+04 1.764e-10
  5.50522    -67.4 1.047e+04 1.912e-10
  5.54482    -65.7 1.030e+04 1.648e-10
  5.57558    -63.8 1.022e+04 1.136e-10
  5.59538    -64.0 1.047e+04 1.756e-10
  5.62402    -62.7 1.049e+04 1.308e-10
  5.66363    -61.5 1.054e+04 1.232e-10
  5.70323    -61.2 1.076e+04 1.308e-10
  5.74283    -62.0 1.125e+04 3.211e-10
  5.78243    -62.8 1.216e+04 8.165e-10
  5.81203    -62.6 1.293e+04 1.519e-09
  5.82925    -62.7 1.312e+04 1.678e-09
  5.83925    -62.4 1.266e+04 1.140e-09
  5.85163    -62.6 1.300e+04 1.275e-09
  5.87134    -63.3 1.310e+04 1.399e-09
  5.89114    -63.7 1.300e+04 1.474e-09
  5.91094    -63.9 1.292e+04 1.506e-09
  5.93074    -64.2 1.287e+04 1.413e-09
  5.95054    -64.7 1.271e+04 1.268e-09
  5.96861    -65.1 1.241e+04 1.101e-09
  5.98851    -65.4 1.249e+04 1.137e-09
  6.02003    -66.0 1.238e+04 1.123e-09
  6.05964    -67.2 1.267e+04 1.293e-09
  6.08331    -69.1 1.314e+04 1.494e-09
  6.10311    -66.9 1.305e+04 1.351e-09
  6.13884    -69.8 1.361e+04 1.669e-09
  6.16844    -72.5 1.380e+04 1.800e-09
  6.18814    -74.2 1.384e+04 1.895e-09
  6.20509    -75.2 1.377e+04 1.950e-09
  6.21499    -74.3 1.384e+04 1.985e-09
  6.22774    -75.3 1.363e+04 1.857e-09
  6.24755    -76.1 1.323e+04 1.648e-09
  6.26735    -76.4 1.303e+04 1.390e-09
  6.28715    -77.4 1.249e+04 9.585e-10
  6.30695    -78.2 1.236e+04 7.065e-10
  6.32675    -79.4 1.202e+04 5.405e-10
  6.33697    -79.9 1.189e+04 4.782e-10
  6.34627    -79.5 1.204e+04 5.861e-10
  6.35584    -80.9 1.211e+04 5.773e-10
  6.36635    -81.1 1.193e+04 5.161e-10
  6.38615    -81.1 1.187e+04 4.938e-10
  6.40595    -80.9 1.178e+04 4.796e-10
  6.42575    -80.3 1.169e+04 4.907e-10
  6.44555    -79.7 1.162e+04 5.105e-10
  6.45896    -79.1 1.161e+04 5.289e-10
  6.46886    -79.1 1.191e+04 5.825e-10
  6.48515    -78.6 1.195e+04 6.080e-10
  6.50495    -77.9 1.196e+04 6.441e-10
  6.52475    -77.1 1.198e+04 6.900e-10
  6.54455    -76.3 1.201e+04 7.387e-10
  6.56435    -75.3 1.206e+04 7.799e-10
  6.58094    -74.4 1.217e+04 8.045e-10
  6.59084    -74.3 1.236e+04 9.079e-10
  6.61395    -73.9 1.279e+04 9.125e-10
  6.64365    -73.6 1.347e+04 1.362e-09
  6.66336    -73.8 1.390e+04 1.667e-09
  6.68316    -74.3 1.441e+04 2.175e-09
  6.70292    -74.7 1.486e+04 2.867e-09
  6.72272    -75.7 1.596e+04 5.200e-09
  6.73328    -75.9 1.605e+04 5.888e-09
  6.74318    -75.4 1.702e+04 9.038e-09
  6.76236    -75.5 1.661e+04 7.900e-09
  6.78216    -76.0 1.623e+04 6.687e-09
  6.80196    -76.7 1.605e+04 6.393e-09
  6.82176    -77.2 1.633e+04 7.241e-09
  6.83480    -77.4 1.685e+04 9.095e-09
  6.84470    -77.5 1.597e+04 6.768e-09
  6.86136    -77.5 1.636e+04 7.983e-09
  6.88116    -77.3 1.704e+04 9.254e-09
  6.90096    -77.1 1.798e+04 1.045e-08
  6.92076    -77.2 1.931e+04 1.147e-08
  6.93556    -78.9 2.377e+04 1.468e-08
  6.94542    -79.5 2.533e+04 1.629e-08
  6.95532    -80.6 2.752e+04 2.044e-08
  6.96163    -81.3 2.841e+04 2.671e-08
  6.96658    -84.2 2.744e+04 5.066e-08
  6.97512    -84.6 2.658e+04 7.294e-08
  6.98502    -84.9 2.527e+04 1.116e-07
  6.99492    -85.0 2.388e+04 1.871e-07
  7.00482    -84.8 2.281e+04 3.472e-07
  7.01472    -84.7 2.200e+04 6.949e-07
  7.02262    -85.9 2.129e+04 1.269e-06
  7.02757    -87.9 2.084e+04 8.984e-07
  7.03452    -90.8 2.078e+04 1.019e-06
  7.04442    -94.0 2.089e+04 9.519e-07
  7.05432    -97.0 2.124e+04 8.113e-07
  7.06422   -100.0 2.168e+04 6.898e-07
  7.07412   -102.6 2.233e+04 5.151e-07
  7.08362   -104.7 2.285e+04 3.450e-07
  7.08857   -103.3 2.372e+04 1.643e-07
  7.09392   -105.0 2.369e+04 1.127e-07
  7.10382   -106.4 2.356e+04 8.453e-08
  7.11061   -107.6 2.334e+04 6.973e-08
  7.11556   -109.0 2.319e+04 2.151e-08
  7.12362   -109.6 2.283e+04 2.135e-08
  7.13352   -110.0 2.255e+04 2.204e-08
  7.14342   -110.1 2.228e+04 2.303e-08
  7.14956   -110.1 2.206e+04 2.405e-08
  7.15451   -109.7 2.107e+04 1.202e-08
  7.16322   -109.7 2.097e+04 1.332e-08
  7.17312   -109.6 2.093e+04 1.478e-08
  7.18302   -109.6 2.089e+04 1.629e-08
  7.19292   -109.6 2.080e+04 1.764e-08
  7.20282   -109.4 2.071e+04 1.886e-08
  7.21055   -109.2 2.071e+04 1.989e-08
  7.21550   -109.0 1.987e+04 1.452e-08
  7.22262   -108.9 2.004e+04 1.616e-08
  7.23252   -108.8 2.013e+04 1.726e-08
  7.24242   -108.5 2.009e+04 1.740e-08
  7.25732   -108.5 1.958e+04 1.489e-08
  7.27717   -108.6 1.951e+04 1.507e-08
  7.29697   -109.1 1.927e+04 1.404e-08
  7.31677   -109.5 1.876e+04 1.216e-08
  7.33263   -109.9 1.827e+04 1.010e-08
  7.34253   -109.5 1.845e+04 1.082e-08
  7.35637   -110.3 1.817e+04 9.648e-09
  7.37617   -111.1 1.785e+04 8.614e-09
  7.39597   -111.9 1.752e+04 7.743e-09
  7.41578   -112.5 1.714e+04 6.981e-09
  7.43558   -112.7 1.672e+04 6.232e-09
  7.45461   -112.8 1.625e+04 5.468e-09
  7.46451   -112.7 1.666e+04 6.908e-09
  7.47518   -112.8 1.614e+04 5.713e-09
  7.48814   -112.8 1.559e+04 4.635e-09
  7.49804   -112.5 1.529e+04 4.203e-09
  7.51478   -112.5 1.490e+04 3.487e-09
  7.53458   -112.6 1.459e+04 2.972e-09
  7.55438   -112.6 1.436e+04 2.629e-09
  7.57418   -112.6 1.419e+04 2.378e-09
  7.58649   -112.5 1.402e+04 2.133e-09
  7.59639   -112.5 1.415e+04 2.416e-09
  7.61378   -112.5 1.398e+04 2.134e-09
  7.63358   -112.6 1.372e+04 1.762e-09
  7.65338   -112.8 1.329e+04 1.371e-09
  7.67318   -113.1 1.280e+04 1.076e-09
  7.69298   -113.4 1.239e+04 9.102e-10
  7.70847   -113.5 1.216e+04 8.448e-10
  7.71837   -113.5 1.221e+04 8.697e-10
  7.73258   -113.5 1.211e+04 8.485e-10
  7.75238   -113.3 1.206e+04 8.362e-10
  7.77218   -112.9 1.200e+04 8.121e-10
  7.79199   -112.5 1.188e+04 7.540e-10
  7.81179   -112.1 1.167e+04 6.567e-10
  7.83045   -111.6 1.141e+04 5.409e-10
  7.84035   -111.7 1.149e+04 5.627e-10
  7.85139   -111.2 1.128e+04 4.646e-10
  7.88119   -110.7 1.118e+04 3.864e-10
  7.92088   -109.8 1.110e+04 3.599e-10
  7.96048   -108.4 1.096e+04 3.455e-10
  8.00009   -106.9 1.083e+04 3.423e-10
  8.03969   -105.2 1.070e+04 3.435e-10
  8.07461   -103.4 1.061e+04 3.468e-10
  8.09441   -103.0 1.086e+04 4.233e-10
  8.11889   -101.2 1.077e+04 4.287e-10
  8.15849    -99.2 1.075e+04 4.428e-10
  8.19809    -97.2 1.081e+04 4.638e-10
  8.23329    -95.3 1.079e+04 4.663e-10
  8.25309    -95.0 1.059e+04 3.834e-10
  8.27729    -93.2 1.056e+04 3.908e-10
  8.31689    -91.4 1.053e+04 3.855e-10
  8.33837    -89.6 1.044e+04 3.576e-10
  8.35817    -89.4 1.068e+04 4.589e-10
  8.39610    -87.6 1.052e+04 3.919e-10
  8.43570    -85.6 1.034e+04 3.152e-10
  8.47530    -83.6 1.019e+04 2.551e-10
  8.51490    -81.6 1.008e+04 2.210e-10
  8.55450    -79.5 1.000e+04 2.062e-10
  8.58234    -77.3 9.966e+03 2.017e-10
  8.60214    -77.2 1.004e+04 2.119e-10
  8.63370    -74.9 1.003e+04 2.123e-10
  8.67330    -72.6 1.004e+04 2.156e-10
  8.71290    -70.4 1.002e+04 2.138e-10
  8.75251    -68.0 1.001e+04 1.983e-10
  8.79211    -65.8 1.001e+04 1.743e-10
  8.82630    -63.6 1.002e+04 1.532e-10
  8.84610    -63.4 1.014e+04 1.775e-10
  8.87131    -61.3 1.017e+04 1.591e-10
  8.91091    -59.2 1.018e+04 1.533e-10
  8.95051    -57.1 1.022e+04 1.566e-10
  8.98816    -55.1 1.027e+04 1.770e-10
  9.00796    -55.2 1.021e+04 1.572e-10
  9.02971    -53.3 1.031e+04 1.862e-10
  9.06931    -51.5 1.046e+04 2.351e-10
  9.09006    -49.8 1.067e+04 3.151e-10
  9.10986    -50.0 1.075e+04 3.345e-10
  9.14852    -48.0 1.101e+04 4.381e-10
  9.18812    -46.1 1.127e+04 5.176e-10
  9.22772    -44.6 1.138e+04 5.334e-10
  9.26732    -43.1 1.142e+04 5.334e-10
  9.30692    -41.5 1.143e+04 5.298e-10
  9.33402    -39.5 1.137e+04 4.835e-10
  9.35382    -39.4 1.127e+04 4.109e-10
  9.38612    -37.0 1.109e+04 3.068e-10
  9.42572    -34.9 1.088e+04 2.120e-10
  9.46532    -32.9 1.078e+04 1.598e-10
  9.50492    -31.1 1.083e+04 1.247e-10
  9.54453    -28.9 1.083e+04 1.169e-10
  9.57799    -26.7 1.088e+04 1.129e-10
  9.59779    -26.6 1.088e+04 1.124e-10
  9.62373    -24.3 1.088e+04 1.061e-10
  9.66333    -22.2 1.092e+04 9.668e-11
  9.70293    -20.0 1.086e+04 9.861e-11
  9.74253    -17.9 1.074e+04 1.074e-10
  9.76282    -15.5 1.067e+04 1.133e-10
  9.78262    -15.3 1.068e+04 1.070e-10
  9.82173    -12.9 1.067e+04 1.066e-10
  9.84175    -10.6 1.068e+04 1.024e-10
  9.86155    -10.5 1.068e+04 9.860e-11
  9.90093     -8.4 1.071e+04 9.639e-11
  9.94054     -6.4 1.073e+04 9.748e-11
  9.98014     -4.6 1.082e+04 1.020e-10
 10.01974     -3.1 1.092e+04 1.181e-10
 10.05934     -1.4 1.097e+04 1.490e-10
 10.08571      0.2 1.100e+04 1.865e-10
 10.10551     -0.2 1.103e+04 2.019e-10
 10.13854      1.2 1.108e+04 2.151e-10
 10.17814      2.4 1.114e+04 2.318e-10
 10.21774      3.1 1.133e+04 2.968e-10
 10.25734      3.2 1.164e+04 4.563e-10
 10.28695      3.0 1.217e+04 8.400e-10
 10.30665      3.2 1.220e+04 8.710e-10
 10.32645      3.1 1.246e+04 1.236e-09
 10.33938      3.3 1.250e+04 1.306e-09
 10.34928      3.0 1.222e+04 1.082e-09
 10.36605      3.1 1.241e+04 1.316e-09
 10.38585      3.4 1.246e+04 1.396e-09
 10.41565      3.5 1.237e+04 1.287e-09
 10.45535      3.8 1.223e+04 1.131e-09
 10.49495      4.2 1.181e+04 8.495e-10
 10.51768      5.1 1.130e+04 5.766e-10
 10.53748      4.8 1.148e+04 7.059e-10
 10.57364      6.1 1.108e+04 4.731e-10
 10.59344      6.7 1.078e+04 3.609e-10
 10.61375      8.0 1.054e+04 2.301e-10
 10.65335      9.3 1.040e+04 1.548e-10
 10.69296     10.7 1.013e+04 1.361e-10
 10.73256     12.7 1.011e+04 1.387e-10
 10.77216     14.7 1.009e+04 1.522e-10
 10.81176     16.7 1.012e+04 1.842e-10
 10.83740     18.7 1.019e+04 2.328e-10
 10.85720     18.9 1.008e+04 2.072e-10
 10.89096     20.9 1.014e+04 2.650e-10
 10.93056     22.8 1.020e+04 3.192e-10
 10.97016     24.5 1.025e+04 3.272e-10
 11.00976     26.2 1.017e+04 3.116e-10
 11.04936     27.7 1.003e+04 2.754e-10
 11.08136     29.2 9.880e+03 2.244e-10
 11.10116     29.3 9.889e+03 2.355e-10
 11.12857     30.6 9.755e+03 1.866e-10
 11.16817     31.9 9.669e+03 1.598e-10
 11.20777     33.4 9.672e+03 1.602e-10
 11.24737     34.7 9.711e+03 1.713e-10
 11.27254     36.0 9.853e+03 2.093e-10
 11.29234     36.0 9.807e+03 2.032e-10
 11.32533     37.2 1.011e+04 2.803e-10
 11.34513     37.3 9.894e+03 2.376e-10
 11.36617     38.4 1.018e+04 3.073e-10
 11.40577     39.2 1.040e+04 3.668e-10
 11.43538     39.5 1.052e+04 4.294e-10
 11.45508     39.7 1.074e+04 5.170e-10
 11.46691     39.5 1.125e+04 6.791e-10
 11.47681     39.9 1.088e+04 5.205e-10
 11.49468     39.1 1.166e+04 8.332e-10
 11.51448     37.2 1.308e+04 1.810e-09
 11.53428     35.6 1.496e+04 4.603e-09
 11.55408     35.0 1.676e+04 1.070e-08
 11.57388     34.7 1.807e+04 1.827e-08
 11.58889     34.0 1.819e+04 1.851e-08
 11.59879     34.9 1.755e+04 1.553e-08
 11.61348     34.4 1.743e+04 1.427e-08
 11.63328     33.6 1.683e+04 1.028e-08
 11.64978     32.1 1.579e+04 6.507e-09
 11.65968     32.3 1.550e+04 5.791e-09
 11.67289     30.6 1.445e+04 3.876e-09
 11.69269     29.3 1.345e+04 2.696e-09
 11.71088     28.7 1.290e+04 2.154e-09
 11.72078     29.3 1.322e+04 2.600e-09
 11.73229     28.9 1.288e+04 2.261e-09
 11.76209     27.7 1.250e+04 1.920e-09
 11.80178     27.5 1.228e+04 1.875e-09
 11.83305     27.6 1.204e+04 1.743e-09
 11.85285     28.2 1.194e+04 1.643e-09
 11.88099     28.5 1.130e+04 1.146e-09
 11.92059     29.3 1.065e+04 6.760e-10
 11.96019     29.9 1.004e+04 3.548e-10
 11.99979     30.2 9.644e+03 1.994e-10
 12.02740     30.7 9.326e+03 1.606e-10
 12.04721     31.8 9.486e+03 1.811e-10
 12.07702     32.6 9.246e+03 1.513e-10
 12.09682     32.8 9.209e+03 1.463e-10
 12.11859     34.2 9.154e+03 1.392e-10
 12.15819     35.8 9.101e+03 1.284e-10
 12.19779     37.6 9.037e+03 1.212e-10
 12.23739     39.4 9.027e+03 1.215e-10
 12.27700     41.2 9.037e+03 1.253e-10
 12.31660     42.9 9.067e+03 1.383e-10
 12.34078     44.7 9.094e+03 1.654e-10
 12.36058     45.4 9.035e+03 1.539e-10
 12.39580     47.2 9.158e+03 2.072e-10
 12.43540     49.1 9.445e+03 2.951e-10
 12.47500     50.6 9.827e+03 4.087e-10
 12.51460     51.7 1.008e+04 4.992e-10
 12.55420     52.6 1.016e+04 5.454e-10
 12.58381     53.2 1.026e+04 5.886e-10
 12.59445     53.2 1.028e+04 6.018e-10
 12.60444     54.2 1.008e+04 4.970e-10
 12.63341     54.3 1.022e+04 5.418e-10
 12.67301     54.2 1.040e+04 6.247e-10
 12.71261     54.1 1.058e+04 7.461e-10
 12.74221     53.9 1.057e+04 7.578e-10
 12.76191     53.9 1.056e+04 7.552e-10
 12.78171     54.1 1.049e+04 7.254e-10
 12.79197     54.2 1.039e+04 6.772e-10
 12.80187     53.9 1.034e+04 6.229e-10
 12.82131     54.0 1.025e+04 5.714e-10
 12.83841     54.1 1.023e+04 5.498e-10
 12.84831     54.0 1.010e+04 5.058e-10
 12.86092     54.1 1.011e+04 5.090e-10
 12.88072     54.1 1.018e+04 5.300e-10
 12.90052     53.8 1.038e+04 6.192e-10
 12.92032     53.6 1.069e+04 8.063e-10
 12.94012     53.6 1.105e+04 1.097e-09
 12.95992     53.6 1.142e+04 1.467e-09
 12.97029     53.8 1.179e+04 1.869e-09
 12.98019     53.7 1.164e+04 1.806e-09
 12.99952     53.8 1.189e+04 2.002e-09
 13.01932     53.7 1.218e+04 2.032e-09
 13.03912     53.1 1.243e+04 2.044e-09
 13.05892     52.0 1.273e+04 2.066e-09
 13.07872     50.5 1.299e+04 2.153e-09
 13.09227     49.0 1.313e+04 2.307e-09
 13.10217     48.0 1.262e+04 1.706e-09
 13.11832     47.1 1.253e+04 1.807e-09
 13.13812     46.4 1.262e+04 1.830e-09
 13.15792     45.9 1.263e+04 1.810e-09
 13.16940     45.3 1.270e+04 1.788e-09
 13.17930     46.6 1.271e+04 1.932e-09
 13.19752     45.9 1.274e+04 1.849e-09
 13.21425     44.9 1.285e+04 1.861e-09
 13.22415     44.4 1.249e+04 1.596e-09
 13.23713     44.1 1.252e+04 1.640e-09
 13.25693     43.1 1.274e+04 1.834e-09
 13.27673     42.7 1.274e+04 1.873e-09
 13.30652     41.6 1.284e+04 1.942e-09
 13.33643     41.5 1.237e+04 1.535e-09
 13.35623     41.4 1.224e+04 1.443e-09
 13.38582     41.6 1.171e+04 9.103e-10
 13.42543     41.7 1.120e+04 5.090e-10
 13.46503     41.8 1.096e+04 3.068e-10
 13.50463     42.2 1.072e+04 2.684e-10
 13.53713     43.4 1.060e+04 2.518e-10
 13.55693     43.6 1.060e+04 2.117e-10
 13.58039     45.1 1.060e+04 2.030e-10
 13.60019     44.1 1.076e+04 2.611e-10
 13.62343     45.5 1.083e+04 2.528e-10
 13.66303     46.8 1.087e+04 2.624e-10
 13.70263     48.1 1.096e+04 2.915e-10
 13.74223     49.6 1.106e+04 3.298e-10
 13.78183     51.1 1.116e+04 3.518e-10
 13.82144     52.7 1.117e+04 3.444e-10
 13.84416     54.4 1.115e+04 3.124e-10
 13.86396     53.5 1.119e+04 3.062e-10
 13.90064     55.4 1.117e+04 2.287e-10
 13.94024     57.3 1.118e+04 1.644e-10
 13.97984     59.0 1.116e+04 1.248e-10
 14.01944     60.6 1.095e+04 1.151e-10
 14.05904     62.5 1.092e+04 1.148e-10
 14.08812     64.3 1.088e+04 1.212e-10
 14.10792     63.2 1.090e+04 1.509e-10
 14.13824     65.1 1.081e+04 1.869e-10
 14.17785     67.2 1.075e+04 2.237e-10
 14.21745     69.2 1.071e+04 2.521e-10
 14.25705     71.1 1.068e+04 2.682e-10
 14.29199     73.0 1.065e+04 2.792e-10
 14.31179     73.1 1.058e+04 2.668e-10
 14.33208     74.9 1.055e+04 2.696e-10
 14.35188     74.0 1.054e+04 2.779e-10
 14.37585     75.7 1.050e+04 2.909e-10
 14.41545     77.4 1.046e+04 3.087e-10
 14.45505     79.1 1.044e+04 3.266e-10
 14.49465     80.8 1.038e+04 3.187e-10
 14.53425     82.4 1.024e+04 2.977e-10
 14.57386     84.1 1.009e+04 2.669e-10
 14.59584     85.8 9.959e+03 2.366e-10
 14.61565     85.3 9.882e+03 2.054e-10
 14.65306     86.9 9.802e+03 1.900e-10
 14.69266     88.6 9.753e+03 1.837e-10
 14.73226     90.3 9.714e+03 1.797e-10
 14.77186     92.1 9.648e+03 1.713e-10
 14.81146     94.0 9.579e+03 1.556e-10
 14.83981     95.9 9.477e+03 1.330e-10
 14.85961     95.7 9.424e+03 1.274e-10
 14.89066     97.7 9.367e+03 1.057e-10
 14.93026     99.8 9.319e+03 8.932e-11
 14.96987    101.8 9.240e+03 8.048e-11
 15.00947    104.0 9.196e+03 7.789e-11
 15.04685    106.2 9.185e+03 7.862e-11
 15.06665    106.2 9.063e+03 6.849e-11
 15.08377    108.5 9.045e+03 7.264e-11
 15.10357    108.2 9.075e+03 8.048e-11
 15.12827    110.5 9.064e+03 8.769e-11
 15.16787    112.8 9.060e+03 9.421e-11
 15.20747    115.1 9.052e+03 9.859e-11
 15.24707    117.3 9.038e+03 1.004e-10
 15.28667    119.6 9.010e+03 1.010e-10
 15.32627    121.8 8.996e+03 1.008e-10
 15.34753    123.9 8.987e+03 1.009e-10
 15.36733    123.7 8.968e+03 9.740e-11
 15.40548    125.8 8.967e+03 9.696e-11
 15.44508    127.9 8.968e+03 9.736e-11
 15.48468    130.1 8.967e+03 9.768e-11
 15.52428    132.2 8.965e+03 9.663e-11
 15.56388    134.3 8.958e+03 9.295e-11
 15.59150    136.4 8.924e+03 8.788e-11
 15.61130    136.3 8.861e+03 7.186e-11
 15.64308    138.3 8.822e+03 6.638e-11
 15.68268    140.4 8.777e+03 6.240e-11
 15.72228    142.4 8.738e+03 6.098e-11
 15.76189    144.5 8.737e+03 6.140e-11
 15.80149    146.6 8.740e+03 6.354e-11
 15.82152    148.7 8.756e+03 6.867e-11
 15.83569    148.9 8.720e+03 6.917e-11
 15.85526    148.8 8.720e+03 6.681e-11
 15.88069    150.9 8.715e+03 7.587e-11
 15.92029    153.0 8.738e+03 8.586e-11
 15.95989    155.1 8.777e+03 9.618e-11
 15.99949    157.2 8.826e+03 1.068e-10
 16.03909    159.2 8.878e+03 1.188e-10
 16.07869    161.1 8.944e+03 1.345e-10
 16.09922    163.1 9.038e+03 1.572e-10
 16.11902    163.2 8.979e+03 1.481e-10
 16.15790    165.1 9.099e+03 1.749e-10
 16.19750    167.0 9.247e+03 2.095e-10
 16.23710    168.8 9.404e+03 2.472e-10
 16.27670    170.4 9.561e+03 2.762e-10
 16.31630    171.8 9.689e+03 2.811e-10
 16.34318    173.2 9.713e+03 2.758e-10
 16.36299    173.7 9.678e+03 2.511e-10
 16.39550    175.0 9.690e+03 2.418e-10
 16.43510    176.3 9.669e+03 2.205e-10
 16.47470    177.7 9.613e+03 2.002e-10
 16.51431    179.1 9.543e+03 1.937e-10
 16.55391    180.6 9.539e+03 1.949e-10
 16.57638    182.1 9.546e+03 2.013e-10
 16.58982    182.0 9.587e+03 2.256e-10
 16.60695    182.4 9.818e+03 2.863e-10
 16.63311    183.8 9.852e+03 2.931e-10
 16.67271    185.2 9.871e+03 2.926e-10
 16.71231    186.6 9.870e+03 2.884e-10
 16.75191    187.9 9.843e+03 2.719e-10
 16.79151    189.3 9.774e+03 2.399e-10
 16.83111    190.8 9.677e+03 1.991e-10
 16.87071    192.2 9.623e+03 1.557e-10
 16.91032    193.9 9.507e+03 1.194e-10
 16.94992    195.6 9.386e+03 1.004e-10
 16.98952    197.6 9.337e+03 9.825e-11
 17.02912    199.8 9.335e+03 9.824e-11
 17.06872    202.0 9.337e+03 9.883e-11
 17.09487    204.3 9.351e+03 1.019e-10
 17.11467    204.3 9.369e+03 1.022e-10
 17.14792    206.5 9.452e+03 1.109e-10
 17.18752    208.5 9.580e+03 1.291e-10
 17.22712    210.5 9.753e+03 1.588e-10
 17.26672    212.2 9.948e+03 1.991e-10
 17.30633    213.8 1.013e+04 2.416e-10
 17.33124    215.1 1.023e+04 2.728e-10
 17.34395    213.8 1.017e+04 2.563e-10
 17.35864    213.7 1.023e+04 2.717e-10
 17.38553    214.7 1.014e+04 2.487e-10
 17.42513    215.9 9.951e+03 2.008e-10
 17.46473    217.0 9.693e+03 1.473e-10
 17.50433    218.3 9.417e+03 1.076e-10
 17.54393    219.7 9.213e+03 9.073e-11
 17.58280    221.3 9.180e+03 9.021e-11
 17.60260    221.4 9.221e+03 9.427e-11
 17.62313    223.1 9.226e+03 1.011e-10
 17.66273    224.7 9.370e+03 1.335e-10
 17.70234    226.3 9.739e+03 2.012e-10
 17.74194    227.7 1.018e+04 2.961e-10
 17.78154    228.6 1.057e+04 3.893e-10
 17.82114    229.1 1.084e+04 4.486e-10
 17.84656    229.0 1.082e+04 4.491e-10
 17.86636    228.6 1.089e+04 4.771e-10
 17.90034    228.9 1.057e+04 4.307e-10
 17.93994    229.4 1.007e+04 3.309e-10
 17.97954    229.9 9.530e+03 2.418e-10
 18.01914    230.6 9.190e+03 1.954e-10
 18.05875    231.5 9.183e+03 1.926e-10
 18.08610    232.3 9.252e+03 1.999e-10
 18.09808    230.6 9.180e+03 1.848e-10
 18.11033    230.5 9.156e+03 1.822e-10
 18.13795    231.0 9.473e+03 2.273e-10
 18.17755    231.0 9.836e+03 2.949e-10
 18.21715    231.0 1.009e+04 3.534e-10
 18.24675    230.8 1.025e+04 4.203e-10
 18.26646    230.5 1.044e+04 5.032e-10
 18.28626    229.8 1.067e+04 6.093e-10
 18.30606    228.7 1.109e+04 7.652e-10
 18.32586    226.8 1.186e+04 1.074e-09
 18.34419    224.4 1.289e+04 1.706e-09
 18.35409    225.2 1.240e+04 1.367e-09
 18.36546    222.9 1.336e+04 2.177e-09
 18.38526    220.9 1.418e+04 3.289e-09
 18.40506    219.2 1.483e+04 4.029e-09
 18.42486    217.3 1.497e+04 4.035e-09
 18.44466    215.2 1.499e+04 3.723e-09
 18.46334    213.1 1.479e+04 2.745e-09
 18.47324    212.5 1.451e+04 2.328e-09
 18.47607    210.0 1.385e+04 1.473e-09
 18.48597    211.7 1.367e+04 1.578e-09
 18.50406    209.3 1.292e+04 1.116e-09
 18.52386    206.8 1.249e+04 1.060e-09
 18.54366    204.7 1.248e+04 1.078e-09
 18.56346    203.0 1.257e+04 1.189e-09
 18.58326    201.6 1.293e+04 1.434e-09
 18.59806    200.4 1.334e+04 1.776e-09
 18.60796    202.5 1.319e+04 1.699e-09
 18.62286    201.4 1.358e+04 2.100e-09
 18.64266    200.5 1.377e+04 2.440e-09
 18.66247    199.8 1.375e+04 2.555e-09
 18.68227    199.3 1.371e+04 2.539e-09
 18.70207    198.9 1.359e+04 2.459e-09
 18.72004    198.4 1.349e+04 2.429e-09
 18.72994    200.2 1.411e+04 3.123e-09
 18.74167    199.5 1.412e+04 3.166e-09
 18.76147    198.0 1.439e+04 3.308e-09
 18.78127    196.1 1.490e+04 3.565e-09
 18.79607    195.3 1.502e+04 3.664e-09
 18.80592    194.7 1.513e+04 3.778e-09
 18.81582    193.3 1.558e+04 4.175e-09
 18.82572    188.7 1.750e+04 5.919e-09
 18.83562    179.9 2.141e+04 1.392e-08
 18.84552    170.4 2.340e+04 3.660e-08
 18.85057    162.9 2.372e+04 7.099e-08
 18.85192    163.0 2.309e+04 6.051e-08
 18.85677    163.1 2.326e+04 6.220e-08
 18.86532    157.6 2.456e+04 7.287e-08
 18.87522    151.5 2.634e+04 6.764e-08
 18.88512    143.3 2.905e+04 5.237e-08
 18.89502    132.8 3.506e+04 2.658e-08
 18.90492    119.8 3.904e+04 1.231e-08
 18.91281    107.9 3.267e+04 9.815e-09
 18.91776    104.4 3.093e+04 1.161e-08
 18.92472     93.4 2.363e+04 1.237e-08
 18.93462     87.2 2.191e+04 1.341e-08
 18.94452     83.8 2.062e+04 1.757e-08
 18.95443     82.1 2.044e+04 2.573e-08
 18.96433     81.4 2.089e+04 3.710e-08
 18.97380     80.7 2.153e+04 5.083e-08
 18.97875     79.9 2.155e+04 4.311e-08
 18.98413     78.6 2.232e+04 4.435e-08
 18.99403     76.8 2.262e+04 4.349e-08
 19.00393     74.6 2.301e+04 4.109e-08
 19.01383     71.7 2.345e+04 3.862e-08
 19.02373     68.2 2.368e+04 3.797e-08
 19.03363     63.9 2.417e+04 3.617e-08
 19.03929     59.4 2.435e+04 3.417e-08
 19.04045     59.2 2.444e+04 2.976e-08
 19.04469     58.1 2.401e+04 2.977e-08
 19.05343     53.6 2.394e+04 2.872e-08
 19.06333     49.6 2.350e+04 2.679e-08
 19.07323     45.8 2.271e+04 2.236e-08
 19.08313     43.1 2.184e+04 1.888e-08
 19.09583     38.4 1.999e+04 1.187e-08
 19.10578     38.6 2.011e+04 1.218e-08
 19.11788     33.5 1.667e+04 5.686e-09
 19.13768     29.6 1.377e+04 2.900e-09
 19.15748     27.2 1.244e+04 1.764e-09
 19.17728     26.2 1.191e+04 1.302e-09
 19.19708     26.2 1.160e+04 1.105e-09
 19.21688     26.4 1.135e+04 9.780e-10
 19.22776     26.8 1.132e+04 9.153e-10
 19.22908     27.7 1.157e+04 1.016e-09
 19.23800     28.0 1.134e+04 8.161e-10
 19.25648     28.2 1.135e+04 7.832e-10
 19.27628     28.6 1.107e+04 6.530e-10
 19.29608     28.6 1.103e+04 6.347e-10
 19.32588     29.4 1.072e+04 6.403e-10
 19.34994     31.0 1.051e+04 6.321e-10
 19.36974     32.3 1.075e+04 7.228e-10
 19.40518     33.9 1.058e+04 6.491e-10
 19.44478     35.2 1.048e+04 5.904e-10
 19.48438     36.6 1.057e+04 5.956e-10
 19.52398     38.2 1.070e+04 6.290e-10
 19.56358     39.4 1.092e+04 7.057e-10
 19.59319     40.5 1.108e+04 7.806e-10
 19.60361     41.0 1.126e+04 8.659e-10
 19.60615     41.7 1.114e+04 8.048e-10
 19.61543     42.3 1.125e+04 8.453e-10
 19.64269     43.1 1.161e+04 1.022e-09
 19.67239     42.8 1.193e+04 1.233e-09
 19.69209     43.0 1.214e+04 1.392e-09
 19.71189     43.2 1.234e+04 1.536e-09
 19.72559     43.2 1.253e+04 1.665e-09
 19.73549     44.0 1.243e+04 1.621e-09
 19.75149     44.0 1.261e+04 1.736e-09
 19.77129     43.9 1.264e+04 1.756e-09
 19.79109     44.0 1.260e+04 1.734e-09
 19.81089     44.2 1.245e+04 1.626e-09
 19.83070     44.5 1.226e+04 1.449e-09
 19.84757     44.7 1.206e+04 1.247e-09
 19.85747     45.5 1.224e+04 1.386e-09
 19.87030     45.6 1.204e+04 1.213e-09
 19.89010     45.7 1.194e+04 1.110e-09
 19.90990     45.9 1.180e+04 1.012e-09
 19.92970     46.1 1.159e+04 9.140e-10
 19.94950     46.5 1.134e+04 8.261e-10
 19.96930     46.8 1.118e+04 7.677e-10
 19.97945     47.5 1.100e+04 7.190e-10
 19.98321     48.4 1.095e+04 6.759e-10
 19.99286     48.5 1.096e+04 6.784e-10
 20.00890     48.9 1.092e+04 6.628e-10
 20.03870     49.6 1.067e+04 5.953e-10
 20.07840     51.3 1.027e+04 4.540e-10
 20.10163     53.1 9.825e+03 3.118e-10
 20.12143     54.4 9.962e+03 3.488e-10
 20.15760     56.2 9.493e+03 2.381e-10
 20.19720     57.7 9.228e+03 1.817e-10
 20.23680     59.6 9.254e+03 1.801e-10
 20.27640     61.6 9.435e+03 1.932e-10
 20.31600     63.2 9.937e+03 2.419e-10
 20.34549     63.7 1.026e+04 3.053e-10
 20.35530     64.3 1.026e+04 3.047e-10
 20.36039     64.4 1.057e+04 4.240e-10
 20.37029     64.3 1.067e+04 4.746e-10
 20.38511     65.4 1.110e+04 7.078e-10
 20.40491     66.8 1.153e+04 9.537e-10
 20.43471     68.7 1.232e+04 1.297e-09
 20.46441     69.1 1.268e+04 1.539e-09
 20.47728     69.3 1.304e+04 1.798e-09
 20.48718     69.4 1.318e+04 1.954e-09
 20.50391     69.7 1.359e+04 2.383e-09
 20.52371     70.2 1.395e+04 2.826e-09
 20.54351     70.7 1.426e+04 3.263e-09
 20.56331     71.3 1.465e+04 3.774e-09
 20.58311     71.8 1.520e+04 4.527e-09
 20.59926     72.2 1.589e+04 5.603e-09
 20.60916     72.3 1.575e+04 5.416e-09
 20.62272     72.4 1.670e+04 6.851e-09
 20.64252     72.0 1.805e+04 9.092e-09
 20.66232     71.4 1.936e+04 1.217e-08
 20.68212     70.8 2.013e+04 1.506e-08
 20.70192     70.1 2.074e+04 1.824e-08
 20.71672     69.2 2.092e+04 1.978e-08
 20.72609     68.8 2.085e+04 2.052e-08
 20.73109     69.0 2.053e+04 1.658e-08
 20.73782     68.3 2.031e+04 1.708e-08
 20.74772     67.0 2.023e+04 1.946e-08
 20.76132     66.5 1.972e+04 1.696e-08
 20.78112     66.5 1.884e+04 1.397e-08
 20.80092     67.0 1.758e+04 1.080e-08
 20.82072     67.6 1.658e+04 7.584e-09
 20.84052     68.2 1.567e+04 5.160e-09
 20.85312     68.9 1.489e+04 3.420e-09
 20.86302     69.2 1.499e+04 3.771e-09
 20.88012     69.9 1.432e+04 2.559e-09
 20.89992     70.5 1.358e+04 1.695e-09
 20.91972     71.0 1.275e+04 1.121e-09
 20.93952     71.3 1.191e+04 7.748e-10
 20.95932     71.7 1.126e+04 5.857e-10
 20.97510     72.3 1.089e+04 4.947e-10
 20.98500     72.8 1.092e+04 5.317e-10
 20.99893     73.6 1.071e+04 4.755e-10
 21.01873     74.8 1.077e+04 4.665e-10
 21.03853     76.0 1.084e+04 4.788e-10
 21.05833     77.3 1.091e+04 4.949e-10
 21.07813     78.6 1.097e+04 5.113e-10
 21.09708     80.0 1.105e+04 5.327e-10
 21.10698     80.4 1.093e+04 5.043e-10
 21.11525     81.8 1.103e+04 5.270e-10
 21.12515     81.7 1.081e+04 4.459e-10
 21.13753     83.0 1.096e+04 4.824e-10
 21.15733     84.3 1.111e+04 5.232e-10
 21.17713     85.7 1.125e+04 5.616e-10
 21.19693     86.9 1.138e+04 5.934e-10
 21.21673     88.1 1.147e+04 6.277e-10
 21.22897     89.3 1.151e+04 6.527e-10
 21.23887     89.6 1.146e+04 6.456e-10
 21.25633     90.6 1.147e+04 6.489e-10
 21.27613     91.6 1.145e+04 6.438e-10
 21.29593     92.6 1.135e+04 6.193e-10
 21.31573     93.7 1.122e+04 5.748e-10
 21.33553     94.7 1.106e+04 5.156e-10
 21.35095     95.6 1.092e+04 4.491e-10
 21.36085     95.9 1.099e+04 4.576e-10
 21.37514     96.7 1.082e+04 3.848e-10
 21.39494     97.2 1.068e+04 3.405e-10
 21.42473     98.6 1.046e+04 2.969e-10
 21.46443    100.7 1.012e+04 2.403e-10
 21.50403    102.9 9.825e+03 2.029e-10
 21.54363    105.3 9.622e+03 1.813e-10
 21.58324    107.8 9.501e+03 1.745e-10
 21.60501    110.4 9.482e+03 1.759e-10
 21.62481    110.8 9.334e+03 1.538e-10
 21.66244    113.4 9.290e+03 1.541e-10
 21.70204    115.9 9.278e+03 1.560e-10
 21.74164    118.3 9.275e+03 1.608e-10
 21.78124    120.7 9.276e+03 1.711e-10
 21.82084    123.2 9.323e+03 1.911e-10
 21.84897    125.6 9.466e+03 2.262e-10
 21.86874    126.6 9.267e+03 1.892e-10
 21.90001    129.7 9.482e+03 2.395e-10
 21.93965    132.1 9.782e+03 3.118e-10
 21.97925    133.5 9.939e+03 3.749e-10
 22.00885    135.0 1.008e+04 4.512e-10
 22.02855    136.4 1.031e+04 5.640e-10
 22.04835    137.8 1.056e+04 7.005e-10
 22.06815    139.0 1.081e+04 8.388e-10
 22.08795    140.2 1.105e+04 9.704e-10
 22.10264    141.3 1.128e+04 1.101e-09
 22.11254    142.2 1.131e+04 1.143e-09
 22.12755    143.3 1.156e+04 1.292e-09
 22.14736    144.4 1.183e+04 1.465e-09
 22.16716    145.4 1.215e+04 1.679e-09
 22.18696    146.4 1.253e+04 1.958e-09
 22.20676    147.3 1.301e+04 2.345e-09
 22.22462    148.2 1.369e+04 2.916e-09
 22.23452    149.5 1.397e+04 3.166e-09
 22.24636    150.4 1.493e+04 4.199e-09
 22.25745    150.7 1.623e+04 5.876e-09
 22.26735    151.3 1.480e+04 3.807e-09
 22.28596    151.7 1.617e+04 5.329e-09
 22.30576    151.9 1.793e+04 7.674e-09
 22.32556    151.5 1.986e+04 1.064e-08
 22.34536    150.7 2.156e+04 1.289e-08
 22.35650    149.4 2.205e+04 1.327e-08
 22.36140    151.6 2.624e+04 1.991e-08
 22.37001    151.1 2.692e+04 1.877e-08
 22.37991    149.9 2.725e+04 1.697e-08
 22.38981    147.8 2.750e+04 1.397e-08
 22.39971    144.8 2.801e+04 1.068e-08
 22.40961    141.3 3.012e+04 6.693e-09
 22.41739    138.6 3.070e+04 5.359e-09
 22.42234    135.8 2.965e+04 2.004e-08
 22.42941    135.1 2.889e+04 1.447e-08
 22.43932    135.8 2.964e+04 8.318e-09
 22.44607    135.9 3.006e+04 5.511e-09
 22.45102    138.6 2.917e+04 1.383e-08
 22.46411    138.3 3.277e+04 2.435e-09
 22.47848    137.5 3.311e+04 7.357e-10
 22.48838    138.0 3.088e+04 2.348e-09
 22.50376    136.6 2.258e+04 1.224e-09
 22.52356    134.6 1.575e+04 9.421e-10
 22.54337    132.5 1.303e+04 6.981e-10
 22.56317    131.0 1.154e+04 6.797e-10
 22.58297    129.8 1.152e+04 7.254e-10
 22.60046    128.5 1.214e+04 9.692e-10
 22.61036    130.6 1.209e+04 7.777e-10
 22.62257    128.3 1.231e+04 9.416e-10
 22.63488    126.0 1.356e+04 1.496e-09
 22.64478    125.5 1.351e+04 1.598e-09
 22.66217    123.5 1.441e+04 2.699e-09
 22.68197    122.3 1.481e+04 4.116e-09
 22.70177    121.5 1.477e+04 4.667e-09
 22.72157    120.8 1.467e+04 4.561e-09
 22.73234    120.4 1.431e+04 3.971e-09
 22.74224    120.8 1.450e+04 3.435e-09
 22.76117    120.3 1.397e+04 2.894e-09
 22.78097    119.7 1.335e+04 2.142e-09
 22.80077    118.9 1.268e+04 1.481e-09
 22.82057    117.8 1.204e+04 1.050e-09
 22.84452    117.6 1.104e+04 7.046e-10
 22.86442    118.9 1.172e+04 9.305e-10
 22.89007    119.7 1.118e+04 7.825e-10
 22.92967    121.2 1.072e+04 6.669e-10
 22.96927    122.8 1.030e+04 5.425e-10
 23.00887    124.3 9.895e+03 4.289e-10
 23.04847    125.7 9.644e+03 3.628e-10
 23.08807    127.2 9.617e+03 3.553e-10
 23.10838    128.9 9.629e+03 3.581e-10
 23.11819    129.3 1.023e+04 4.637e-10
 23.13738    130.0 1.020e+04 4.555e-10
 23.15718    130.9 1.021e+04 4.453e-10
 23.17698    131.4 1.021e+04 4.454e-10
 23.19678    132.4 1.021e+04 4.422e-10
 23.21658    132.9 1.022e+04 4.438e-10
 23.23017    133.9 1.023e+04 4.489e-10
 23.24007    133.9 1.026e+04 4.564e-10
 23.25618    134.6 1.029e+04 4.688e-10
 23.27598    135.3 1.032e+04 4.922e-10
 23.29578    136.0 1.039e+04 5.241e-10
 23.31559    136.7 1.050e+04 5.696e-10
 23.33539    137.3 1.066e+04 6.376e-10
 23.35215    137.8 1.088e+04 7.356e-10
 23.36205    137.6 1.079e+04 6.284e-10
 23.37499    138.0 1.105e+04 7.313e-10
 23.38974    138.2 1.135e+04 8.631e-10
 23.39964    139.6 1.125e+04 8.264e-10
 23.41459    139.8 1.157e+04 9.770e-10
 23.43439    139.9 1.191e+04 1.157e-09
 23.45419    139.9 1.224e+04 1.334e-09
 23.48399    140.0 1.234e+04 1.195e-09
 23.52369    139.5 1.215e+04 1.093e-09
 23.56329    138.4 1.159e+04 8.022e-10
 23.59631    136.8 1.067e+04 5.227e-10
 23.61611    136.1 1.011e+04 4.923e-10
 23.64249    134.8 9.656e+03 4.248e-10
 23.68209    133.2 9.471e+03 3.940e-10
 23.72169    131.1 9.347e+03 3.624e-10
 23.76129    128.3 9.140e+03 3.185e-10
 23.80089    124.8 8.892e+03 2.767e-10
 23.84027    121.0 8.874e+03 2.717e-10
 23.86007    121.3 9.360e+03 3.258e-10
 23.88010    118.4 9.470e+03 3.566e-10
 23.90970    116.7 9.587e+03 4.022e-10
 23.92940    115.2 9.978e+03 5.070e-10
 23.94920    113.4 1.071e+04 7.412e-10
 23.96900    112.0 1.151e+04 1.139e-09
 23.98186    111.3 1.223e+04 1.689e-09
 23.99176    111.7 1.228e+04 1.970e-09
 24.00860    111.9 1.282e+04 2.583e-09
 24.02840    111.9 1.324e+04 2.776e-09
 24.04820    111.6 1.332e+04 2.739e-09
 24.06800    110.8 1.339e+04 2.482e-09
 24.08781    109.8 1.321e+04 1.995e-09
 24.10384    108.6 1.276e+04 1.528e-09
 24.12374    110.4 1.246e+04 1.398e-09
 24.14480    108.0 1.165e+04 9.139e-10
 24.16460    106.5 1.157e+04 8.878e-10
 24.19690    104.2 1.062e+04 6.424e-10
 24.23650    102.4 9.901e+03 4.966e-10
 24.27611    101.8 9.415e+03 3.919e-10
 24.31571    101.8 9.081e+03 2.942e-10
 24.34800    102.7 8.824e+03 2.285e-10
 24.36770    103.2 9.187e+03 3.011e-10
 24.38481    104.0 8.998e+03 2.683e-10
 24.40461    104.6 9.053e+03 2.583e-10
 24.42441    105.0 9.252e+03 2.673e-10
 24.44421    105.2 9.918e+03 3.048e-10
 24.46401    105.3 1.086e+04 4.065e-10
 24.47968    105.4 1.168e+04 5.756e-10
 24.48958    102.6 1.543e+04 2.131e-09
 24.50362    103.3 1.571e+04 2.773e-09
 24.52203    103.8 1.635e+04 3.807e-09
 24.53193    102.8 1.694e+04 6.100e-09
 24.54322    103.9 1.758e+04 7.922e-09
 24.55802    104.1 1.793e+04 8.715e-09
 24.56787    103.7 1.866e+04 1.029e-08
 24.57777    102.4 2.038e+04 1.365e-08
 24.58767     99.8 2.288e+04 2.085e-08
 24.59757     96.6 2.446e+04 3.946e-08
 24.60652     93.7 2.431e+04 8.715e-08
 24.61147     91.7 2.358e+04 1.183e-07
 24.61737     90.3 2.302e+04 2.053e-07
 24.62727     88.7 2.310e+04 2.326e-07
 24.63717     87.0 2.315e+04 2.164e-07
 24.64707     86.1 2.341e+04 1.533e-07
 24.65697     85.4 2.447e+04 8.011e-08
 24.66687     83.8 2.760e+04 3.190e-08
 24.67246     79.8 3.145e+04 1.219e-08
 24.67741     75.2 3.060e+04 7.853e-09
 24.68667     68.7 3.110e+04 3.489e-09
 24.70157     58.9 2.498e+04 1.922e-09
 24.72142     49.7 1.358e+04 1.552e-09
 24.73355     49.4 1.275e+04 1.326e-09
 24.74345     48.7 1.278e+04 1.294e-09
 24.76102     48.9 1.237e+04 9.920e-10
 24.79082     49.5 1.169e+04 6.679e-10
 24.83052     49.3 1.048e+04 3.249e-10
 24.85572     48.4 9.328e+03 1.652e-10
 24.87552     46.0 8.916e+03 1.278e-10
 24.89966     46.0 8.707e+03 1.182e-10
 24.91946     46.7 8.720e+03 1.119e-10
 24.94932     47.5 8.728e+03 1.133e-10
 24.98892     48.6 8.844e+03 1.241e-10
 25.02852     49.3 9.049e+03 1.435e-10
 25.06813     49.8 9.241e+03 1.646e-10
 25.09969     50.2 9.429e+03 1.838e-10
 25.11949     49.5 9.298e+03 1.631e-10
 25.14733     49.4 9.437e+03 1.748e-10
 25.18693     49.1 9.617e+03 1.931e-10
 25.22653     48.3 9.843e+03 2.282e-10
 25.26613     47.5 1.007e+04 2.743e-10
 25.30573     46.5 1.012e+04 2.857e-10
 25.34365     45.1 1.003e+04 2.714e-10
 25.36345     45.8 1.003e+04 2.716e-10
 25.38493     44.5 9.682e+03 2.100e-10
 25.42454     42.5 9.133e+03 1.341e-10
 25.46414     39.7 8.798e+03 1.124e-10
 25.50374     36.8 8.845e+03 1.201e-10
 25.54334     33.2 9.236e+03 1.716e-10
 25.58294     29.3 1.024e+04 2.848e-10
 25.60731     25.9 1.159e+04 5.177e-10
 25.61712     28.0 1.124e+04 4.531e-10
 25.63225     25.1 1.200e+04 7.411e-10
 25.65205     21.3 1.333e+04 1.230e-09
 25.66423     16.9 1.457e+04 1.908e-09
 25.67413     17.6 1.470e+04 1.962e-09
 25.69165     13.3 1.541e+04 2.738e-09
 25.71145      9.0 1.548e+04 2.991e-09
 25.72920      4.4 1.539e+04 2.864e-09
 25.73910      7.2 1.560e+04 3.151e-09
 25.75105      2.3 1.550e+04 2.890e-09
 25.77085     -2.9 1.530e+04 2.648e-09
 25.79065     -6.5 1.454e+04 2.219e-09
 25.81045     -8.9 1.336e+04 1.765e-09
 25.83025    -10.1 1.261e+04 1.275e-09
 25.85005    -11.2 1.293e+04 9.124e-10
 25.86108    -12.3 1.273e+04 7.143e-10
 25.87098    -11.4 1.342e+04 1.041e-09
 25.88965    -12.9 1.286e+04 7.209e-10
 25.90945    -15.4 1.215e+04 4.530e-10
 25.93925    -17.6 1.198e+04 5.861e-10
 25.97895    -19.5 1.094e+04 4.960e-10
 26.01855    -20.2 1.056e+04 5.193e-10
 26.05815    -20.9 1.081e+04 5.987e-10
 26.09534    -21.2 1.108e+04 6.837e-10
 26.11514    -20.9 1.148e+04 8.891e-10
 26.12736    -21.1 1.155e+04 7.674e-10
 26.14706    -21.2 1.152e+04 7.591e-10
 26.16686    -21.3 1.138e+04 7.801e-10
 26.18666    -20.9 1.115e+04 8.147e-10
 26.20646    -19.9 1.110e+04 8.482e-10
 26.22626    -19.0 1.103e+04 8.503e-10
 26.23692    -17.8 1.102e+04 8.168e-10
 26.24682    -17.7 1.072e+04 6.424e-10
 26.26586    -17.0 1.066e+04 6.183e-10
 26.29566    -16.1 1.052e+04 6.049e-10
 26.33536    -14.7 1.025e+04 5.206e-10
 26.35900    -13.1 1.031e+04 4.517e-10
 26.37880    -12.1 9.828e+03 3.353e-10
 26.40456    -11.0 1.023e+04 4.325e-10
 26.41909    -10.8 1.034e+04 4.603e-10
 26.42899    -11.0 1.050e+04 5.195e-10
 26.44407    -10.5 1.102e+04 8.074e-10
 26.46387    -11.3 1.222e+04 1.064e-09
 26.48089    -13.1 1.359e+04 1.633e-09
 26.49079    -12.1 1.337e+04 1.636e-09
 26.50347    -12.5 1.408e+04 2.422e-09
 26.52327    -11.8 1.362e+04 3.191e-09
 26.54307    -10.1 1.346e+04 3.464e-09
 26.56287     -9.0 1.452e+04 3.253e-09
 26.58267     -9.1 1.479e+04 2.185e-09
 26.60247    -12.2 1.325e+04 1.204e-09
 26.61277    -15.0 1.125e+04 6.829e-10
 26.62267    -14.6 1.116e+04 6.394e-10
 26.64207    -15.9 1.032e+04 4.791e-10
 26.66187    -15.9 1.012e+04 4.335e-10
 26.68167    -15.7 1.001e+04 4.096e-10
 26.70147    -15.3 9.877e+03 3.968e-10
 26.72127    -14.7 9.818e+03 3.929e-10
 26.73475    -14.1 9.836e+03 4.048e-10
 26.74465    -13.6 9.909e+03 4.080e-10
 26.76087    -13.1 9.927e+03 4.215e-10
 26.78067    -12.6 1.010e+04 4.547e-10
 26.79652    -12.5 1.033e+04 5.140e-10
 26.80642    -12.4 1.033e+04 5.180e-10
 26.82028    -12.6 1.049e+04 5.905e-10
 26.84008    -12.4 1.072e+04 7.454e-10
 26.85673    -12.4 1.095e+04 9.056e-10
 26.86663    -11.8 1.121e+04 9.505e-10
 26.87968    -11.3 1.142e+04 1.225e-09
 26.89948    -10.7 1.176e+04 1.483e-09
 26.91928    -10.0 1.191e+04 1.708e-09
 26.93908     -8.9 1.208e+04 1.764e-09
 26.95888     -7.9 1.216e+04 1.708e-09
 26.97868     -7.0 1.233e+04 1.577e-09
 26.99848     -6.2 1.337e+04 2.521e-09
 27.01828     -7.0 1.443e+04 2.329e-09
 27.03808     -9.7 1.518e+04 2.346e-09
 27.05788    -12.1 1.405e+04 2.255e-09
 27.07768    -13.3 1.281e+04 2.166e-09
 27.09748    -12.7 1.272e+04 2.271e-09
 27.11059    -12.3 1.264e+04 2.068e-09
 27.12049    -11.8 1.367e+04 2.809e-09
 27.13708    -12.5 1.301e+04 1.968e-09
 27.15688    -14.2 1.186e+04 1.330e-09
 27.17395    -15.2 1.106e+04 1.015e-09
 27.18385    -15.4 1.087e+04 9.068e-10
 27.19649    -15.5 1.066e+04 8.198e-10
 27.21629    -15.2 1.053e+04 7.601e-10
 27.23258    -14.8 1.044e+04 7.137e-10
 27.24248    -14.9 1.063e+04 7.843e-10
 27.25589    -14.5 1.054e+04 7.396e-10
 27.28569    -14.0 1.038e+04 6.728e-10
 27.32538    -12.3 1.024e+04 6.224e-10
 27.35475    -10.6 1.010e+04 5.256e-10
 27.37455    -11.2 1.017e+04 5.271e-10
 27.40459     -9.9 9.872e+03 4.333e-10
 27.44419     -8.0 9.736e+03 3.976e-10
 27.48379     -6.0 9.803e+03 3.794e-10
 27.52339     -4.4 9.831e+03 3.583e-10
 27.56299     -2.9 9.954e+03 4.125e-10
 27.59871     -1.0 1.013e+04 5.109e-10
 27.61851     -0.9 1.024e+04 5.207e-10
 27.64219      1.1 1.042e+04 5.999e-10
 27.68179      3.5 1.041e+04 6.349e-10
 27.72139      6.0 1.036e+04 5.813e-10
 27.76100      8.3 1.024e+04 4.975e-10
 27.80060     10.6 1.005e+04 4.103e-10
 27.84020     12.7 9.867e+03 3.420e-10
 27.86248     14.8 9.748e+03 3.073e-10
 27.88228     15.0 9.786e+03 3.112e-10
 27.91911     17.3 9.752e+03 3.089e-10
 27.93891     17.1 9.462e+03 2.402e-10
 27.95900     19.7 9.600e+03 2.864e-10
 27.99860     22.4 9.803e+03 3.289e-10
 28.03820     25.2 9.920e+03 3.608e-10
 28.07780     28.0 1.003e+04 3.715e-10
 28.10644     30.7 1.003e+04 3.504e-10
 28.12624     30.7 1.050e+04 5.321e-10
 28.15701     33.3 1.049e+04 5.117e-10
 28.19661     36.0 1.039e+04 4.602e-10
 28.23621     38.7 1.021e+04 3.944e-10
 28.27581     41.4 1.000e+04 3.355e-10
 28.31541     44.2 9.838e+03 2.941e-10
 28.35040     47.0 9.729e+03 2.789e-10
 28.37020     47.2 1.034e+04 4.369e-10
 28.39461     50.0 1.020e+04 4.141e-10
 28.43421     53.2 1.021e+04 4.177e-10
 28.47381     56.4 1.030e+04 4.263e-10
 28.51341     59.2 1.025e+04 4.141e-10
 28.55302     62.1 1.012e+04 3.851e-10
 28.59262     65.4 1.003e+04 3.785e-10
 28.61417     68.3 1.001e+04 3.842e-10
 28.63397     68.5 9.733e+03 3.079e-10
 28.67182     71.6 9.716e+03 3.168e-10
 28.69367     73.9 9.726e+03 3.433e-10
 28.71347     74.5 9.618e+03 3.272e-10
 28.75102     77.0 9.699e+03 3.881e-10
 28.78062     79.3 9.779e+03 4.451e-10
 28.80033     81.0 9.893e+03 5.106e-10
 28.82013     82.7 1.002e+04 5.776e-10
 28.83993     84.3 1.015e+04 6.339e-10
 28.85793     85.6 1.026e+04 6.786e-10
 28.86783     86.4 1.009e+04 5.932e-10
 28.87953     87.7 1.021e+04 6.461e-10
 28.89933     88.9 1.034e+04 7.148e-10
 28.91913     90.1 1.055e+04 8.198e-10
 28.93893     91.2 1.095e+04 1.001e-09
 28.95873     91.8 1.168e+04 1.339e-09
 28.97853     92.0 1.268e+04 1.932e-09
 28.98982     92.2 1.385e+04 2.902e-09
 28.99972     93.7 1.374e+04 2.746e-09
 29.01813     94.4 1.505e+04 4.207e-09
 29.03293     94.2 1.554e+04 4.969e-09
 29.04279     94.3 1.581e+04 5.495e-09
 29.05071     94.5 1.610e+04 6.159e-09
 29.05566     95.2 1.614e+04 6.125e-09
 29.06259     95.6 1.648e+04 6.843e-09
 29.07091     95.7 1.675e+04 7.386e-09
 29.07586     94.8 1.675e+04 7.376e-09
 29.08239     94.7 1.699e+04 7.664e-09
 29.09229     94.5 1.719e+04 7.782e-09
 29.10219     94.1 1.737e+04 7.780e-09
 29.11170     93.7 1.748e+04 7.742e-09
 29.11665     94.6 1.731e+04 7.433e-09
 29.12199     94.2 1.735e+04 7.270e-09
 29.13189     93.8 1.736e+04 7.264e-09
 29.14179     93.3 1.745e+04 7.368e-09
 29.15169     92.8 1.771e+04 7.761e-09
 29.16159     92.2 1.803e+04 8.404e-09
 29.17149     91.6 1.832e+04 9.120e-09
 29.17764     91.1 1.847e+04 9.869e-09
 29.18259     92.3 1.837e+04 9.382e-09
 29.19129     91.8 1.850e+04 1.040e-08
 29.20119     91.6 1.864e+04 1.134e-08
 29.21109     91.7 1.885e+04 1.247e-08
 29.22099     91.9 1.888e+04 1.364e-08
 29.23089     92.1 1.883e+04 1.389e-08
 29.23863     92.3 1.872e+04 1.319e-08
 29.24358     93.1 1.916e+04 1.531e-08
 29.25069     93.5 1.897e+04 1.446e-08
 29.25962     93.8 1.868e+04 1.269e-08
 29.26457     92.7 1.808e+04 9.463e-09
 29.27049     92.5 1.775e+04 7.654e-09
 29.28039     92.3 1.730e+04 6.207e-09
 29.29029     92.0 1.683e+04 4.943e-09
 29.29962     91.6 1.630e+04 4.176e-09
 29.30457     92.8 1.723e+04 5.420e-09
 29.31009     92.1 1.661e+04 4.283e-09
 29.31999     91.7 1.618e+04 3.857e-09
 29.33489     91.5 1.596e+04 3.262e-09
 29.35474     90.9 1.554e+04 2.794e-09
 29.36566     90.3 1.504e+04 2.334e-09
 29.37556     91.9 1.609e+04 3.455e-09
 29.39434     92.3 1.584e+04 3.073e-09
 29.41414     92.7 1.534e+04 2.481e-09
 29.43394     92.5 1.463e+04 1.873e-09
 29.44844     92.3 1.388e+04 1.397e-09
 29.45834     90.0 1.334e+04 1.203e-09
 29.47354     89.5 1.314e+04 1.016e-09
 29.48764     89.6 1.331e+04 9.832e-10
 29.49754     90.3 1.375e+04 1.087e-09
 29.51315     90.5 1.381e+04 1.109e-09
 29.53295     91.2 1.414e+04 1.207e-09
 29.55275     92.5 1.456e+04 1.365e-09
 29.57255     94.3 1.500e+04 1.527e-09
 29.59235     96.0 1.550e+04 1.665e-09
 29.60962     97.3 1.611e+04 1.806e-09
 29.61952     98.6 1.658e+04 2.044e-09
 29.63195     99.0 1.748e+04 2.303e-09
 29.65175     98.7 1.858e+04 2.799e-09
 29.67155     98.4 1.977e+04 3.646e-09
 29.69135     98.3 2.105e+04 4.774e-09
 29.71115     97.8 2.209e+04 5.334e-09
 29.73095     95.7 2.220e+04 5.107e-09
 29.74150     93.6 2.372e+04 4.149e-09
 29.75140     93.7 3.728e+04 2.255e-09
 29.77055     42.4 3.680e+05 9.792e-11
 29.78535     29.6 4.547e+05 7.330e-11
 29.79520      7.8 8.110e+05 4.151e-11
 29.80240     10.2 1.135e+06 3.089e-11
 29.80735     14.0 1.548e+06 2.586e-11
 29.81501     34.2 1.579e+06 2.501e-11
 29.82491     57.2 1.348e+06 3.280e-11
 29.83072     72.1 9.523e+05 4.867e-11
 29.83567     17.4 1.010e+05 7.969e-10
 29.84471     -6.2 4.031e+04 5.252e-09
 29.85461    -16.7 3.194e+04 7.761e-09
 29.86339    -28.2 2.887e+04 1.096e-08
 29.86834    -33.7 2.792e+04 1.184e-08
 29.87441    -40.8 2.749e+04 1.247e-08
 29.88431    -49.0 2.607e+04 1.007e-08
 29.89421    -54.5 2.668e+04 7.727e-09
 29.90411    -61.9 2.743e+04 4.525e-09
 29.91401    -70.0 2.822e+04 2.577e-09
 29.92891    -80.2 2.606e+04 1.145e-09
 29.94876    -94.0 1.704e+04 5.752e-10
 29.96856    -97.0 1.424e+04 4.672e-10
 29.98547    -97.4 1.391e+04 4.060e-10
 29.99537   -101.4 1.383e+04 3.826e-10
 30.00816   -100.5 1.311e+04 3.124e-10
 30.02796    -99.2 1.252e+04 2.830e-10
 30.04276    -96.6 1.190e+04 2.685e-10
 30.05131    -96.2 1.198e+04 2.688e-10
 30.05626    -96.2 1.201e+04 2.704e-10
 30.06251    -95.4 1.198e+04 2.682e-10
 30.07241    -95.2 1.246e+04 2.741e-10
 30.08231    -95.4 1.466e+04 3.204e-10
 30.09221    -98.1 1.950e+04 4.342e-10
 30.10211   -101.0 2.396e+04 8.915e-10
 30.11201   -103.4 2.658e+04 2.069e-09
 30.11725   -105.3 2.762e+04 4.468e-09
 30.12220   -112.7 3.134e+04 2.040e-08
 30.13181   -113.5 3.017e+04 3.503e-08
 30.14171   -113.5 2.943e+04 4.842e-08
 30.15161   -113.2 2.885e+04 6.054e-08
 30.16151   -112.7 2.899e+04 7.156e-08
 30.17141   -112.3 2.994e+04 8.310e-08
 30.17824   -111.9 3.204e+04 9.221e-08
 30.18319   -115.0 3.403e+04 1.080e-07
 30.19121   -114.4 3.776e+04 9.879e-08
 30.20112   -114.0 4.218e+04 8.320e-08
 30.20815   -113.7 4.638e+04 6.722e-08
 30.21310   -106.0 3.399e+04 6.717e-08
 30.22092   -105.9 3.711e+04 6.304e-08
 30.23082   -106.2 4.055e+04 5.553e-08
 30.23923   -106.9 4.412e+04 4.522e-08
 30.24418   -109.3 4.680e+04 3.631e-08
 30.25062   -110.1 4.779e+04 3.017e-08
 30.26052   -110.9 4.738e+04 2.735e-08
 30.27042   -111.9 4.586e+04 2.748e-08
 30.28032   -112.8 4.258e+04 3.312e-08
 30.29022   -113.4 3.857e+04 4.581e-08
 30.30012   -113.5 3.533e+04 6.736e-08
 30.30517   -113.6 3.259e+04 1.007e-07
 30.31012   -112.6 3.292e+04 7.294e-08
 30.31992   -112.6 3.113e+04 1.005e-07
 30.32982   -112.6 2.932e+04 1.322e-07
 30.33972   -112.4 2.788e+04 1.644e-07
 30.34962   -111.6 2.684e+04 1.968e-07
 30.35952   -110.6 2.623e+04 2.276e-07
 30.36616   -109.9 2.592e+04 2.498e-07
 30.37111   -108.5 2.660e+04 2.001e-07
 30.37932   -108.0 2.644e+04 2.080e-07
 30.38922   -107.6 2.639e+04 1.986e-07
 30.39687   -107.0 2.648e+04 1.783e-07
 30.40182   -106.7 2.643e+04 1.045e-07
 30.40902   -106.0 2.621e+04 1.127e-07
 30.41892   -105.4 2.611e+04 1.204e-07
 30.42715   -105.0 2.600e+04 1.276e-07
 30.43210   -103.1 2.613e+04 1.085e-07
 30.43872   -102.8 2.613e+04 1.132e-07
 30.44862   -102.7 2.562e+04 1.229e-07
 30.45852   -102.7 2.437e+04 1.487e-07
 30.46842   -102.5 2.323e+04 1.938e-07
 30.47832   -102.2 2.238e+04 2.472e-07
 30.48814   -102.1 2.186e+04 2.868e-07
 30.49310   -101.8 2.220e+04 2.902e-07
 30.49812   -102.4 2.186e+04 3.012e-07
 30.50802   -102.4 2.118e+04 2.709e-07
 30.51792   -101.1 2.086e+04 1.962e-07
 30.52782    -99.3 2.060e+04 1.340e-07
 30.53772    -97.8 2.052e+04 9.203e-08
 30.54762    -96.9 2.060e+04 6.482e-08
 30.55409    -95.9 2.062e+04 4.695e-08
 30.55904    -95.5 2.051e+04 7.125e-08
 30.56742    -94.5 2.023e+04 5.109e-08
 30.57732    -93.3 2.005e+04 3.567e-08
 30.58558    -92.6 1.997e+04 2.417e-08
 30.59053    -92.5 2.029e+04 3.229e-08
 30.59713    -91.7 2.011e+04 2.536e-08
 30.60703    -91.1 2.002e+04 2.071e-08
 30.61513    -90.5 2.008e+04 1.732e-08
 30.62008    -88.9 1.973e+04 2.980e-08
 30.62683    -88.0 1.959e+04 2.592e-08
 30.63673    -87.1 1.947e+04 2.262e-08
 30.64663    -86.2 1.930e+04 1.958e-08
 30.65653    -85.3 1.911e+04 1.727e-08
 30.66643    -83.9 1.903e+04 1.597e-08
 30.68133    -82.4 1.925e+04 1.703e-08
 30.70118    -80.3 1.919e+04 1.427e-08
 30.72098    -78.2 1.922e+04 1.235e-08
 30.73716    -75.9 1.924e+04 1.068e-08
 30.74706    -74.3 1.948e+04 1.567e-08
 30.76058    -71.8 1.988e+04 1.269e-08
 30.78038    -69.7 2.004e+04 1.003e-08
 30.80018    -67.9 1.973e+04 7.662e-09
 30.81998    -66.2 1.933e+04 5.604e-09
 30.83978    -64.2 1.913e+04 3.915e-09
 30.85914    -61.9 1.910e+04 2.492e-09
 30.86904    -59.4 2.213e+04 2.177e-09
 30.87938    -55.9 2.236e+04 1.089e-09
 30.89918    -55.0 2.220e+04 6.764e-10
 30.92898    -57.4 1.713e+04 2.636e-10
 30.95836    -55.3 1.158e+04 3.236e-10
 30.96816    -51.0 1.800e+04 1.097e-09
 30.97838    -50.0 1.324e+04 8.065e-10
 30.99102    -49.6 1.154e+04 7.534e-10
 31.00092    -48.5 1.327e+04 5.286e-10
 31.01798    -47.9 1.126e+04 5.795e-10
 31.03778    -47.2 1.041e+04 5.623e-10
 31.05758    -46.1 1.036e+04 6.354e-10
 31.07739    -45.3 1.033e+04 6.756e-10
 31.09719    -43.9 1.087e+04 7.278e-10
 31.11300    -42.9 1.299e+04 7.016e-10
 31.12290    -42.0 8.763e+03 6.963e-10
 31.13679    -41.4 8.955e+03 7.119e-10
 31.15659    -41.6 1.012e+04 6.634e-10
 31.17639    -44.6 2.084e+04 5.356e-10
 31.19619    -53.7 5.235e+04 5.019e-10
 31.21099    -60.7 5.336e+04 2.667e-09
 31.22084    -61.3 4.771e+04 5.507e-09
 31.23074    -63.3 2.908e+04 3.992e-08
 31.23983    -61.9 2.358e+04 1.279e-07
 31.24478    -62.3 2.337e+04 9.939e-08
 31.25054    -61.4 2.115e+04 2.128e-07
 31.26044    -59.6 2.077e+04 3.604e-07
 31.27034    -58.2 2.062e+04 4.892e-07
 31.28024    -57.0 2.047e+04 5.192e-07
 31.29014    -55.1 2.030e+04 4.571e-07
 31.30004    -53.4 2.034e+04 3.930e-07
 31.30577    -52.0 2.039e+04 3.311e-07
 31.31072    -52.8 2.059e+04 1.984e-07
 31.31984    -52.0 2.082e+04 1.673e-07
 31.32974    -52.0 2.163e+04 1.423e-07
 31.33964    -52.8 2.280e+04 1.291e-07
 31.34539    -55.0 2.358e+04 1.408e-07
 31.35034    -55.3 2.919e+04 5.000e-08
 31.35945    -57.4 2.989e+04 4.217e-08
 31.36677    -59.0 2.970e+04 3.668e-08
 31.37172    -56.4 2.849e+04 4.583e-08
 31.37925    -56.9 2.771e+04 5.389e-08
 31.38915    -55.7 2.771e+04 6.570e-08
 31.39905    -53.9 2.883e+04 7.042e-08
 31.40895    -52.1 2.995e+04 6.646e-08
 31.41885    -50.8 3.414e+04 4.459e-08
 31.42776    -52.0 4.261e+04 1.315e-08
 31.43271    -47.4 3.196e+04 6.281e-08
 31.43865    -49.3 4.025e+04 1.663e-08
 31.44855    -57.1 4.025e+04 3.023e-09
 31.45845    -66.9 1.727e+04 1.490e-09
 31.47335    -69.0 1.158e+04 1.334e-09
 31.48884    -69.0 1.122e+04 1.163e-09
 31.49874    -68.2 1.118e+04 1.132e-09
 31.51300    -68.1 1.102e+04 1.082e-09
 31.53280    -67.9 1.098e+04 1.078e-09
 31.55260    -67.5 1.111e+04 1.169e-09
 31.57240    -66.9 1.129e+04 1.293e-09
 31.59220    -66.2 1.138e+04 1.376e-09
 31.61083    -65.7 1.138e+04 1.394e-09
 31.62073    -64.8 1.145e+04 1.405e-09
 31.63180    -64.3 1.137e+04 1.368e-09
 31.65160    -63.7 1.105e+04 1.181e-09
 31.67140    -63.5 1.059e+04 9.316e-10
 31.69120    -63.4 1.010e+04 6.964e-10
 31.71100    -64.0 9.653e+03 5.239e-10
 31.72292    -64.7 9.349e+03 4.286e-10
 31.73282    -64.8 9.144e+03 3.752e-10
 31.76060    -65.2 9.116e+03 3.506e-10
 31.80030    -65.8 9.120e+03 3.436e-10
 31.83990    -66.2 9.077e+03 3.393e-10
 31.86488    -66.2 8.974e+03 3.198e-10
 31.88468    -65.8 9.304e+03 3.864e-10
 31.91910    -66.1 9.079e+03 3.227e-10
 31.95870    -66.2 8.838e+03 2.740e-10
 31.99830    -66.2 8.703e+03 2.537e-10
 32.03791    -65.5 8.663e+03 2.514e-10
 32.07751    -64.6 8.775e+03 2.740e-10
 32.10885    -63.4 8.908e+03 3.022e-10
 32.12865    -64.0 9.094e+03 3.376e-10
 32.15671    -62.6 9.122e+03 3.429e-10
 32.19631    -61.1 9.109e+03 3.303e-10
 32.23591    -59.5 9.076e+03 3.095e-10
 32.27551    -57.8 9.021e+03 2.887e-10
 32.31511    -55.8 9.030e+03 2.778e-10
 32.35281    -53.5 9.108e+03 2.775e-10
 32.37251    -53.9 9.115e+03 2.754e-10
 32.38422    -52.1 9.300e+03 3.047e-10
 32.40402    -51.6 9.419e+03 3.292e-10
 32.42382    -50.6 9.580e+03 3.737e-10
 32.44362    -49.6 9.760e+03 4.332e-10
 32.46342    -48.4 1.006e+04 5.268e-10
 32.47778    -47.4 1.043e+04 6.545e-10
 32.48769    -47.1 1.037e+04 6.311e-10
 32.49440    -46.1 1.077e+04 7.862e-10
 32.50430    -46.8 1.114e+04 9.350e-10
 32.52282    -45.8 1.168e+04 1.220e-09
 32.54262    -44.9 1.222e+04 1.589e-09
 32.56242    -43.8 1.269e+04 2.046e-09
 32.58222    -42.6 1.315e+04 2.627e-09
 32.60202    -41.6 1.370e+04 3.359e-09
 32.61638    -40.4 1.446e+04 4.143e-09
 32.62128    -41.0 1.577e+04 5.388e-09
 32.62668    -40.8 1.578e+04 5.467e-09
 32.63658    -39.5 1.617e+04 6.032e-09
 32.64648    -39.1 1.606e+04 6.196e-09
 32.65638    -38.4 1.638e+04 6.807e-09
 32.66628    -38.0 1.658e+04 7.269e-09
 32.67135    -37.4 1.685e+04 7.799e-09
 32.67630    -36.9 1.563e+04 4.861e-09
 32.68222    -36.6 1.559e+04 4.921e-09
 32.68717    -36.9 1.607e+04 5.722e-09
 32.69598    -36.3 1.635e+04 6.026e-09
 32.70588    -35.9 1.683e+04 6.535e-09
 32.71578    -35.5 1.765e+04 7.441e-09
 32.72568    -35.6 1.862e+04 8.807e-09
 32.73558    -35.8 1.974e+04 1.120e-08
 32.74321    -36.2 2.068e+04 1.479e-08
 32.74816    -37.3 2.153e+04 2.360e-08
 32.75538    -37.5 2.157e+04 3.518e-08
 32.76528    -37.6 2.150e+04 5.179e-08
 32.77518    -37.6 2.149e+04 7.165e-08
 32.78508    -38.1 2.150e+04 9.017e-08
 32.79498    -38.3 2.154e+04 9.967e-08
 32.80420    -37.8 2.172e+04 9.697e-08
 32.80915    -38.8 2.177e+04 1.304e-07
 32.81478    -37.6 2.236e+04 9.443e-08
 32.82468    -37.0 2.303e+04 7.990e-08
 32.83458    -36.7 2.360e+04 7.093e-08
 32.84448    -36.7 2.396e+04 6.200e-08
 32.85438    -36.7 2.400e+04 5.274e-08
 32.86007    -36.4 2.387e+04 4.448e-08
 32.86502    -36.6 2.319e+04 2.845e-08
 32.87014    -36.3 2.304e+04 2.651e-08
 32.87509    -37.3 2.332e+04 3.212e-08
 32.88408    -36.9 2.312e+04 3.091e-08
 32.89398    -36.4 2.302e+04 3.069e-08
 32.90388    -35.8 2.297e+04 3.112e-08
 32.91379    -35.4 2.299e+04 3.154e-08
 32.92369    -35.2 2.280e+04 3.124e-08
 32.93113    -35.0 2.250e+04 3.056e-08
 32.93608    -35.6 2.259e+04 4.001e-08
 32.94349    -35.1 2.262e+04 4.221e-08
 32.95339    -34.3 2.296e+04 4.805e-08
 32.96329    -33.6 2.321e+04 5.153e-08
 32.97319    -33.2 2.308e+04 5.102e-08
 32.98309    -32.6 2.282e+04 4.805e-08
 32.99212    -32.0 2.286e+04 4.836e-08
 32.99707    -32.5 2.258e+04 6.048e-08
 33.00289    -31.7 2.274e+04 7.626e-08
 33.01279    -30.5 2.292e+04 1.015e-07
 33.02269    -29.5 2.306e+04 1.206e-07
 33.03259    -29.2 2.284e+04 1.209e-07
 33.04249    -28.3 2.256e+04 1.058e-07
 33.04878    -27.0 2.274e+04 1.029e-07
 33.05373    -27.1 2.261e+04 5.211e-08
 33.05806    -26.5 2.301e+04 6.231e-08
 33.06301    -27.1 2.260e+04 6.564e-08
 33.07219    -26.2 2.247e+04 8.137e-08
 33.08209    -25.2 2.228e+04 9.683e-08
 33.09199    -24.5 2.222e+04 1.022e-07
 33.10189    -23.7 2.200e+04 9.672e-08
 33.11179    -22.4 2.224e+04 8.812e-08
 33.11906    -21.4 2.260e+04 8.752e-08
 33.12401    -22.0 2.262e+04 8.035e-08
 33.13159    -21.1 2.270e+04 9.137e-08
 33.14149    -19.9 2.260e+04 1.003e-07
 33.15139    -18.5 2.275e+04 1.082e-07
 33.16129    -17.7 2.308e+04 1.178e-07
 33.17119    -17.4 2.328e+04 1.289e-07
 33.18005    -17.0 2.326e+04 1.362e-07
 33.18500    -18.5 2.392e+04 8.403e-08
 33.19099    -18.2 2.422e+04 8.733e-08
 33.20089    -18.4 2.434e+04 8.270e-08
 33.21079    -19.1 2.432e+04 7.542e-08
 33.22069    -20.4 2.433e+04 7.261e-08
 33.23059    -22.4 2.458e+04 7.538e-08
 33.23750    -24.9 2.490e+04 8.063e-08
 33.24245    -24.3 2.439e+04 8.040e-08
 33.24599    -26.7 2.457e+04 8.424e-08
 33.25094    -26.8 2.466e+04 6.763e-08
 33.26029    -28.4 2.460e+04 6.662e-08
 33.27019    -29.2 2.464e+04 5.898e-08
 33.28009    -29.8 2.501e+04 5.256e-08
 33.28999    -30.2 2.549e+04 4.876e-08
 33.29990    -30.6 2.573e+04 4.457e-08
 33.30698    -31.0 2.573e+04 3.944e-08
 33.31193    -31.2 2.534e+04 3.753e-08
 33.31970    -31.9 2.517e+04 3.233e-08
 33.32960    -32.7 2.457e+04 2.734e-08
 33.33950    -33.6 2.360e+04 2.270e-08
 33.34940    -34.5 2.273e+04 1.910e-08
 33.35930    -36.1 2.172e+04 1.555e-08
 33.36797    -37.3 2.087e+04 1.321e-08
 33.37292    -37.4 2.083e+04 1.490e-08
 33.37910    -38.6 2.015e+04 1.286e-08
 33.39400    -41.5 1.926e+04 1.087e-08
 33.40885    -43.5 1.822e+04 8.483e-09
 33.41870    -44.3 1.801e+04 7.843e-09
 33.42621    -45.7 1.750e+04 6.959e-09
 33.43117    -45.5 1.730e+04 6.869e-09
 33.43391    -45.9 1.737e+04 6.615e-09
 33.43886    -45.9 1.727e+04 6.877e-09
 33.44840    -47.2 1.662e+04 5.885e-09
 33.45830    -47.6 1.642e+04 5.547e-09
 33.46820    -48.2 1.597e+04 5.055e-09
 33.47810    -48.3 1.590e+04 4.974e-09
 33.48800    -48.5 1.572e+04 4.787e-09
 33.49490    -48.4 1.569e+04 4.771e-09
 33.49990    -48.0 1.552e+04 4.695e-09
 33.51285    -47.7 1.540e+04 4.619e-09
 33.53265    -46.6 1.505e+04 4.404e-09
 33.55245    -45.1 1.465e+04 4.046e-09
 33.57225    -43.9 1.494e+04 3.912e-09
 33.59205    -45.1 1.687e+04 4.751e-09
 33.60685    -54.1 2.550e+04 7.736e-09
 33.61493    -58.9 2.965e+04 1.644e-08
 33.61988    -65.9 3.037e+04 3.369e-08
 33.62183    -69.1 2.998e+04 6.737e-08
 33.62678    -71.1 2.854e+04 1.199e-07
 33.63650    -73.1 2.792e+04 1.865e-07
 33.64640    -76.1 2.852e+04 2.065e-07
 33.65630    -81.5 3.064e+04 1.219e-07
 33.66620    -90.3 3.192e+04 3.434e-08
 33.67610   -100.9 2.632e+04 7.416e-09
 33.68282   -108.4 1.722e+04 3.404e-09
 33.68777   -106.6 2.008e+04 4.017e-09
 33.69591   -110.8 1.454e+04 2.619e-09
 33.70581   -111.7 1.330e+04 2.137e-09
 33.71571   -112.0 1.289e+04 1.740e-09
 33.73061   -112.5 1.209e+04 1.193e-09
 33.74391   -113.8 1.045e+04 5.920e-10
 33.75381   -113.8 1.109e+04 7.637e-10
 33.77025   -114.7 9.906e+03 4.382e-10
 33.79006   -115.0 9.561e+03 3.328e-10
 33.80986   -114.8 9.465e+03 3.023e-10
 33.82966   -114.4 9.447e+03 2.965e-10
 33.84946   -114.0 9.464e+03 2.960e-10
 33.86589   -113.9 9.492e+03 3.044e-10
 33.87579   -113.7 9.480e+03 3.074e-10
 33.88906   -113.5 9.452e+03 3.001e-10
 33.90886   -113.4 9.439e+03 2.979e-10
 33.93866   -113.6 9.426e+03 2.926e-10
 33.97780   -114.0 9.416e+03 2.779e-10
 33.99760   -114.3 9.335e+03 2.610e-10
 34.01796   -117.4 9.948e+03 3.150e-10
 34.05756   -120.3 1.082e+04 5.608e-10
 34.08716   -121.3 1.117e+04 7.641e-10
 34.10686   -122.0 1.123e+04 8.086e-10
 34.11975   -122.6 1.125e+04 8.203e-10
 34.12965   -122.1 1.114e+04 7.909e-10
 34.14646   -122.4 1.108e+04 7.499e-10
 34.16627   -122.7 1.108e+04 7.415e-10
 34.18607   -122.8 1.112e+04 7.666e-10
 34.20587   -122.8 1.124e+04 8.525e-10
 34.22567   -122.7 1.132e+04 9.418e-10
 34.24174   -122.5 1.132e+04 9.963e-10
 34.25164   -122.1 1.117e+04 8.463e-10
 34.26527   -121.7 1.122e+04 9.289e-10
 34.28507   -121.4 1.126e+04 9.949e-10
 34.30487   -121.0 1.128e+04 1.038e-09
 34.32467   -120.7 1.131e+04 1.069e-09
 34.34447   -120.5 1.134e+04 1.098e-09
 34.36372   -120.4 1.137e+04 1.108e-09
 34.37362   -120.0 1.183e+04 1.322e-09
 34.37484   -120.0 1.199e+04 1.410e-09
 34.38474   -120.4 1.217e+04 1.523e-09
 34.40387   -120.9 1.226e+04 1.558e-09
 34.42367   -121.5 1.226e+04 1.557e-09
 34.44347   -122.2 1.215e+04 1.463e-09
 34.46327   -123.0 1.197e+04 1.318e-09
 34.48307   -123.9 1.179e+04 1.186e-09
 34.49560   -124.9 1.164e+04 1.086e-09
 34.50550   -124.0 1.171e+04 1.127e-09
 34.52267   -124.9 1.148e+04 9.966e-10
 34.54247   -125.8 1.133e+04 9.310e-10
 34.56228   -126.4 1.128e+04 9.168e-10
 34.58208   -126.7 1.127e+04 9.230e-10
 34.60188   -127.0 1.130e+04 9.726e-10
 34.61758   -127.0 1.131e+04 1.018e-09
 34.62748   -126.3 1.113e+04 8.960e-10
 34.64148   -126.2 1.111e+04 9.412e-10
 34.66128   -126.1 1.110e+04 9.498e-10
 34.68108   -125.8 1.093e+04 9.251e-10
 34.70088   -125.5 1.072e+04 8.340e-10
 34.72068   -125.3 1.057e+04 7.351e-10
 34.73956   -125.2 1.050e+04 6.621e-10
 34.74946   -124.5 1.056e+04 7.050e-10
 34.75227   -124.5 1.060e+04 6.805e-10
 34.76217   -123.8 1.045e+04 6.586e-10
 34.78008   -123.8 1.050e+04 6.382e-10
 34.79988   -123.8 1.053e+04 6.226e-10
 34.81968   -123.9 1.052e+04 5.942e-10
 34.83948   -123.9 1.038e+04 5.396e-10
 34.85928   -123.9 1.016e+04 4.611e-10
 34.87144   -123.7 9.930e+03 3.860e-10
 34.88134   -123.3 1.044e+04 5.819e-10
 34.89888   -123.3 1.014e+04 4.858e-10
 34.91868   -123.2 9.873e+03 4.112e-10
 34.93849   -123.0 9.684e+03 3.645e-10
 34.96828   -122.0 9.638e+03 3.502e-10
 35.00798   -121.6 9.644e+03 3.472e-10
 35.04758   -120.8 9.704e+03 3.750e-10
 35.08718   -120.1 9.828e+03 4.288e-10
 35.11560   -119.4 9.898e+03 4.598e-10
 35.12540   -119.2 1.000e+04 4.906e-10
 35.12970   -118.8 1.006e+04 5.067e-10
 35.13960   -118.1 1.007e+04 5.135e-10
 35.15629   -117.7 1.010e+04 5.236e-10
 35.17609   -117.4 1.009e+04 5.211e-10
 35.19589   -117.0 1.002e+04 5.001e-10
 35.21569   -116.7 9.945e+03 4.722e-10
 35.23549   -116.5 9.919e+03 4.576e-10
 35.24729   -116.5 9.911e+03 4.553e-10
 35.25719   -116.3 1.021e+04 5.510e-10
 35.27509   -116.6 1.041e+04 6.082e-10
 35.29489   -116.9 1.071e+04 7.120e-10
 35.31469   -117.2 1.102e+04 8.453e-10
 35.33450   -117.5 1.130e+04 9.887e-10
 35.35430   -117.7 1.148e+04 1.118e-09
 35.36927   -117.8 1.155e+04 1.207e-09
 35.37917   -117.7 1.207e+04 1.603e-09
 35.39390   -117.7 1.200e+04 1.597e-09
 35.41370   -117.5 1.175e+04 1.434e-09
 35.43350   -117.4 1.145e+04 1.207e-09
 35.45330   -117.4 1.116e+04 1.008e-09
 35.47310   -117.4 1.095e+04 8.574e-10
 35.49125   -117.4 1.083e+04 7.471e-10
 35.50115   -117.9 1.067e+04 6.315e-10
 35.50713   -118.1 1.061e+04 5.772e-10
 35.51703   -117.6 1.078e+04 6.761e-10
 35.53250   -117.7 1.077e+04 6.427e-10
 35.55230   -117.7 1.077e+04 6.299e-10
 35.57210   -117.5 1.078e+04 6.275e-10
 35.60190   -117.2 1.080e+04 6.248e-10
 35.62333   -116.7 1.068e+04 5.647e-10
 35.64313   -117.0 1.052e+04 4.741e-10
 35.68120   -116.5 1.051e+04 4.661e-10
 35.72080   -116.6 1.074e+04 4.991e-10
 35.76040   -118.3 1.220e+04 8.870e-10
 35.79000   -121.1 1.364e+04 1.999e-09
 35.80971   -122.2 1.451e+04 3.235e-09
 35.82951   -123.1 1.506e+04 4.260e-09
 35.84931   -124.2 1.528e+04 4.712e-09
 35.86709   -125.6 1.527e+04 4.698e-09
 35.87699   -126.2 1.566e+04 5.265e-09
 35.88456   -127.6 1.492e+04 3.758e-09
 35.89446   -126.7 1.538e+04 4.540e-09
 35.90871   -128.6 1.438e+04 2.824e-09
 35.92851   -130.9 1.318e+04 1.632e-09
 35.94831   -133.0 1.218e+04 1.018e-09
 35.96811   -134.5 1.162e+04 7.274e-10
 35.98791   -135.3 1.130e+04 5.791e-10
 35.99898   -135.8 1.105e+04 4.906e-10
 36.00888   -136.0 1.093e+04 4.722e-10
 36.03751   -136.2 1.076e+04 4.059e-10
 36.07721   -136.4 1.040e+04 3.035e-10
 36.11125   -136.7 1.016e+04 2.502e-10
 36.13105   -137.6 1.011e+04 2.636e-10
 36.15641   -137.1 1.014e+04 2.425e-10
 36.19601   -136.7 1.016e+04 2.383e-10
 36.23561   -136.7 1.022e+04 2.376e-10
 36.26219   -137.4 1.081e+04 2.768e-10
 36.28199   -137.6 1.100e+04 2.880e-10
 36.31482   -138.6 1.166e+04 4.562e-10
 36.35442   -139.3 1.211e+04 6.802e-10
 36.37502   -139.9 1.226e+04 8.143e-10
 36.39482   -141.7 1.223e+04 8.730e-10
 36.43362   -141.6 1.196e+04 7.710e-10
 36.47322   -141.3 1.158e+04 5.633e-10
 36.51282   -141.0 1.122e+04 4.022e-10
 36.55242   -140.5 1.092e+04 3.068e-10
 36.59202   -139.8 1.064e+04 2.519e-10
 36.61898   -138.8 1.040e+04 2.204e-10
 36.63878   -138.6 1.043e+04 2.220e-10
 36.67123   -137.3 1.025e+04 2.047e-10
 36.71083   -135.9 1.016e+04 1.997e-10
 36.75043   -134.4 1.013e+04 1.997e-10
 36.79003   -132.9 1.014e+04 2.094e-10
 36.82963   -131.5 1.016e+04 2.277e-10
 36.86294   -130.0 1.020e+04 2.449e-10
 36.88274   -130.0 1.044e+04 2.757e-10
 36.90883   -128.5 1.049e+04 2.971e-10
 36.94843   -127.1 1.051e+04 3.021e-10
 36.98803   -125.6 1.047e+04 2.970e-10
 37.01705   -123.9 1.038e+04 2.731e-10
 37.03685   -123.3 1.027e+04 2.632e-10
 37.06724   -121.5 1.021e+04 2.386e-10
 37.10684   -119.6 1.023e+04 2.237e-10
 37.14644   -117.6 1.019e+04 2.071e-10
 37.18604   -116.0 1.022e+04 2.075e-10
 37.22564   -115.5 1.050e+04 2.214e-10
 37.26524   -115.8 1.144e+04 3.879e-10
 37.30484   -116.3 1.266e+04 9.256e-10
 37.33444   -115.9 1.329e+04 1.535e-09
 37.35415   -116.1 1.406e+04 2.317e-09
 37.37047   -116.2 1.465e+04 3.205e-09
 37.38037   -115.7 1.444e+04 2.886e-09
 37.39375   -115.9 1.496e+04 3.794e-09
 37.40419   -116.0 1.523e+04 4.444e-09
 37.41409   -115.8 1.571e+04 5.211e-09
 37.43335   -115.9 1.582e+04 5.372e-09
 37.45315   -116.3 1.587e+04 5.298e-09
 37.47295   -117.4 1.598e+04 4.823e-09
 37.49245   -119.4 1.610e+04 4.530e-09
 37.50235   -118.6 1.697e+04 6.216e-09
 37.51255   -121.4 1.735e+04 6.039e-09
 37.53235   -124.8 1.760e+04 6.016e-09
 37.55215   -127.9 1.747e+04 6.111e-09
 37.57195   -130.2 1.673e+04 5.927e-09
 37.59175   -132.0 1.595e+04 4.746e-09
 37.61155   -133.7 1.516e+04 3.201e-09
 37.62433   -135.5 1.443e+04 1.989e-09
 37.63424   -136.5 1.463e+04 1.648e-09
 37.65115   -139.0 1.363e+04 1.010e-09
 37.67096   -141.2 1.287e+04 7.236e-10
 37.69076   -142.8 1.250e+04 6.202e-10
 37.71056   -144.2 1.240e+04 5.981e-10
 37.73036   -145.5 1.238e+04 5.981e-10
 37.74632   -147.0 1.235e+04 6.340e-10
 37.75622   -147.8 1.225e+04 6.398e-10
 37.76996   -149.1 1.221e+04 6.901e-10
 37.78162   -150.4 1.215e+04 7.203e-10
 37.79152   -151.3 1.213e+04 6.753e-10
 37.80956   -152.8 1.214e+04 7.303e-10
 37.82936   -154.8 1.229e+04 7.837e-10
 37.84916   -157.6 1.277e+04 8.804e-10
 37.86830   -161.3 1.360e+04 1.111e-09
 37.87820   -161.4 1.334e+04 1.088e-09
 37.88876   -165.1 1.398e+04 1.483e-09
 37.90856   -168.6 1.439e+04 1.973e-09
 37.92836   -171.9 1.448e+04 2.311e-09
 37.94816   -174.9 1.445e+04 2.388e-09
 37.96796   -177.2 1.393e+04 2.306e-09
 37.98776   -178.7 1.316e+04 1.797e-09
 38.00018   -179.9 1.241e+04 1.251e-09
 38.01008   -179.2 1.234e+04 8.661e-10
 38.02736   -180.4 1.180e+04 6.079e-10
 38.04717   -181.4 1.146e+04 4.605e-10
 38.06697   -181.9 1.132e+04 3.960e-10
 38.09676   -182.3 1.125e+04 3.594e-10
 38.12236   -182.5 1.110e+04 3.056e-10
 38.14216   -181.5 1.075e+04 2.212e-10
 38.17606   -181.5 1.070e+04 1.930e-10
 38.21566   -181.5 1.078e+04 1.843e-10
 38.25527   -181.5 1.086e+04 1.874e-10
 38.29487   -181.5 1.104e+04 2.157e-10
 38.33447   -181.7 1.124e+04 2.676e-10
 38.36632   -182.0 1.150e+04 3.443e-10
 38.38612   -180.9 1.140e+04 3.201e-10
 38.41367   -181.4 1.175e+04 4.689e-10
 38.45327   -182.1 1.208e+04 6.624e-10
 38.49287   -183.0 1.230e+04 8.479e-10
 38.52678   -184.0 1.235e+04 9.418e-10
 38.54658   -185.4 1.232e+04 8.761e-10
 38.57207   -186.2 1.210e+04 7.594e-10
 38.61028   -186.6 1.168e+04 5.699e-10
 38.63008   -185.7 1.179e+04 5.471e-10
 38.65128   -186.1 1.148e+04 4.001e-10
 38.69088   -186.2 1.136e+04 3.173e-10
 38.73048   -186.3 1.139e+04 3.003e-10
 38.77008   -188.1 1.190e+04 3.119e-10
 38.79968   -191.5 1.359e+04 3.564e-10
 38.81939   -196.4 1.586e+04 1.037e-09
 38.83919   -198.8 1.710e+04 2.829e-09
 38.85899   -201.0 1.804e+04 6.613e-09
 38.87385   -203.6 1.842e+04 9.670e-09
 38.88375   -202.9 1.718e+04 6.322e-09
 38.89859   -205.9 1.723e+04 6.838e-09
 38.91391   -208.6 1.681e+04 6.421e-09
 38.92381   -209.8 1.637e+04 5.398e-09
 38.93819   -211.9 1.510e+04 3.215e-09
 38.95799   -213.9 1.359e+04 1.757e-09
 38.97779   -215.3 1.242e+04 1.105e-09
 38.99583   -215.8 1.194e+04 8.555e-10
 39.00573   -215.1 1.199e+04 8.030e-10
 39.01739   -215.2 1.172e+04 6.978e-10
 39.03719   -215.1 1.159e+04 6.230e-10
 39.05699   -214.9 1.149e+04 5.545e-10
 39.07679   -214.6 1.143e+04 5.025e-10
 39.09659   -214.5 1.141e+04 4.809e-10
 39.11791   -214.8 1.135e+04 4.881e-10
 39.13781   -213.6 1.140e+04 5.352e-10
 39.16609   -214.0 1.135e+04 5.281e-10
 39.20569   -214.5 1.118e+04 4.914e-10
 39.24529   -214.8 1.093e+04 4.311e-10
 39.28164   -214.8 1.066e+04 3.651e-10
 39.30144   -214.5 1.070e+04 3.643e-10
 39.32449   -214.5 1.050e+04 3.127e-10
 39.36197   -214.4 1.032e+04 2.710e-10
 39.38177   -213.4 1.039e+04 3.089e-10
 39.40370   -213.2 1.026e+04 2.835e-10
 39.44330   -212.6 1.023e+04 2.762e-10
 39.48290   -212.0 1.023e+04 2.759e-10
 39.52250   -211.6 1.027e+04 2.879e-10
 39.56210   -211.3 1.029e+04 3.001e-10
 39.60170   -211.1 1.026e+04 3.016e-10
 39.62573   -210.7 1.008e+04 2.857e-10
 39.64553   -210.5 9.966e+03 2.507e-10
 39.68090   -210.0 9.770e+03 2.047e-10
 39.72050   -209.3 9.594e+03 1.643e-10
 39.76010   -208.5 9.454e+03 1.330e-10
 39.79971   -207.5 9.347e+03 1.106e-10
 39.83931   -206.5 9.264e+03 9.481e-11
 39.86970   -205.3 9.204e+03 8.374e-11
 39.88950   -205.0 9.197e+03 8.050e-11
 39.91851   -203.7 9.180e+03 7.566e-11
 39.95811   -202.3 9.183e+03 7.403e-11
 39.99771   -201.0 9.187e+03 7.355e-11
 40.03650   -199.8 9.231e+03 7.371e-11
 40.05630   -199.8 9.274e+03 7.497e-11
 40.07691   -198.9 9.439e+03 8.322e-11
 40.11366   -198.1 9.562e+03 1.059e-10
 40.13346   -197.7 9.539e+03 1.077e-10
 40.15611   -196.8 9.646e+03 1.359e-10
 40.19572   -196.0 9.745e+03 1.655e-10
 40.23532   -195.5 9.822e+03 1.907e-10
 40.27492   -195.3 9.898e+03 2.124e-10
 40.31452   -195.2 1.009e+04 2.487e-10
 40.35412   -195.8 1.055e+04 3.413e-10
 40.37742   -197.3 1.120e+04 5.328e-10
 40.39722   -196.9 1.147e+04 6.703e-10
 40.43332   -198.9 1.221e+04 1.103e-09
 40.47292   -201.5 1.263e+04 1.462e-09
 40.51252   -204.6 1.270e+04 1.539e-09
 40.55213   -207.2 1.239e+04 1.332e-09
 40.59173   -208.8 1.164e+04 7.430e-10
 40.62138   -209.6 1.087e+04 3.814e-10
 40.64109   -210.0 1.084e+04 3.330e-10
 40.67083   -210.5 1.067e+04 2.790e-10
 40.71053   -210.6 1.030e+04 2.082e-10
 40.75013   -210.1 9.975e+03 1.709e-10
 40.78973   -209.0 9.851e+03 1.618e-10
 40.81116   -208.0 9.820e+03 1.605e-10
 40.83096   -207.4 9.843e+03 1.367e-10
 40.86535   -206.4 9.829e+03 1.382e-10
 40.88515   -206.8 9.854e+03 1.553e-10
 40.90853   -205.7 9.804e+03 1.511e-10
 40.94814   -204.5 9.718e+03 1.401e-10
 40.98774   -203.3 9.660e+03 1.222e-10
 41.02734   -202.1 9.591e+03 1.016e-10
 41.06694   -200.8 9.543e+03 8.224e-11
 41.10654   -199.6 9.519e+03 6.692e-11
 41.12911   -198.4 9.507e+03 5.626e-11
 41.14891   -198.6 9.410e+03 4.922e-11
 41.18574   -197.4 9.372e+03 4.542e-11
 41.22534   -196.2 9.352e+03 4.341e-11
 41.26494   -194.8 9.357e+03 4.209e-11
 41.30454   -193.5 9.371e+03 4.119e-11
 41.34415   -192.1 9.375e+03 4.083e-11
 41.37307   -190.7 9.377e+03 4.091e-11
 41.39287   -191.0 9.516e+03 4.545e-11
 41.42335   -189.7 9.547e+03 4.917e-11
 41.46295   -188.4 9.573e+03 5.574e-11
 41.50255   -187.0 9.604e+03 6.651e-11
 41.54215   -185.6 9.660e+03 8.219e-11
 41.56603   -184.2 9.749e+03 1.018e-10
 41.58583   -184.2 9.802e+03 1.027e-10
 41.61704   -182.8 9.907e+03 1.260e-10
 41.63684   -183.0 1.003e+04 1.563e-10
 41.66095   -181.8 1.015e+04 1.722e-10
 41.70055   -180.6 1.021e+04 1.792e-10
 41.74016   -179.5 1.024e+04 1.820e-10
 41.77976   -178.3 1.027e+04 1.859e-10
 41.81936   -177.0 1.033e+04 1.949e-10
 41.85896   -175.8 1.044e+04 2.122e-10
 41.88080   -174.6 1.057e+04 2.345e-10
 41.90060   -174.8 1.059e+04 2.271e-10
 41.93816   -173.6 1.070e+04 2.476e-10
 41.97776   -172.5 1.076e+04 2.567e-10
 42.01736   -171.3 1.079e+04 2.547e-10
 42.05696   -170.1 1.081e+04 2.292e-10
 42.09656   -168.9 1.083e+04 2.021e-10
 42.12476   -167.7 1.085e+04 1.908e-10
 42.14456   -168.4 1.090e+04 2.034e-10
 42.17577   -167.3 1.098e+04 2.172e-10
 42.21537   -166.2 1.108e+04 2.434e-10
 42.25497   -165.1 1.117e+04 2.737e-10
 42.29457   -163.9 1.121e+04 2.970e-10
 42.32089   -162.7 1.122e+04 3.064e-10
 42.34069   -162.9 1.114e+04 2.499e-10
 42.36872   -161.7 1.114e+04 2.505e-10
 42.38853   -162.5 1.109e+04 2.526e-10
 42.41337   -161.1 1.106e+04 2.403e-10
 42.45297   -159.7 1.102e+04 2.233e-10
 42.49258   -158.3 1.097e+04 2.027e-10
 42.53218   -156.8 1.090e+04 1.818e-10
 42.57178   -155.3 1.084e+04 1.646e-10
 42.61138   -153.7 1.079e+04 1.546e-10
 42.63249   -152.1 1.077e+04 1.522e-10
 42.65229   -152.5 1.084e+04 1.414e-10
 42.69058   -150.9 1.084e+04 1.472e-10
 42.73018   -149.3 1.083e+04 1.587e-10
 42.76978   -147.7 1.080e+04 1.666e-10
 42.80938   -146.1 1.079e+04 1.686e-10
 42.84898   -144.4 1.070e+04 1.667e-10
 42.87645   -142.6 1.058e+04 1.400e-10
 42.89625   -142.7 1.051e+04 1.232e-10
 42.92819   -141.0 1.046e+04 1.011e-10
 42.96779   -139.3 1.048e+04 8.787e-11
 43.00739   -137.8 1.052e+04 8.455e-11
 43.04699   -136.6 1.055e+04 8.448e-11
 43.07575   -135.9 1.090e+04 9.834e-11
 43.09555   -136.2 1.100e+04 9.887e-11
 43.12041   -135.8 1.119e+04 1.711e-10
 43.14021   -135.4 1.113e+04 1.334e-10
 43.16579   -134.8 1.127e+04 2.165e-10
 43.20539   -134.1 1.142e+04 3.121e-10
 43.24499   -133.6 1.149e+04 3.828e-10
 43.28460   -133.1 1.148e+04 4.030e-10
 43.32420   -132.5 1.143e+04 4.026e-10
 43.36380   -131.6 1.123e+04 3.646e-10
 43.38418   -130.5 1.110e+04 3.071e-10
 43.40398   -130.2 1.120e+04 2.520e-10
 43.44300   -129.3 1.109e+04 2.301e-10
 43.48260   -128.4 1.097e+04 2.173e-10
 43.52220   -127.5 1.085e+04 2.090e-10
 43.56180   -126.7 1.079e+04 2.047e-10
 43.60140   -125.9 1.066e+04 2.123e-10
 43.62814   -125.1 1.062e+04 2.284e-10
 43.64794   -124.6 1.073e+04 2.475e-10
 43.68061   -123.8 1.071e+04 2.771e-10
 43.72021   -123.1 1.067e+04 2.860e-10
 43.75981   -122.4 1.058e+04 2.797e-10
 43.79941   -121.7 1.044e+04 2.562e-10
 43.83061   -121.0 1.034e+04 2.332e-10
 43.85041   -121.4 1.016e+04 1.767e-10
 43.87210   -120.6 1.010e+04 1.682e-10
 43.89190   -120.4 1.018e+04 2.241e-10
 43.91821   -119.5 1.015e+04 2.170e-10
 43.95781   -118.6 1.021e+04 2.240e-10
 43.99741   -117.8 1.028e+04 2.469e-10
 44.03701   -117.0 1.035e+04 2.828e-10
 44.07662   -116.1 1.040e+04 3.170e-10
 44.11606   -115.3 1.043e+04 3.372e-10
 44.15567   -114.2 1.082e+04 4.682e-10
 44.19542   -113.3 1.079e+04 4.438e-10
 44.23502   -112.4 1.072e+04 3.873e-10
 44.27462   -111.6 1.062e+04 3.285e-10
 44.31422   -110.9 1.056e+04 2.921e-10
 44.35382   -110.3 1.056e+04 2.824e-10
 44.37983   -109.9 1.070e+04 2.888e-10
 44.39963   -109.4 1.107e+04 3.592e-10
 44.42303   -109.2 1.108e+04 3.698e-10
 44.44273   -109.4 1.121e+04 4.233e-10
 44.46253   -109.5 1.136e+04 5.122e-10
 44.48233   -109.5 1.151e+04 6.135e-10
 44.50161   -109.5 1.170e+04 7.243e-10
 44.51151   -109.6 1.197e+04 9.218e-10
 44.52193   -109.5 1.207e+04 1.002e-09
 44.54173   -109.5 1.212e+04 1.048e-09
 44.56153   -109.4 1.214e+04 1.068e-09
 44.58133   -109.4 1.218e+04 1.076e-09
 44.59518   -109.4 1.226e+04 1.084e-09
 44.60508   -109.1 1.229e+04 1.074e-09
 44.62093   -109.2 1.233e+04 1.082e-09
 44.63350   -109.3 1.237e+04 1.101e-09
 44.64340   -110.0 1.292e+04 1.585e-09
 44.66054   -109.9 1.287e+04 1.590e-09
 44.68034   -109.8 1.281e+04 1.585e-09
 44.70014   -109.5 1.274e+04 1.572e-09
 44.71994   -109.2 1.264e+04 1.546e-09
 44.73974   -108.8 1.253e+04 1.496e-09
 44.75548   -108.4 1.240e+04 1.431e-09
 44.76538   -108.8 1.235e+04 1.483e-09
 44.77934   -108.4 1.224e+04 1.378e-09
 44.79914   -108.0 1.213e+04 1.284e-09
 44.81894   -107.5 1.202e+04 1.212e-09
 44.83874   -107.0 1.193e+04 1.171e-09
 44.85854   -106.4 1.189e+04 1.160e-09
 44.87746   -105.7 1.188e+04 1.169e-09
 44.88736   -105.9 1.191e+04 1.310e-09
 44.89814   -105.3 1.200e+04 1.404e-09
 44.91794   -104.8 1.210e+04 1.526e-09
 44.94774   -104.4 1.227e+04 1.703e-09
 44.98744   -103.6 1.266e+04 2.101e-09
 45.00944   -103.8 1.291e+04 2.160e-09
 45.01924   -103.4 1.286e+04 2.243e-09
 45.03675   -103.2 1.304e+04 2.281e-09
 45.05655   -103.4 1.350e+04 2.314e-09
 45.07635   -105.9 1.517e+04 3.096e-09
 45.09615   -108.9 1.643e+04 5.101e-09
 45.11595   -110.9 1.692e+04 8.236e-09
 45.13132   -111.8 1.699e+04 1.100e-08
 45.14122   -110.0 1.717e+04 9.444e-09
 45.15555   -110.6 1.713e+04 1.012e-08
 45.16623   -111.2 1.660e+04 9.990e-09
 45.17113   -111.6 1.597e+04 7.660e-09
 45.18020   -111.7 1.565e+04 7.103e-09
 45.19010   -112.1 1.496e+04 5.932e-09
 45.19716   -112.2 1.482e+04 5.689e-09
 45.20211   -112.2 1.486e+04 5.692e-09
 45.21490   -112.4 1.451e+04 4.956e-09
 45.23475   -112.6 1.390e+04 3.399e-09
 45.25330   -112.6 1.323e+04 2.164e-09
 45.26320   -112.3 1.308e+04 2.088e-09
 45.27435   -112.2 1.253e+04 1.422e-09
 45.29415   -112.0 1.217e+04 1.051e-09
 45.31395   -111.7 1.193e+04 8.563e-10
 45.33375   -111.4 1.172e+04 7.617e-10
 45.35004   -111.3 1.163e+04 7.359e-10
 45.35994   -111.1 1.121e+04 5.570e-10
 45.37335   -110.9 1.121e+04 5.565e-10
 45.38518   -111.0 1.132e+04 6.073e-10
 45.39508   -110.1 1.125e+04 5.383e-10
 45.41296   -110.3 1.143e+04 6.585e-10
 45.43276   -110.5 1.163e+04 8.286e-10
 45.45256   -110.5 1.186e+04 1.025e-09
 45.47236   -110.5 1.204e+04 1.192e-09
 45.49216   -110.4 1.212e+04 1.274e-09
 45.50717   -110.4 1.214e+04 1.287e-09
 45.51707   -110.3 1.234e+04 1.385e-09
 45.53176   -110.5 1.239e+04 1.410e-09
 45.55156   -110.8 1.241e+04 1.405e-09
 45.57136   -111.3 1.245e+04 1.396e-09
 45.59116   -111.7 1.250e+04 1.424e-09
 45.61096   -112.1 1.253e+04 1.489e-09
 45.62915   -112.2 1.252e+04 1.574e-09
 45.63905   -112.5 1.310e+04 2.492e-09
 45.65056   -112.4 1.303e+04 2.461e-09
 45.67036   -112.2 1.290e+04 2.341e-09
 45.69016   -112.0 1.266e+04 2.031e-09
 45.70996   -111.8 1.228e+04 1.612e-09
 45.72747   -111.8 1.185e+04 1.224e-09
 45.73737   -111.2 1.204e+04 1.359e-09
 45.74956   -111.1 1.153e+04 9.823e-10
 45.76103   -110.7 1.107e+04 6.769e-10
 45.77093   -111.3 1.098e+04 5.978e-10
 45.78916   -110.7 1.073e+04 4.490e-10
 45.81896   -110.3 1.057e+04 3.361e-10
 45.85866   -109.0 1.025e+04 1.736e-10
 45.88321   -107.8 9.849e+03 9.058e-11
 45.90301   -108.7 9.451e+03 7.403e-11
 45.93786   -107.3 9.356e+03 6.737e-11
 45.97746   -105.4 9.316e+03 6.595e-11
 46.01707   -103.5 9.316e+03 6.706e-11
 46.05667   -101.8 9.340e+03 7.459e-11
 46.09520   -100.0 9.348e+03 8.448e-11
 46.11500    -99.6 9.339e+03 7.710e-11
 46.12717    -97.9 9.316e+03 8.344e-11
 46.14697    -97.7 9.316e+03 8.121e-11
 46.17547    -95.9 9.299e+03 8.515e-11
 46.21507    -94.1 9.293e+03 8.599e-11
 46.25467    -92.4 9.266e+03 8.560e-11
 46.29427    -90.6 9.229e+03 8.320e-11
 46.33387    -88.9 9.231e+03 8.134e-11
 46.37113    -87.3 9.241e+03 8.105e-11
 46.39093    -86.7 9.249e+03 7.954e-11
 46.41308    -85.4 9.359e+03 8.118e-11
 46.45268    -84.4 9.498e+03 1.040e-10
 46.49228    -83.4 9.579e+03 1.483e-10
 46.53188    -82.2 9.685e+03 2.028e-10
 46.57148    -81.0 9.786e+03 2.504e-10
 46.61108    -79.9 9.819e+03 2.719e-10
 46.63489    -78.8 9.814e+03 2.755e-10
 46.65469    -78.3 9.928e+03 2.937e-10
 46.69028    -77.0 9.789e+03 2.801e-10
 46.72988    -75.6 9.700e+03 2.314e-10
 46.76949    -74.1 9.624e+03 1.809e-10
 46.80909    -72.5 9.541e+03 1.436e-10
 46.84869    -70.9 9.450e+03 1.181e-10
 46.86986    -69.1 9.346e+03 1.018e-10
 46.88023    -68.8 9.327e+03 1.018e-10
 46.89866    -68.4 9.410e+03 1.097e-10
 46.92789    -66.6 9.342e+03 9.766e-11
 46.96749    -64.8 9.321e+03 9.336e-11
 47.00709    -62.9 9.324e+03 9.275e-11
 47.04669    -61.1 9.384e+03 9.928e-11
 47.08629    -59.4 9.458e+03 1.144e-10
 47.12282    -57.5 9.540e+03 1.296e-10
 47.14262    -56.9 9.582e+03 1.319e-10
 47.16550    -54.9 9.656e+03 1.409e-10
 47.20510    -53.0 9.735e+03 1.480e-10
 47.24470    -51.0 9.788e+03 1.515e-10
 47.28430    -49.0 9.806e+03 1.511e-10
 47.32390    -47.0 9.827e+03 1.485e-10
 47.36350    -45.1 9.905e+03 1.478e-10
 47.38658    -43.3 9.970e+03 1.663e-10
 47.40638    -42.4 9.885e+03 1.694e-10
 47.44270    -40.8 9.727e+03 2.017e-10
 47.48230    -39.2 9.617e+03 2.322e-10
 47.52190    -38.1 9.568e+03 2.523e-10
 47.56151    -37.5 9.532e+03 2.627e-10
 47.60111    -37.1 9.461e+03 2.662e-10
 47.62472    -36.5 9.591e+03 2.812e-10
 47.63436    -36.8 1.034e+04 4.241e-10
 47.65035    -36.7 1.029e+04 4.463e-10
 47.68031    -36.8 1.035e+04 5.164e-10
 47.71991    -38.5 1.100e+04 7.410e-10
 47.74951    -39.7 1.152e+04 9.113e-10
 47.76223    -40.6 1.212e+04 1.331e-09
 47.77213    -40.5 1.212e+04 1.428e-09
 47.78902    -41.0 1.274e+04 1.971e-09
 47.80882    -41.1 1.321e+04 2.407e-09
 47.82862    -41.4 1.335e+04 2.516e-09
 47.84842    -41.9 1.309e+04 2.164e-09
 47.86822    -42.6 1.250e+04 1.602e-09
 47.88421    -43.2 1.180e+04 1.185e-09
 47.89411    -43.4 1.170e+04 1.170e-09
 47.90782    -43.6 1.131e+04 9.154e-10
 47.92762    -43.5 1.098e+04 7.222e-10
 47.94742    -43.4 1.071e+04 5.831e-10
 47.96722    -43.2 1.047e+04 4.838e-10
 47.98702    -42.8 1.029e+04 4.215e-10
 48.00196    -42.3 1.023e+04 3.931e-10
 48.01123    -42.7 1.025e+04 3.858e-10
 48.01609    -42.6 1.025e+04 3.879e-10
 48.02662    -42.0 1.024e+04 3.822e-10
 48.04642    -41.6 1.030e+04 3.879e-10
 48.06622    -41.3 1.046e+04 4.483e-10
 48.08602    -41.0 1.061e+04 5.553e-10
 48.10582    -40.6 1.079e+04 7.001e-10
 48.12563    -39.9 1.102e+04 8.857e-10
 48.13808    -39.2 1.126e+04 1.081e-09
 48.14798    -38.8 1.134e+04 1.157e-09
 48.16523    -38.1 1.150e+04 1.278e-09
 48.18503    -37.5 1.154e+04 1.303e-09
 48.20483    -36.9 1.140e+04 1.229e-09
 48.22463    -36.3 1.110e+04 1.044e-09
 48.24443    -36.0 1.083e+04 8.819e-10
 48.26006    -35.7 1.061e+04 7.655e-10
 48.26996    -35.4 1.080e+04 8.163e-10
 48.28403    -35.3 1.053e+04 7.284e-10
 48.30383    -35.1 1.033e+04 6.791e-10
 48.32363    -34.7 1.020e+04 6.569e-10
 48.34343    -34.1 1.009e+04 6.458e-10
 48.36323    -33.3 9.968e+03 6.334e-10
 48.37939    -32.3 9.854e+03 6.164e-10
 48.38830    -31.9 9.915e+03 6.195e-10
 48.39194    -32.0 9.885e+03 5.965e-10
 48.40283    -31.0 9.838e+03 5.669e-10
 48.42263    -30.0 9.833e+03 5.431e-10
 48.44243    -29.0 9.797e+03 5.246e-10
 48.46223    -28.0 9.724e+03 5.138e-10
 48.48203    -27.0 9.669e+03 5.093e-10
 48.50183    -25.9 9.648e+03 5.063e-10
 48.51392    -24.6 9.671e+03 5.106e-10
 48.52382    -24.9 9.648e+03 5.316e-10
 48.54144    -23.5 9.853e+03 5.582e-10
 48.56124    -22.4 1.013e+04 6.103e-10
 48.58104    -21.5 1.040e+04 6.910e-10
 48.60084    -20.6 1.079e+04 8.338e-10
 48.62064    -20.0 1.166e+04 1.170e-09
 48.63590    -20.0 1.293e+04 1.884e-09
 48.64580    -21.6 1.333e+04 2.864e-09
 48.66024    -21.2 1.415e+04 4.516e-09
 48.68004    -21.7 1.583e+04 7.408e-09
 48.69484    -23.2 1.871e+04 1.280e-08
 48.70174    -24.1 1.968e+04 1.458e-08
 48.70670    -24.6 1.975e+04 1.408e-08
 48.71459    -28.6 2.298e+04 2.378e-08
 48.72449    -30.7 2.541e+04 3.360e-08
 48.73439    -31.7 2.681e+04 5.060e-08
 48.74429    -32.4 2.687e+04 7.286e-08
 48.75419    -32.9 2.685e+04 9.135e-08
 48.76167    -34.0 2.704e+04 9.433e-08
 48.76526    -34.0 2.755e+04 7.976e-08
 48.76769    -37.3 2.821e+04 2.324e-08
 48.77399    -38.3 2.594e+04 1.805e-08
 48.78389    -40.7 2.261e+04 1.296e-08
 48.79379    -45.4 1.755e+04 8.572e-09
 48.80369    -46.6 1.583e+04 7.206e-09
 48.81360    -46.7 1.568e+04 6.366e-09
 48.82350    -46.4 1.567e+04 5.728e-09
 48.82868    -46.5 1.549e+04 4.975e-09
 48.83363    -47.0 1.477e+04 4.171e-09
 48.84330    -47.1 1.467e+04 3.856e-09
 48.85820    -47.7 1.427e+04 3.136e-09
 48.87804    -48.2 1.342e+04 2.501e-09
 48.88976    -48.2 1.298e+04 2.211e-09
 48.89966    -48.8 1.068e+04 1.353e-09
 48.91765    -48.0 1.065e+04 1.313e-09
 48.93745    -46.9 1.069e+04 1.309e-09
 48.95725    -45.6 1.085e+04 1.349e-09
 48.97705    -44.3 1.103e+04 1.403e-09
 48.99685    -43.1 1.126e+04 1.464e-09
 49.01175    -42.3 1.165e+04 1.578e-09
 49.02165    -43.5 1.113e+04 1.233e-09
 49.03645    -43.2 1.138e+04 1.353e-09
 49.05625    -43.1 1.163e+04 1.541e-09
 49.07605    -43.1 1.191e+04 1.849e-09
 49.09585    -43.0 1.227e+04 2.283e-09
 49.11565    -42.9 1.267e+04 2.791e-09
 49.13373    -42.9 1.310e+04 3.302e-09
 49.14243    -43.0 1.255e+04 2.537e-09
 49.14415    -42.3 1.209e+04 2.266e-09
 49.15525    -41.9 1.245e+04 2.594e-09
 49.17505    -41.7 1.266e+04 2.762e-09
 49.19485    -41.6 1.276e+04 2.777e-09
 49.21465    -41.3 1.284e+04 2.668e-09
 49.23445    -41.0 1.288e+04 2.567e-09
 49.25425    -40.7 1.313e+04 2.533e-09
 49.26561    -40.3 1.367e+04 2.658e-09
 49.27551    -38.9 1.221e+04 1.824e-09
 49.29386    -38.1 1.263e+04 1.938e-09
 49.31366    -37.2 1.320e+04 2.161e-09
 49.33346    -36.2 1.375e+04 2.454e-09
 49.35326    -35.0 1.419e+04 2.808e-09
 49.37306    -33.7 1.449e+04 3.246e-09
 49.38759    -32.3 1.465e+04 3.741e-09
 49.39749    -31.1 1.419e+04 2.866e-09
 49.41266    -29.6 1.458e+04 3.400e-09
 49.43246    -28.1 1.517e+04 4.076e-09
 49.45226    -26.6 1.593e+04 5.115e-09
 49.47206    -25.4 1.707e+04 6.769e-09
 49.49186    -24.8 1.879e+04 9.451e-09
 49.50957    -24.4 2.086e+04 1.386e-08
 49.51947    -24.0 2.090e+04 1.702e-08
 49.52646    -24.0 2.242e+04 4.116e-08
 49.53631    -23.6 2.274e+04 5.804e-08
 49.54621    -23.1 2.283e+04 8.229e-08
 49.55611    -22.6 2.288e+04 1.169e-07
 49.56601    -21.8 2.305e+04 1.627e-07
 49.57541    -21.3 2.331e+04 1.889e-07
 49.58037    -20.3 2.264e+04 2.468e-07
 49.58582    -21.7 2.318e+04 2.350e-07
 49.59572    -22.5 2.372e+04 1.502e-07
 49.60562    -22.7 2.345e+04 9.017e-08
 49.61552    -22.3 2.306e+04 5.787e-08
 49.62542    -21.5 2.264e+04 3.937e-08
 49.63532    -21.0 2.227e+04 2.711e-08
 49.64136    -21.2 2.153e+04 2.027e-08
 49.64631    -22.1 2.138e+04 1.975e-08
 49.65512    -22.3 2.061e+04 1.501e-08
 49.67002    -23.5 1.940e+04 1.150e-08
 49.68987    -23.6 1.671e+04 6.721e-09
 49.70967    -23.0 1.450e+04 4.403e-09
 49.72947    -21.3 1.299e+04 3.112e-09
 49.74927    -19.1 1.223e+04 2.358e-09
 49.76343    -17.0 1.183e+04 1.858e-09
 49.77333    -16.7 1.339e+04 3.197e-09
 49.78887    -14.9 1.309e+04 2.663e-09
 49.80867    -13.4 1.277e+04 2.186e-09
 49.82847    -11.7 1.242e+04 1.769e-09
 49.84827    -10.1 1.188e+04 1.392e-09
 49.86807     -8.6 1.136e+04 1.144e-09
 49.88542     -7.0 1.105e+04 1.004e-09
 49.89532     -6.7 1.152e+04 1.834e-09
 49.89901     -4.9 1.144e+04 1.665e-09
 49.90891     -4.5 1.172e+04 2.102e-09
 49.92747     -2.5 1.155e+04 2.004e-09
 49.94727     -0.2 1.132e+04 1.824e-09
 49.96707      2.1 1.116e+04 1.537e-09
 49.98687      4.0 1.105e+04 1.336e-09
 50.00667      5.6 1.106e+04 1.240e-09
 50.01730      7.0 1.116e+04 1.249e-09
 50.02720      7.4 1.200e+04 2.010e-09
 50.04627      9.0 1.200e+04 1.989e-09
 50.06608     10.9 1.191e+04 1.927e-09
 50.08588     12.4 1.208e+04 2.009e-09
 50.10568     14.1 1.246e+04 2.284e-09
 50.12548     15.9 1.306e+04 2.773e-09
 50.13928     17.5 1.359e+04 3.309e-09
 50.14918     18.5 1.489e+04 5.185e-09
 50.16508     20.4 1.517e+04 5.807e-09
 50.18488     22.1 1.585e+04 6.717e-09
 50.20468     22.1 1.745e+04 8.938e-09
 50.21948     19.9 1.975e+04 1.345e-08
 50.22933     17.8 2.162e+04 1.938e-08
 50.23923     14.7 2.446e+04 3.502e-08
 50.24913     11.5 2.462e+04 7.119e-08
 50.25903     10.4 2.235e+04 2.058e-07
 50.26611     12.3 2.080e+04 8.395e-07
 50.27106     14.0 2.033e+04 1.821e-06
 50.27635      9.7 2.013e+04 3.318e-06
 50.28130     10.1 2.000e+04 2.637e-06
 50.28873      7.5 2.070e+04 1.327e-06
 50.29863      8.8 2.161e+04 3.457e-07
 50.30853      9.5 2.283e+04 1.044e-07
 50.31843      8.5 2.492e+04 4.599e-08
 50.32710      6.3 2.621e+04 2.828e-08
 50.33205      3.9 3.122e+04 3.061e-08
 50.33823     -0.7 3.016e+04 2.208e-08
 50.34813     -5.8 2.762e+04 1.663e-08
 50.35803     -9.8 2.565e+04 1.399e-08
 50.36794    -11.5 2.514e+04 1.495e-08
 50.37784    -12.6 2.477e+04 1.788e-08
 50.38774    -13.1 2.453e+04 2.105e-08
 50.39304    -13.4 2.410e+04 2.502e-08
 50.39799    -15.1 2.484e+04 3.511e-08
 50.40754    -14.9 2.432e+04 3.708e-08
 50.41744    -14.8 2.393e+04 3.804e-08
 50.42734    -14.7 2.387e+04 3.908e-08
 50.43724    -14.8 2.374e+04 3.939e-08
 50.44714    -14.8 2.373e+04 3.937e-08
 50.45404    -15.1 2.350e+04 3.935e-08
 50.45899    -16.7 2.293e+04 3.311e-08
 50.46506    -16.7 2.280e+04 3.326e-08
 50.47001    -15.1 2.291e+04 3.389e-08
 50.47684    -15.6 2.251e+04 3.411e-08
 50.48674    -15.7 2.230e+04 3.434e-08
 50.49664    -15.8 2.214e+04 3.642e-08
 50.50654    -15.7 2.217e+04 3.719e-08
 50.51503    -15.6 2.212e+04 3.609e-08
 50.51998    -16.4 2.122e+04 2.432e-08
 50.52634    -16.1 2.108e+04 2.340e-08
 50.53624    -15.7 2.106e+04 2.183e-08
 50.54614    -15.4 2.084e+04 2.095e-08
 50.56104    -16.3 1.977e+04 1.705e-08
 50.58089    -16.5 1.887e+04 1.416e-08
 50.60069    -16.7 1.817e+04 1.159e-08
 50.62049    -16.8 1.729e+04 8.827e-09
 50.63710    -16.7 1.639e+04 6.627e-09
 50.64701    -16.6 1.656e+04 8.304e-09
 50.65387    -16.1 1.627e+04 7.130e-09
 50.66377    -15.5 1.666e+04 8.031e-09
 50.67989    -15.4 1.657e+04 6.786e-09
 50.69969    -15.6 1.619e+04 6.066e-09
 50.71949    -15.5 1.574e+04 5.736e-09
 50.73929    -15.1 1.547e+04 5.440e-09
 50.75909    -14.3 1.511e+04 5.251e-09
 50.77889    -13.2 1.458e+04 4.713e-09
 50.79869    -12.2 1.445e+04 4.101e-09
 50.81849    -11.6 1.430e+04 3.492e-09
 50.83830    -11.4 1.432e+04 2.859e-09
 50.85810    -11.4 1.375e+04 2.356e-09
 50.87790    -10.9 1.274e+04 2.096e-09
 50.89097    -10.0 1.237e+04 1.753e-09
 50.90087     -9.9 1.211e+04 1.618e-09
 50.91750     -8.6 1.189e+04 1.375e-09
 50.93730     -7.0 1.163e+04 1.197e-09
 50.95710     -5.8 1.161e+04 9.840e-10
 50.97690     -5.0 1.155e+04 8.211e-10
 50.99670     -4.3 1.137e+04 7.546e-10
 51.01295     -3.2 1.131e+04 7.695e-10
 51.02285     -3.1 1.144e+04 8.791e-10
 51.03131     -1.7 1.159e+04 9.115e-10
 51.04121     -1.4 1.136e+04 6.498e-10
 51.05610     -0.1 1.133e+04 6.280e-10
 51.07590      1.5 1.116e+04 5.832e-10
 51.09570      2.8 1.129e+04 6.032e-10
 51.11550      4.4 1.128e+04 6.006e-10
 51.13493      5.2 1.138e+04 6.210e-10
 51.14483      5.4 1.164e+04 8.834e-10
 51.15510      7.3 1.176e+04 1.008e-09
 51.17490      7.9 1.189e+04 1.059e-09
 51.19470     10.0 1.210e+04 1.243e-09
 51.21450     10.7 1.228e+04 1.352e-09
 51.23431     12.0 1.242e+04 1.474e-09
 51.25411     13.3 1.281e+04 1.726e-09
 51.26681     13.8 1.332e+04 2.044e-09
 51.27671     13.6 1.429e+04 2.938e-09
 51.29371     13.4 1.498e+04 3.999e-09
 51.31351     13.7 1.544e+04 5.537e-09
 51.33331     14.6 1.591e+04 7.351e-09
 51.35311     15.6 1.616e+04 8.195e-09
 51.37291     16.4 1.619e+04 7.930e-09
 51.38879     17.1 1.617e+04 7.043e-09
 51.39869     16.3 1.631e+04 7.011e-09
 51.40874     16.0 1.620e+04 5.632e-09
 51.41864     16.4 1.706e+04 7.720e-09
 51.43231     15.5 1.671e+04 6.317e-09
 51.45211     14.6 1.588e+04 5.393e-09
 51.47191     14.2 1.511e+04 4.796e-09
 51.49171     14.0 1.453e+04 4.267e-09
 51.51077     14.1 1.403e+04 3.619e-09
 51.52068     13.4 1.363e+04 3.126e-09
 51.53131     13.5 1.312e+04 2.483e-09
 51.55111     13.6 1.244e+04 1.838e-09
 51.57091     13.1 1.196e+04 1.416e-09
 51.59071     13.2 1.133e+04 1.039e-09
 51.61051     13.4 1.089e+04 8.055e-10
 51.63032     12.9 1.061e+04 6.552e-10
 51.64266     12.7 1.049e+04 6.260e-10
 51.65265     12.4 1.049e+04 6.025e-10
 51.68001     12.1 1.029e+04 5.617e-10
 51.70962     12.2 1.013e+04 5.220e-10
 51.72932     13.0 9.983e+03 4.869e-10
 51.75912     12.8 1.008e+04 5.020e-10
 51.79882     12.5 9.977e+03 4.749e-10
 51.83842     12.5 9.743e+03 4.288e-10
 51.87691     13.0 9.456e+03 3.583e-10
 51.89671     12.5 9.388e+03 3.551e-10
 51.91762     13.7 9.035e+03 2.442e-10
 51.95722     15.0 8.797e+03 1.588e-10
 51.99682     16.1 8.637e+03 1.066e-10
 52.03642     17.1 8.468e+03 8.491e-11
 52.07602     18.6 8.438e+03 8.511e-11
 52.11562     20.0 8.486e+03 9.344e-11
 52.14068     21.4 8.650e+03 1.212e-10
 52.15915     21.6 8.481e+03 9.752e-11
 52.17369     21.1 8.421e+03 8.803e-11
 52.19483     22.9 8.589e+03 1.310e-10
 52.23443     24.9 8.852e+03 1.870e-10
 52.27403     27.0 9.147e+03 2.341e-10
 52.31363     28.9 9.356e+03 2.493e-10
 52.35323     30.7 9.477e+03 2.497e-10
 52.38464     32.1 9.597e+03 2.556e-10
 52.40444     32.5 9.345e+03 2.018e-10
 52.43243     33.4 9.651e+03 2.670e-10
 52.47203     34.4 1.015e+04 4.446e-10
 52.51163     35.6 1.107e+04 8.631e-10
 52.55123     36.7 1.193e+04 1.491e-09
 52.59084     38.2 1.244e+04 2.037e-09
 52.62860     39.5 1.258e+04 2.075e-09
 52.64831     39.7 1.225e+04 1.776e-09
 52.65994     40.3 1.249e+04 1.937e-09
 52.67974     40.4 1.290e+04 2.214e-09
 52.69954     40.2 1.352e+04 2.825e-09
 52.71934     40.0 1.422e+04 3.893e-09
 52.73914     40.0 1.487e+04 5.371e-09
 52.75894     40.3 1.538e+04 6.898e-09
 52.77019     40.9 1.579e+04 8.013e-09
 52.78009     40.2 1.592e+04 8.079e-09
 52.79855     40.4 1.616e+04 8.494e-09
 52.81835     40.1 1.649e+04 8.158e-09
 52.83815     39.4 1.666e+04 7.526e-09
 52.85795     38.6 1.653e+04 6.701e-09
 52.87775     37.8 1.600e+04 5.662e-09
 52.89217     37.1 1.509e+04 4.372e-09
 52.90207     34.5 1.355e+04 2.973e-09
 52.91735     34.4 1.311e+04 2.473e-09
 52.92836     34.3 1.267e+04 1.957e-09
 52.93826     34.7 1.266e+04 1.951e-09
 52.95695     34.6 1.225e+04 1.519e-09
 52.97675     34.4 1.192e+04 1.184e-09
 52.99655     34.3 1.171e+04 9.635e-10
 53.01415     34.2 1.159e+04 8.385e-10
 53.02405     33.7 1.160e+04 8.394e-10
 53.03615     33.9 1.148e+04 7.634e-10
 53.05595     34.2 1.139e+04 7.052e-10
 53.07575     34.7 1.131e+04 6.519e-10
 53.09555     35.3 1.126e+04 5.829e-10
 53.11535     35.7 1.125e+04 5.104e-10
 53.13515     36.0 1.124e+04 4.408e-10
 53.14603     36.3 1.123e+04 3.684e-10
 53.15593     35.6 1.123e+04 3.618e-10
 53.18475     35.3 1.121e+04 3.828e-10
 53.22445     35.9 1.112e+04 4.021e-10
 53.26405     36.8 1.103e+04 4.425e-10
 53.30365     38.0 1.093e+04 4.566e-10
 53.34325     39.4 1.086e+04 4.215e-10
 53.38029     40.4 1.077e+04 3.700e-10
 53.40009     40.0 1.059e+04 2.636e-10
 53.42246     40.9 1.038e+04 2.417e-10
 53.46206     42.1 1.029e+04 2.434e-10
 53.50166     43.4 1.018e+04 2.407e-10
 53.54126     44.9 1.001e+04 2.241e-10
 53.58086     46.4 9.849e+03 1.892e-10
 53.62046     47.9 9.712e+03 1.542e-10
 53.64405     49.4 9.585e+03 1.335e-10
 53.66386     48.9 9.544e+03 1.329e-10
 53.68342     50.7 9.414e+03 1.254e-10
 53.70322     51.0 9.404e+03 1.227e-10
 53.73927     53.1 9.362e+03 1.219e-10
 53.77887     55.4 9.350e+03 1.248e-10
 53.81847     57.7 9.323e+03 1.334e-10
 53.85807     60.0 9.328e+03 1.488e-10
 53.88802     62.2 9.426e+03 1.806e-10
 53.90782     61.6 9.470e+03 1.686e-10
 53.93727     63.8 9.751e+03 2.400e-10
 53.97687     65.8 1.016e+04 3.515e-10
 54.00647     66.5 1.024e+04 3.827e-10
 54.01970     67.0 1.029e+04 4.200e-10
 54.02960     66.3 1.037e+04 4.257e-10
 54.04598     66.6 1.053e+04 5.150e-10
 54.06065     67.1 1.075e+04 6.668e-10
 54.07055     67.6 1.115e+04 9.275e-10
 54.08558     68.1 1.149e+04 1.170e-09
 54.10538     68.6 1.176e+04 1.402e-09
 54.12518     69.0 1.194e+04 1.580e-09
 54.14169     69.3 1.199e+04 1.669e-09
 54.15159     68.4 1.198e+04 1.692e-09
 54.16478     68.8 1.194e+04 1.688e-09
 54.18458     69.2 1.181e+04 1.613e-09
 54.20438     69.7 1.163e+04 1.468e-09
 54.22418     70.1 1.146e+04 1.290e-09
 54.24398     70.5 1.130e+04 1.112e-09
 54.26367     70.7 1.117e+04 9.663e-10
 54.27357     69.7 1.086e+04 7.781e-10
 54.28358     69.6 1.075e+04 7.544e-10
 54.30338     69.6 1.073e+04 7.697e-10
 54.32318     69.5 1.075e+04 8.407e-10
 54.34299     69.4 1.091e+04 9.930e-10
 54.36279     69.4 1.115e+04 1.221e-09
 54.38259     69.5 1.141e+04 1.508e-09
 54.39555     69.8 1.164e+04 1.783e-09
 54.40545     69.6 1.151e+04 1.694e-09
 54.42219     69.9 1.160e+04 1.829e-09
 54.43808     70.1 1.160e+04 1.823e-09
 54.44799     70.0 1.193e+04 2.213e-09
 54.46179     70.4 1.179e+04 1.975e-09
 54.48159     70.6 1.153e+04 1.672e-09
 54.50139     70.6 1.130e+04 1.386e-09
 54.51753     70.5 1.113e+04 1.154e-09
 54.52743     70.6 1.089e+04 1.050e-09
 54.54099     70.4 1.078e+04 8.989e-10
 54.56079     70.1 1.069e+04 8.200e-10
 54.58059     69.7 1.066e+04 8.172e-10
 54.60039     69.4 1.064e+04 8.301e-10
 54.62019     69.1 1.061e+04 8.598e-10
 54.63951     68.9 1.053e+04 8.738e-10
 54.64941     69.6 1.032e+04 7.496e-10
 54.65979     69.6 1.029e+04 7.441e-10
 54.67959     69.7 1.021e+04 7.152e-10
 54.69939     69.7 1.012e+04 6.469e-10
 54.71920     69.6 1.007e+04 5.543e-10
 54.73900     69.1 1.004e+04 4.669e-10
 54.75880     68.2 1.006e+04 4.363e-10
 54.77139     67.2 1.010e+04 4.427e-10
 54.78129     68.1 1.003e+04 4.170e-10
 54.79840     67.0 1.014e+04 4.514e-10
 54.81552     65.8 1.041e+04 5.450e-10
 54.82542     65.3 1.065e+04 5.897e-10
 54.83800     64.3 1.103e+04 8.334e-10
 54.85780     63.7 1.138e+04 1.151e-09
 54.87760     63.3 1.165e+04 1.466e-09
 54.89337     63.0 1.186e+04 1.732e-09
 54.90327     63.5 1.197e+04 1.898e-09
 54.91720     63.2 1.220e+04 2.112e-09
 54.93700     62.6 1.238e+04 2.211e-09
 54.95680     61.6 1.260e+04 2.293e-09
 54.97660     60.2 1.293e+04 2.476e-09
 54.99640     58.9 1.323e+04 2.737e-09
 55.01536     57.7 1.333e+04 2.946e-09
 55.02526     57.1 1.356e+04 3.326e-09
 55.03600     56.6 1.339e+04 3.245e-09
 55.05580     56.7 1.304e+04 2.939e-09
 55.07560     57.0 1.260e+04 2.431e-09
 55.09540     57.2 1.224e+04 1.886e-09
 55.11521     57.3 1.195e+04 1.431e-09
 55.13501     57.2 1.171e+04 1.110e-09
 55.14724     57.0 1.149e+04 8.990e-10
 55.15714     56.4 1.112e+04 6.197e-10
 55.17461     56.4 1.094e+04 5.382e-10
 55.19295     56.8 1.078e+04 4.969e-10
 55.20285     57.6 1.124e+04 8.830e-10
 55.21421     58.3 1.114e+04 7.847e-10
 55.23401     58.9 1.105e+04 6.809e-10
 55.25381     59.5 1.092e+04 5.819e-10
 55.26922     60.2 1.080e+04 5.012e-10
 55.27912     60.2 1.061e+04 4.147e-10
 55.29341     60.5 1.062e+04 4.019e-10
 55.32321     61.7 1.072e+04 4.225e-10
 55.36291     63.1 1.052e+04 3.576e-10
 55.39139     64.6 1.041e+04 3.258e-10
 55.41120     65.1 1.013e+04 2.702e-10
 55.44211     66.9 1.016e+04 2.624e-10
 55.48171     68.6 1.023e+04 2.561e-10
 55.52131     70.3 1.028e+04 2.564e-10
 55.56091     72.0 1.039e+04 2.595e-10
 55.60051     73.6 1.046e+04 2.648e-10
 55.63536     75.2 1.048e+04 2.706e-10
 55.65516     75.9 1.045e+04 2.593e-10
 55.67972     77.5 1.049e+04 2.788e-10
 55.71932     79.0 1.052e+04 3.038e-10
 55.75892     80.5 1.056e+04 3.371e-10
 55.79852     81.8 1.060e+04 3.682e-10
 55.83812     82.9 1.063e+04 3.874e-10
 55.87772     84.0 1.065e+04 4.015e-10
 55.89912     85.0 1.066e+04 4.195e-10
 55.91892     85.7 1.075e+04 4.418e-10
 55.94800     86.7 1.075e+04 4.510e-10
 55.96780     86.0 1.104e+04 6.168e-10
 55.99652     86.9 1.116e+04 6.779e-10
 56.03612     87.9 1.137e+04 7.883e-10
 56.07573     88.8 1.158e+04 9.155e-10
 56.11533     89.5 1.174e+04 1.033e-09
 56.14308     90.1 1.183e+04 1.126e-09
 56.16288     91.0 1.192e+04 1.180e-09
 56.19453     91.6 1.201e+04 1.271e-09
 56.23413     92.3 1.213e+04 1.382e-09
 56.27373     93.3 1.233e+04 1.556e-09
 56.30333     93.8 1.239e+04 1.634e-09
 56.32304     94.1 1.252e+04 1.764e-09
 56.33514     94.3 1.275e+04 1.995e-09
 56.34504     94.2 1.304e+04 2.338e-09
 56.36264     94.3 1.352e+04 3.029e-09
 56.38244     94.3 1.410e+04 4.042e-09
 56.39675     94.4 1.476e+04 5.403e-09
 56.40665     94.9 1.469e+04 5.299e-09
 56.42204     94.8 1.547e+04 7.039e-09
 56.44184     94.5 1.610e+04 8.155e-09
 56.46164     93.8 1.622e+04 8.111e-09
 56.48144     92.8 1.617e+04 7.378e-09
 56.50124     91.7 1.568e+04 5.594e-09
 56.51873     90.6 1.477e+04 3.713e-09
 56.52863     91.4 1.514e+04 3.980e-09
 56.54084     90.4 1.397e+04 2.433e-09
 56.56064     89.7 1.303e+04 1.582e-09
 56.59044     88.9 1.183e+04 7.046e-10
 56.63014     88.9 1.076e+04 2.790e-10
 56.65081     89.0 1.005e+04 1.501e-10
 56.67061     90.1 1.034e+04 2.191e-10
 56.70287     91.0 1.000e+04 1.979e-10
 56.72267     90.5 1.008e+04 2.490e-10
 56.74894     92.5 1.002e+04 2.485e-10
 56.78854     94.6 1.002e+04 2.524e-10
 56.82814     96.5 1.004e+04 2.722e-10
 56.86775     98.2 1.013e+04 3.128e-10
 56.89477     99.8 1.026e+04 3.557e-10
 56.91457    100.6 1.052e+04 4.695e-10
 56.94695    101.9 1.068e+04 5.139e-10
 56.98655    103.1 1.070e+04 5.127e-10
 57.02615    104.1 1.069e+04 4.892e-10
 57.06575    105.2 1.062e+04 4.425e-10
 57.10535    106.3 1.056e+04 4.111e-10
 57.13873    107.5 1.058e+04 4.124e-10
 57.15854    108.0 1.076e+04 4.856e-10
 57.18455    109.2 1.080e+04 4.868e-10
 57.22415    110.3 1.083e+04 4.864e-10
 57.26376    111.4 1.082e+04 4.768e-10
 57.30336    112.6 1.075e+04 4.353e-10
 57.34296    114.0 1.061e+04 3.610e-10
 57.38256    115.5 1.042e+04 2.729e-10
 57.42216    117.8 1.038e+04 2.099e-10
 57.45773    119.4 1.027e+04 1.500e-10
 57.47753    119.7 1.031e+04 1.469e-10
 57.50136    121.4 1.026e+04 1.148e-10
 57.54096    123.3 1.025e+04 9.596e-11
 57.58056    125.2 1.030e+04 8.458e-11
 57.62017    127.2 1.035e+04 7.740e-11
 57.64646    129.1 1.040e+04 7.489e-11
 57.66626    129.6 1.041e+04 1.593e-10
 57.69937    131.3 1.052e+04 1.935e-10
 57.73897    132.9 1.064e+04 2.593e-10
 57.77857    134.3 1.081e+04 3.707e-10
 57.81817    135.7 1.104e+04 5.271e-10
 57.85777    136.8 1.135e+04 7.016e-10
 57.89042    137.7 1.159e+04 8.634e-10
 57.91022    137.7 1.197e+04 1.083e-09
 57.93697    138.1 1.198e+04 9.978e-10
 57.97657    138.5 1.189e+04 8.861e-10
 58.01618    139.0 1.179e+04 7.576e-10
 58.05578    139.6 1.167e+04 6.257e-10
 58.09538    140.2 1.154e+04 5.029e-10
 58.13439    141.0 1.140e+04 3.916e-10
 58.15419    141.7 1.124e+04 3.217e-10
 58.17458    142.6 1.115e+04 2.569e-10
 58.21259    143.5 1.108e+04 2.035e-10
 58.23239    143.7 1.117e+04 2.446e-10
 58.25378    144.5 1.108e+04 2.051e-10
 58.29338    145.3 1.100e+04 1.779e-10
 58.33298    146.3 1.097e+04 1.705e-10
 58.37258    147.4 1.097e+04 1.709e-10
 58.39815    148.5 1.100e+04 1.759e-10
 58.41795    149.4 1.112e+04 2.343e-10
 58.45179    150.4 1.118e+04 2.366e-10
 58.49139    151.3 1.119e+04 2.333e-10
 58.53099    152.2 1.118e+04 2.191e-10
 58.57059    153.3 1.111e+04 1.874e-10
 58.61019    154.5 1.103e+04 1.468e-10
 58.64211    155.7 1.095e+04 1.082e-10
 58.66191    156.0 1.107e+04 1.221e-10
 58.68939    157.2 1.100e+04 8.553e-11
 58.72899    158.5 1.080e+04 7.265e-11
 58.76859    160.0 1.074e+04 7.202e-11
 58.80820    161.8 1.075e+04 7.209e-11
 58.84780    163.5 1.078e+04 7.416e-11
 58.88607    165.2 1.084e+04 7.996e-11
 58.90588    165.5 1.086e+04 9.008e-11
 58.92700    167.0 1.092e+04 9.903e-11
 58.96660    168.2 1.094e+04 1.096e-10
 58.98725    169.3 1.093e+04 1.201e-10
 59.00705    169.3 1.090e+04 1.172e-10
 59.04580    170.3 1.087e+04 1.268e-10
 59.08540    171.2 1.086e+04 1.340e-10
 59.12500    171.9 1.088e+04 1.349e-10
 59.14984    172.5 1.088e+04 1.329e-10
 59.16964    172.5 1.089e+04 1.321e-10
 59.20421    173.0 1.090e+04 1.214e-10
 59.24381    173.7 1.090e+04 1.038e-10
 59.28341    174.4 1.089e+04 8.645e-11
 59.32301    175.4 1.094e+04 7.724e-11
 59.36261    176.6 1.095e+04 7.712e-11
 59.39380    177.9 1.098e+04 8.283e-11
 59.41360    177.6 1.106e+04 1.086e-10
 59.44181    179.0 1.108e+04 1.437e-10
 59.48141    180.5 1.114e+04 1.913e-10
 59.52101    182.1 1.120e+04 2.373e-10
 59.56062    183.6 1.126e+04 2.686e-10
 59.60022    185.0 1.130e+04 2.787e-10
 59.63776    186.3 1.130e+04 2.755e-10
 59.65756    185.8 1.127e+04 2.404e-10
 59.67942    187.0 1.119e+04 2.267e-10
 59.71902    188.2 1.116e+04 2.264e-10
 59.74211    189.4 1.112e+04 2.394e-10
 59.76192    189.6 1.125e+04 3.299e-10
 59.79822    190.8 1.134e+04 4.092e-10
 59.83782    191.9 1.149e+04 5.187e-10
 59.87742    192.7 1.168e+04 6.483e-10
 59.90153    193.1 1.187e+04 7.897e-10
 59.92133    193.0 1.180e+04 7.127e-10
 59.95663    193.0 1.195e+04 8.449e-10
 59.99623    192.9 1.217e+04 1.037e-09
 60.03583    192.7 1.252e+04 1.321e-09
 60.07543    191.9 1.286e+04 1.653e-09
 60.11503    190.7 1.298e+04 1.824e-09
 60.14549    189.3 1.296e+04 1.810e-09
 60.16529    189.6 1.290e+04 1.788e-09
 60.19423    188.4 1.276e+04 1.706e-09
 60.23383    187.4 1.251e+04 1.546e-09
 60.27343    186.6 1.225e+04 1.363e-09
 60.31303    185.9 1.197e+04 1.193e-09
 60.35264    185.5 1.170e+04 1.041e-09
 60.38945    185.3 1.145e+04 8.935e-10
 60.40925    186.0 1.106e+04 7.011e-10
 60.43184    185.8 1.098e+04 6.599e-10
 60.47144    185.4 1.085e+04 5.905e-10
 60.49698    185.0 1.061e+04 4.828e-10
 60.51678    184.6 1.079e+04 5.216e-10
 60.55064    184.2 1.042e+04 3.614e-10
 60.59024    184.2 1.001e+04 2.308e-10
 60.62984    184.3 9.518e+03 1.562e-10
 60.65322    184.6 9.138e+03 1.402e-10
 60.67302    185.1 9.093e+03 1.404e-10
 60.70904    186.0 9.035e+03 1.399e-10
 60.74865    187.4 9.021e+03 1.418e-10
 60.78825    189.0 9.007e+03 1.534e-10
 60.82785    190.5 9.078e+03 1.777e-10
 60.86745    191.8 9.199e+03 2.071e-10
 60.89718    192.9 9.329e+03 2.344e-10
 60.91698    193.3 9.206e+03 2.112e-10
 60.94665    194.1 9.304e+03 2.278e-10
 60.98625    194.6 9.322e+03 2.284e-10
 61.02585    195.0 9.304e+03 2.234e-10
 61.06545    195.3 9.212e+03 2.121e-10
 61.10506    195.6 9.125e+03 2.074e-10
 61.14114    196.1 9.119e+03 2.095e-10
 61.16094    196.9 9.233e+03 2.303e-10
 61.18426    197.4 9.247e+03 2.564e-10
 61.22386    198.0 9.327e+03 3.018e-10
 61.25184    198.7 9.437e+03 3.588e-10
 61.27164    198.0 9.463e+03 3.681e-10
 61.30306    198.9 9.563e+03 4.037e-10
 61.34266    199.7 9.588e+03 4.047e-10
 61.38226    200.5 9.581e+03 3.997e-10
 61.40490    201.3 9.536e+03 3.787e-10
 61.42470    202.2 9.329e+03 3.433e-10
 61.46146    203.1 9.200e+03 2.965e-10
 61.50107    204.0 9.072e+03 2.522e-10
 61.54067    204.7 8.930e+03 2.160e-10
 61.58027    205.5 8.779e+03 2.007e-10
 61.61987    206.5 8.757e+03 2.011e-10
 61.64887    207.7 8.774e+03 2.068e-10
 61.66867    209.3 8.541e+03 1.773e-10
 61.69907    210.7 8.591e+03 1.902e-10
 61.73867    212.2 8.791e+03 2.300e-10
 61.77827    213.4 9.115e+03 2.979e-10
 61.81787    214.1 9.331e+03 3.607e-10
 61.84748    215.4 9.556e+03 4.303e-10
 61.86718    216.3 9.875e+03 5.359e-10
 61.88698    217.0 1.020e+04 6.679e-10
 61.90253    217.6 1.050e+04 7.983e-10
 61.91243    218.6 1.009e+04 6.735e-10
 61.92658    219.4 1.039e+04 7.966e-10
 61.94638    220.1 1.067e+04 8.908e-10
 61.96618    220.5 1.091e+04 9.561e-10
 61.98598    220.7 1.108e+04 1.000e-09
 62.00578    220.8 1.123e+04 1.034e-09
 62.01641    220.8 1.144e+04 1.093e-09
 62.02524    219.8 1.185e+04 1.306e-09
 62.03442    221.4 1.166e+04 1.148e-09
 62.04538    221.0 1.209e+04 1.375e-09
 62.06518    220.7 1.254e+04 1.728e-09
 62.08499    220.4 1.297e+04 2.161e-09
 62.10479    220.1 1.332e+04 2.457e-09
 62.12459    219.6 1.339e+04 2.473e-09
 62.14439    218.8 1.336e+04 2.388e-09
 62.15640    218.2 1.316e+04 2.039e-09
 62.16630    219.6 1.355e+04 2.582e-09
 62.18399    218.9 1.325e+04 2.099e-09
 62.20379    218.1 1.273e+04 1.499e-09
 62.22359    217.0 1.207e+04 1.012e-09
 62.24339    215.8 1.147e+04 7.956e-10
 62.26319    214.6 1.142e+04 7.972e-10
 62.27838    213.6 1.163e+04 8.655e-10
 62.28828    214.5 1.151e+04 1.022e-09
 62.30279    213.8 1.179e+04 1.131e-09
 62.32259    213.2 1.249e+04 1.428e-09
 62.34239    212.6 1.328e+04 1.923e-09
 62.36219    212.1 1.390e+04 2.559e-09
 62.38199    212.1 1.432e+04 3.262e-09
 62.39384    212.1 1.460e+04 3.938e-09
 62.40230    210.8 1.531e+04 5.657e-09
 62.41026    211.8 1.481e+04 4.262e-09
 62.42159    211.9 1.501e+04 4.846e-09
 62.44139    212.1 1.530e+04 5.458e-09
 62.46119    212.3 1.569e+04 6.049e-09
 62.48100    212.4 1.631e+04 6.465e-09
 62.50080    212.4 1.674e+04 6.694e-09
 62.52060    212.1 1.724e+04 6.594e-09
 62.53224    211.6 1.744e+04 6.427e-09
 62.54214    212.9 1.820e+04 8.521e-09
 62.56020    212.7 1.842e+04 8.432e-09
 62.57500    212.9 1.848e+04 8.311e-09
 62.58245    212.9 1.861e+04 8.270e-09
 62.58740    211.3 1.890e+04 8.318e-09
 62.59313    210.5 1.900e+04 8.305e-09
 62.59809    211.6 1.901e+04 9.145e-09
 62.60465    211.0 1.912e+04 9.408e-09
 62.61455    210.2 1.920e+04 9.711e-09
 62.62445    209.2 1.934e+04 1.023e-08
 62.63435    208.1 1.961e+04 1.121e-08
 62.64425    206.9 1.997e+04 1.277e-08
 62.65413    205.9 2.030e+04 1.508e-08
 62.66403    206.5 2.085e+04 1.935e-08
 62.67395    206.0 2.108e+04 2.118e-08
 62.68385    205.4 2.116e+04 2.086e-08
 62.69375    204.5 2.125e+04 1.936e-08
 62.70365    203.3 2.107e+04 1.624e-08
 62.71355    201.8 2.052e+04 1.225e-08
 62.72007    199.9 1.950e+04 8.512e-09
 62.72502    201.0 2.029e+04 9.868e-09
 62.73335    198.2 1.904e+04 6.096e-09
 62.74325    196.1 1.759e+04 4.403e-09
 62.75315    193.3 1.639e+04 3.102e-09
 62.76305    191.2 1.551e+04 2.469e-09
 62.77122    189.2 1.477e+04 1.864e-09
 62.77937    184.8 1.371e+04 1.389e-09
 62.78610    184.6 1.396e+04 1.710e-09
 62.79780    179.4 1.201e+04 1.108e-09
 62.81760    175.4 1.084e+04 8.285e-10
 62.83740    173.1 1.076e+04 7.939e-10
 62.85720    171.7 1.082e+04 8.058e-10
 62.87701    170.0 1.113e+04 8.841e-10
 62.89681    167.6 1.204e+04 1.202e-09
 62.90809    165.0 1.333e+04 2.005e-09
 62.91799    163.5 1.363e+04 2.402e-09
 62.93641    162.0 1.494e+04 4.147e-09
 62.95621    161.2 1.624e+04 6.896e-09
 62.97601    160.7 1.738e+04 9.888e-09
 62.99581    159.8 1.817e+04 1.076e-08
 63.01561    158.4 1.821e+04 1.054e-08
 63.03007    157.0 1.806e+04 9.472e-09
 63.03997    155.0 1.696e+04 6.229e-09
 63.05521    153.7 1.623e+04 5.069e-09
 63.07501    152.7 1.548e+04 4.312e-09
 63.09481    152.2 1.518e+04 4.136e-09
 63.11461    152.3 1.519e+04 4.160e-09
 63.13441    152.6 1.547e+04 4.321e-09
 63.14870    153.1 1.590e+04 4.852e-09
 63.15644    154.3 1.511e+04 4.629e-09
 63.16195    154.0 1.427e+04 3.414e-09
 63.17401    154.7 1.461e+04 3.668e-09
 63.19381    155.4 1.514e+04 4.116e-09
 63.21361    156.0 1.579e+04 4.837e-09
 63.23341    156.6 1.654e+04 5.928e-09
 63.25322    157.2 1.722e+04 7.374e-09
 63.27302    157.8 1.771e+04 9.046e-09
 63.28393    158.4 1.802e+04 1.076e-08
 63.29383    158.2 1.657e+04 5.307e-09
 63.31262    158.6 1.708e+04 6.276e-09
 63.33242    158.7 1.750e+04 7.558e-09
 63.35222    158.7 1.793e+04 9.400e-09
 63.37202    158.7 1.840e+04 1.212e-08
 63.39182    159.1 1.893e+04 1.601e-08
 63.40591    159.7 1.948e+04 2.045e-08
 63.41581    159.1 1.857e+04 1.602e-08
 63.43142    159.8 1.959e+04 2.320e-08
 63.44622    160.2 2.087e+04 3.441e-08
 63.45607    160.1 2.136e+04 3.910e-08
 63.46597    159.2 2.120e+04 3.651e-08
 63.47176    159.0 2.101e+04 3.413e-08
 63.47671    158.9 2.085e+04 3.148e-08
 63.49077    159.0 1.956e+04 2.114e-08
 63.51062    159.7 1.816e+04 1.347e-08
 63.52613    160.6 1.680e+04 8.346e-09
 63.53350    161.4 1.690e+04 9.406e-09
 63.53779    160.9 1.701e+04 9.168e-09
 63.55022    161.8 1.570e+04 5.612e-09
 63.57002    162.2 1.453e+04 3.546e-09
 63.58982    162.5 1.368e+04 2.497e-09
 63.60962    162.9 1.315e+04 1.953e-09
 63.63942    164.6 1.257e+04 1.460e-09
 63.65997    166.9 1.201e+04 1.096e-09
 63.67977    166.9 1.173e+04 9.879e-10
 63.71872    169.3 1.151e+04 8.272e-10
 63.75832    171.9 1.142e+04 7.712e-10
 63.79792    174.4 1.150e+04 7.604e-10
 63.83753    176.7 1.162e+04 7.647e-10
 63.87713    178.8 1.177e+04 7.758e-10
 63.90393    180.7 1.185e+04 7.850e-10
 63.92373    180.6 1.175e+04 9.215e-10
 63.95633    182.3 1.174e+04 9.061e-10
 63.99593    184.1 1.168e+04 8.718e-10
 64.03553    185.8 1.159e+04 8.146e-10
 64.07513    187.5 1.148e+04 7.344e-10
 64.11473    189.0 1.134e+04 6.399e-10
 64.14790    190.6 1.118e+04 5.478e-10
 64.16770    190.5 1.098e+04 4.840e-10
 64.19393    192.1 1.083e+04 4.280e-10
 64.23354    193.9 1.084e+04 4.140e-10
 64.27129    195.8 1.086e+04 4.159e-10
 64.29099    195.1 1.102e+04 4.566e-10
 64.30264    195.7 1.110e+04 4.750e-10
 64.32244    196.2 1.117e+04 5.010e-10
 64.34224    196.7 1.123e+04 5.272e-10
 64.36204    197.3 1.129e+04 5.446e-10
 64.38184    197.9 1.129e+04 5.478e-10
 64.40156    198.5 1.130e+04 5.457e-10
 64.42136    199.6 1.130e+04 4.836e-10
 64.44125    199.9 1.132e+04 4.781e-10
 64.46105    200.1 1.133e+04 4.635e-10
 64.48085    200.3 1.131e+04 4.488e-10
 64.50065    200.5 1.139e+04 4.308e-10
 64.52045    200.5 1.144e+04 4.360e-10
 64.53344    200.4 1.153e+04 4.584e-10
 64.54335    200.7 1.162e+04 4.808e-10
 64.56005    200.7 1.169e+04 5.307e-10
 64.57985    200.7 1.175e+04 5.910e-10
 64.59965    200.6 1.179e+04 6.528e-10
 64.61945    200.6 1.181e+04 7.073e-10
 64.63925    200.6 1.182e+04 7.502e-10
 64.65543    200.6 1.183e+04 7.798e-10
 64.66470    201.3 1.193e+04 9.421e-10
 64.66832    200.3 1.219e+04 1.090e-09
 64.67885    200.3 1.218e+04 1.082e-09
 64.69865    200.3 1.218e+04 1.070e-09
 64.71845    200.3 1.218e+04 1.056e-09
 64.73825    200.4 1.217e+04 1.047e-09
 64.75805    200.4 1.221e+04 1.034e-09
 64.77741    200.4 1.226e+04 1.016e-09
 64.78731    201.3 1.252e+04 1.257e-09
 64.79765    201.4 1.258e+04 1.242e-09
 64.81746    201.5 1.269e+04 1.216e-09
 64.83726    201.5 1.279e+04 1.180e-09
 64.85706    201.5 1.285e+04 1.121e-09
 64.87686    201.5 1.283e+04 1.023e-09
 64.89666    201.3 1.266e+04 8.899e-10
 64.90929    201.1 1.235e+04 7.449e-10
 64.91919    202.5 1.331e+04 1.202e-09
 64.93626    202.3 1.300e+04 9.680e-10
 64.95606    201.7 1.255e+04 7.486e-10
 64.97586    201.0 1.207e+04 5.822e-10
 64.99566    200.2 1.160e+04 4.873e-10
 65.01546    199.4 1.133e+04 4.776e-10
 65.03127    198.9 1.132e+04 4.787e-10
 65.04117    198.6 1.267e+04 7.584e-10
 65.04575    198.0 1.266e+04 7.655e-10
 65.05565    197.2 1.301e+04 9.160e-10
 65.07486    196.9 1.294e+04 9.753e-10
 65.09466    196.7 1.291e+04 1.171e-09
 65.11446    196.5 1.319e+04 1.543e-09
 65.13426    196.4 1.372e+04 2.160e-09
 65.15325    196.4 1.443e+04 3.100e-09
 65.16315    197.0 1.416e+04 3.545e-09
 65.17386    197.0 1.494e+04 4.816e-09
 65.19367    196.8 1.573e+04 6.296e-09
 65.21347    196.4 1.642e+04 7.383e-09
 65.23327    195.7 1.685e+04 7.466e-09
 65.25307    194.8 1.692e+04 7.316e-09
 65.27287    193.9 1.700e+04 6.481e-09
 65.28513    192.8 1.670e+04 5.077e-09
 65.29503    193.9 1.669e+04 5.566e-09
 65.31247    192.8 1.649e+04 4.399e-09
 65.33227    191.4 1.591e+04 3.447e-09
 65.35207    189.9 1.514e+04 2.852e-09
 65.37187    188.8 1.439e+04 2.500e-09
 65.39167    188.3 1.381e+04 2.242e-09
 65.40712    188.3 1.339e+04 1.977e-09
 65.41702    189.1 1.401e+04 2.380e-09
 65.42318    189.2 1.347e+04 1.999e-09
 65.43309    189.1 1.372e+04 2.253e-09
 65.45107    189.2 1.305e+04 1.681e-09
 65.47087    189.4 1.240e+04 1.220e-09
 65.49067    189.6 1.181e+04 8.513e-10
 65.51047    189.6 1.129e+04 6.009e-10
 65.52910    189.8 1.086e+04 4.297e-10
 65.53900    190.2 1.092e+04 4.395e-10
 65.55007    190.0 1.068e+04 3.705e-10
 65.57987    190.8 1.045e+04 3.196e-10
 65.61957    191.8 1.040e+04 3.143e-10
 65.65127    192.9 1.042e+04 3.231e-10
 65.67107    195.1 1.040e+04 2.956e-10
 65.68878    195.7 1.045e+04 3.066e-10
 65.70848    196.1 1.057e+04 3.317e-10
 65.72828    196.4 1.075e+04 4.009e-10
 65.74808    196.5 1.088e+04 5.227e-10
 65.76788    196.4 1.099e+04 7.524e-10
 65.78296    195.4 1.209e+04 1.318e-09
 65.79286    196.8 1.191e+04 1.116e-09
 65.80062    194.7 1.449e+04 2.395e-09
 65.81052    196.1 1.441e+04 2.138e-09
 65.82728    194.9 1.563e+04 3.269e-09
 65.84208    191.2 1.802e+04 6.440e-09
 65.84880    188.5 1.955e+04 1.124e-08
 65.85375    190.1 1.954e+04 9.811e-09
 65.86183    187.2 2.093e+04 1.962e-08
 65.87173    184.8 2.151e+04 3.760e-08
 65.88164    183.3 2.177e+04 6.125e-08
 65.89154    182.5 2.181e+04 7.598e-08
 65.90144    182.0 2.183e+04 7.441e-08
 65.90979    181.6 2.182e+04 6.263e-08
 65.91474    181.7 2.185e+04 8.184e-08
 65.92124    181.5 2.175e+04 5.305e-08
 65.93114    181.0 2.163e+04 2.467e-08
 65.94104    180.6 2.222e+04 9.711e-09
 65.95094    179.3 2.251e+04 1.997e-09
 65.96584    175.7 2.315e+04 5.549e-10
 65.98569    165.2 2.044e+04 5.326e-11
 66.01548    153.0 1.193e+04 1.230e-10
 66.05518    150.2 9.795e+03 1.614e-10
 66.09478    150.2 9.285e+03 2.004e-10
 66.13438    150.2 9.432e+03 2.511e-10
 66.15900    150.0 9.779e+03 3.114e-10
 66.17880    150.4 9.892e+03 3.255e-10
 66.20359    150.1 1.019e+04 3.941e-10
 66.22329    149.7 1.042e+04 4.600e-10
 66.24309    149.3 1.072e+04 5.709e-10
 66.26289    148.9 1.104e+04 7.209e-10
 66.28079    148.4 1.145e+04 9.235e-10
 66.29069    149.0 1.129e+04 8.540e-10
 66.30249    148.6 1.160e+04 1.035e-09
 66.32229    148.2 1.190e+04 1.227e-09
 66.34209    147.6 1.210e+04 1.347e-09
 66.37189    147.2 1.249e+04 1.573e-09
 66.40296    146.3 1.256e+04 1.623e-09
 66.42276    147.1 1.207e+04 1.244e-09
 66.45119    146.7 1.196e+04 1.192e-09
 66.49079    146.3 1.178e+04 1.095e-09
 66.52040    145.8 1.165e+04 1.024e-09
 66.53465    145.6 1.152e+04 9.542e-10
 66.54455    146.3 1.147e+04 9.514e-10
 66.55548    146.4 1.138e+04 9.013e-10
 66.56538    146.4 1.133e+04 9.012e-10
 66.57970    146.6 1.125e+04 8.554e-10
 66.59950    146.9 1.113e+04 7.791e-10
 66.61930    147.2 1.098e+04 6.901e-10
 66.63910    147.5 1.081e+04 5.910e-10
 66.65663    147.6 1.061e+04 5.066e-10
 66.66653    148.5 1.096e+04 6.659e-10
 66.67870    148.8 1.076e+04 5.841e-10
 66.69850    149.0 1.056e+04 5.229e-10
 66.71830    149.3 1.035e+04 4.674e-10
 66.73810    149.6 1.021e+04 4.370e-10
 66.75791    150.4 1.011e+04 4.110e-10
 66.77771    150.7 1.006e+04 3.932e-10
 66.78851    151.5 1.001e+04 3.706e-10
 66.79841    152.2 1.021e+04 4.508e-10
 66.81731    152.7 1.016e+04 4.222e-10
 66.84711    153.0 1.001e+04 3.557e-10
 66.88680    154.0 9.967e+03 3.319e-10
 66.91069    155.1 9.888e+03 3.103e-10
 66.92049    155.0 1.011e+04 3.743e-10
 66.93291    155.2 1.013e+04 3.725e-10
 66.94281    155.5 1.011e+04 3.787e-10
 66.96591    156.4 1.012e+04 3.792e-10
 67.00561    157.6 9.964e+03 3.466e-10
 67.04521    158.8 9.792e+03 3.138e-10
 67.08481    160.2 9.677e+03 2.886e-10
 67.12441    161.5 9.566e+03 2.701e-10
 67.15465    162.8 9.530e+03 2.689e-10
 67.17445    162.8 9.731e+03 2.981e-10
 67.20361    164.2 9.740e+03 3.032e-10
 67.24321    165.7 9.799e+03 3.174e-10
 67.28281    167.1 9.921e+03 3.438e-10
 67.31054    168.2 1.002e+04 3.737e-10
 67.33034    168.2 1.003e+04 3.967e-10
 67.35202    169.0 1.012e+04 4.525e-10
 67.37172    169.8 1.032e+04 5.430e-10
 67.39152    170.3 1.064e+04 6.759e-10
 67.40832    170.3 1.102e+04 8.579e-10
 67.41822    170.3 1.092e+04 8.153e-10
 67.43112    170.2 1.132e+04 1.041e-09
 67.45092    170.0 1.181e+04 1.358e-09
 67.47072    169.7 1.236e+04 1.769e-09
 67.49052    169.1 1.287e+04 2.215e-09
 67.51032    168.2 1.323e+04 2.482e-09
 67.53013    166.9 1.327e+04 2.487e-09
 67.54020    165.5 1.322e+04 2.416e-09
 67.55010    165.2 1.311e+04 2.315e-09
 67.56973    163.8 1.291e+04 2.120e-09
 67.58953    162.4 1.254e+04 1.837e-09
 67.60933    160.9 1.215e+04 1.566e-09
 67.62913    159.5 1.180e+04 1.371e-09
 67.64893    158.3 1.167e+04 1.312e-09
 67.66218    157.3 1.169e+04 1.321e-09
 67.67208    157.5 1.152e+04 1.213e-09
 67.68777    156.3 1.165e+04 1.280e-09
 67.69767    156.4 1.165e+04 1.295e-09
 67.70833    154.9 1.188e+04 1.437e-09
 67.72813    153.2 1.222e+04 1.707e-09
 67.74793    151.5 1.258e+04 2.057e-09
 67.76773    149.8 1.292e+04 2.380e-09
 67.78416    147.9 1.328e+04 2.578e-09
 67.79406    148.2 1.346e+04 2.740e-09
 67.80733    146.1 1.344e+04 2.713e-09
 67.82713    143.6 1.329e+04 2.445e-09
 67.84693    140.2 1.305e+04 1.881e-09
 67.86673    135.5 1.274e+04 1.350e-09
 67.88653    130.1 1.214e+04 1.075e-09
 67.90614    125.5 1.152e+04 1.039e-09
 67.91604    125.7 1.191e+04 1.139e-09
 67.92614    122.3 1.151e+04 1.148e-09
 67.94594    120.3 1.145e+04 1.182e-09
 67.96574    118.9 1.149e+04 1.219e-09
 67.98554    117.4 1.162e+04 1.248e-09
 68.00534    115.5 1.183e+04 1.277e-09
 68.02514    112.8 1.221e+04 1.351e-09
 68.03803    109.0 1.285e+04 1.611e-09
 68.04793    108.9 1.255e+04 1.506e-09
 68.06474    103.9 1.359e+04 2.142e-09
 68.07510     98.1 1.510e+04 3.497e-09
 68.08500    103.4 1.424e+04 2.505e-09
 68.10434     97.1 1.575e+04 4.246e-09
 68.12414     91.6 1.652e+04 5.579e-09
 68.14394     86.8 1.641e+04 5.412e-09
 68.16001     82.6 1.562e+04 4.259e-09
 68.16991     83.0 1.601e+04 5.045e-09
 68.18354     79.9 1.433e+04 2.933e-09
 68.20334     76.9 1.237e+04 1.459e-09
 68.23314     72.4 1.118e+04 6.362e-10
 68.27284     63.8 9.698e+03 3.716e-10
 68.31244     60.7 9.558e+03 3.845e-10
 68.34204     60.2 9.552e+03 3.944e-10
 68.36175     59.7 9.692e+03 4.455e-10
 68.38155     59.3 9.750e+03 4.986e-10
 68.40135     58.6 1.003e+04 5.720e-10
 68.41387     54.2 1.207e+04 9.897e-10
 68.42377     54.3 1.190e+04 9.955e-10
 68.44095     47.0 1.496e+04 2.759e-09
 68.45248     43.1 1.613e+04 4.446e-09
 68.45739     43.3 1.560e+04 3.819e-09
 68.46560     42.1 1.609e+04 4.930e-09
 68.48050     34.9 2.067e+04 1.150e-08
 68.50035     27.3 2.210e+04 2.364e-08
 68.52015     23.9 1.985e+04 2.052e-08
 68.53585     22.3 1.781e+04 1.550e-08
 68.54575     22.7 1.730e+04 1.304e-08
 68.55975     22.3 1.621e+04 6.941e-09
 68.57955     19.7 1.595e+04 2.827e-09
 68.59935     13.5 1.365e+04 1.014e-09
 68.61915      7.6 1.035e+04 5.002e-10
 68.63895      7.1 9.884e+03 4.548e-10
 68.65793      6.9 9.628e+03 4.299e-10
 68.67783      7.0 9.465e+03 4.028e-10
 68.70845      7.4 9.241e+03 3.552e-10
 68.74805      7.6 8.934e+03 2.525e-10
 68.78765      6.9 8.562e+03 1.827e-10
 68.82026      6.4 8.189e+03 1.428e-10
 68.84006      7.6 8.342e+03 1.712e-10
 68.86686      7.7 8.098e+03 1.507e-10
 68.90199      7.9 8.082e+03 1.417e-10
 68.92179      7.7 8.091e+03 1.412e-10
 68.94606      7.0 8.322e+03 1.632e-10
 68.98566      6.2 8.533e+03 2.318e-10
 69.02526      6.6 8.734e+03 3.134e-10
 69.06486      7.5 8.679e+03 3.323e-10
 69.10446      8.5 8.405e+03 2.179e-10
 69.14406      7.5 7.927e+03 1.108e-10
 69.16575      5.7 7.390e+03 8.238e-11
 69.18555      5.3 7.299e+03 7.225e-11
 69.22326      4.7 7.286e+03 6.677e-11
 69.26287      3.6 7.415e+03 9.176e-11
 69.30247      1.7 8.091e+03 1.574e-10
 69.34207     -1.5 9.106e+03 3.197e-10
 69.38167     -4.3 9.522e+03 5.482e-10
 69.40972     -4.7 9.911e+03 7.245e-10
 69.42952     -3.9 9.908e+03 7.216e-10
 69.46087     -4.2 1.003e+04 7.408e-10
 69.50047     -6.2 9.304e+03 4.711e-10
 69.54007     -7.8 9.000e+03 4.162e-10
 69.57512     -8.4 9.276e+03 4.928e-10
 69.59492     -9.2 9.209e+03 4.634e-10
 69.61927    -10.4 9.994e+03 6.623e-10
 69.64888    -10.6 1.056e+04 8.514e-10
 69.66338    -11.2 1.075e+04 9.236e-10
 69.67328    -10.5 1.047e+04 8.045e-10
 69.68838    -11.7 1.072e+04 9.276e-10
 69.70818    -12.6 1.088e+04 1.057e-09
 69.72798    -13.1 1.100e+04 1.172e-09
 69.74778    -13.4 1.108e+04 1.229e-09
 69.76758    -13.6 1.107e+04 1.232e-09
 69.78537    -13.7 1.091e+04 1.115e-09
 69.79527    -13.0 1.078e+04 1.049e-09
 69.80718    -13.3 1.064e+04 9.325e-10
 69.82698    -13.7 1.051e+04 8.332e-10
 69.84679    -14.4 1.038e+04 7.730e-10
 69.86659    -14.7 1.038e+04 7.669e-10
 69.88639    -15.2 1.039e+04 7.672e-10
 69.90619    -15.5 1.057e+04 8.383e-10
 69.91725    -15.7 1.076e+04 9.318e-10
 69.92715    -15.2 1.077e+04 9.310e-10
 69.94579    -15.4 1.101e+04 1.049e-09
 69.96226    -15.6 1.133e+04 1.194e-09
 69.97216    -15.3 1.107e+04 1.084e-09
 69.98539    -15.6 1.125e+04 1.155e-09
 70.00519    -16.0 1.147e+04 1.235e-09
 70.02499    -16.5 1.166e+04 1.296e-09
 70.03923    -17.1 1.189e+04 1.366e-09
 70.04913    -16.6 1.209e+04 1.497e-09
 70.06459    -17.4 1.247e+04 1.659e-09
 70.08439    -18.6 1.287e+04 1.898e-09
 70.10419    -19.8 1.321e+04 2.250e-09
 70.12399    -20.5 1.339e+04 2.667e-09
 70.14379    -20.4 1.362e+04 3.107e-09
 70.16121    -20.1 1.379e+04 3.231e-09
 70.17111    -19.6 1.386e+04 3.288e-09
 70.18339    -19.3 1.386e+04 3.220e-09
 70.20319    -19.0 1.363e+04 2.582e-09
 70.22299    -19.6 1.315e+04 1.856e-09
 70.25279    -21.1 1.225e+04 1.295e-09
 70.28249    -21.0 1.180e+04 1.062e-09
 70.29309    -21.0 1.180e+04 1.046e-09
 70.30299    -20.5 1.159e+04 9.496e-10
 70.32200    -20.7 1.124e+04 8.389e-10
 70.33969    -20.6 1.115e+04 8.110e-10
 70.34959    -20.0 1.114e+04 7.965e-10
 70.36160    -20.0 1.106e+04 7.791e-10
 70.38140    -19.6 1.107e+04 7.716e-10
 70.40120    -19.4 1.108e+04 7.552e-10
 70.41507    -19.2 1.113e+04 7.574e-10
 70.42507    -18.7 1.080e+04 6.206e-10
 70.45090    -18.5 1.096e+04 6.717e-10
 70.48050    -18.1 1.115e+04 7.734e-10
 70.50020    -17.6 1.122e+04 8.347e-10
 70.52000    -16.7 1.137e+04 9.117e-10
 70.53705    -16.1 1.155e+04 9.875e-10
 70.54695    -15.6 1.154e+04 9.838e-10
 70.55960    -15.0 1.178e+04 1.073e-09
 70.57940    -14.7 1.213e+04 1.179e-09
 70.59920    -15.4 1.278e+04 1.377e-09
 70.61901    -18.2 1.392e+04 1.896e-09
 70.63881    -21.4 1.500e+04 2.848e-09
 70.65361    -25.1 1.463e+04 3.069e-09
 70.66346    -26.2 1.490e+04 3.292e-09
 70.66884    -28.4 1.495e+04 3.522e-09
 70.67379    -29.0 1.521e+04 3.888e-09
 70.68326    -29.9 1.541e+04 4.030e-09
 70.69816    -32.1 1.532e+04 4.151e-09
 70.71712    -33.5 1.430e+04 2.963e-09
 70.72702    -31.9 1.365e+04 2.491e-09
 70.73781    -33.1 1.306e+04 1.937e-09
 70.75761    -33.9 1.245e+04 1.469e-09
 70.77741    -34.5 1.185e+04 1.143e-09
 70.79092    -34.6 1.133e+04 9.242e-10
 70.80082    -34.7 1.122e+04 8.718e-10
 70.81701    -34.4 1.078e+04 7.057e-10
 70.83681    -34.1 1.047e+04 5.840e-10
 70.85661    -33.7 1.023e+04 4.926e-10
 70.87641    -33.4 1.005e+04 4.255e-10
 70.89621    -33.3 9.897e+03 3.809e-10
 70.91300    -33.2 9.789e+03 3.586e-10
 70.93289    -33.2 9.712e+03 3.446e-10
 70.96571    -32.6 9.614e+03 3.293e-10
 71.00531    -32.3 9.622e+03 3.444e-10
 71.04491    -32.2 9.934e+03 4.407e-10
 71.08451    -31.8 1.036e+04 5.761e-10
 71.10455    -31.7 1.056e+04 6.659e-10
 71.12435    -32.6 1.035e+04 6.548e-10
 71.15706    -32.5 1.036e+04 6.592e-10
 71.17686    -31.7 1.051e+04 7.138e-10
 71.20332    -31.8 1.035e+04 6.433e-10
 71.24292    -32.1 1.015e+04 5.273e-10
 71.28252    -32.4 1.021e+04 4.754e-10
 71.32212    -33.2 1.018e+04 4.499e-10
 71.36172    -34.2 1.032e+04 4.553e-10
 71.40102    -35.3 1.048e+04 4.676e-10
 71.42072    -35.2 1.055e+04 4.899e-10
 71.43083    -36.0 1.056e+04 4.813e-10
 71.45063    -36.2 1.059e+04 4.825e-10
 71.47043    -36.8 1.061e+04 4.732e-10
 71.48188    -37.4 1.065e+04 4.745e-10
 71.49178    -38.5 1.057e+04 4.368e-10
 71.51003    -39.0 1.044e+04 4.043e-10
 71.52983    -39.2 1.037e+04 3.736e-10
 71.55963    -38.9 1.036e+04 3.583e-10
 71.59933    -39.1 1.009e+04 2.890e-10
 71.63893    -39.5 9.829e+03 2.365e-10
 71.66478    -40.0 9.648e+03 2.102e-10
 71.68458    -40.1 9.410e+03 1.876e-10
 71.71813    -40.4 9.298e+03 1.832e-10
 71.75773    -40.4 9.295e+03 1.914e-10
 71.79733    -40.2 9.344e+03 1.999e-10
 71.83693    -39.8 9.381e+03 2.075e-10
 71.85951    -39.2 9.363e+03 2.150e-10
 71.87931    -39.0 9.121e+03 1.733e-10
 71.90875    -38.4 9.025e+03 1.656e-10
 71.92855    -38.1 8.977e+03 1.663e-10
 71.95573    -37.5 9.038e+03 1.738e-10
 71.99534    -36.9 9.167e+03 1.979e-10
 72.03494    -36.4 9.436e+03 2.490e-10
 72.07454    -36.2 9.850e+03 3.389e-10
 72.10414    -36.5 1.022e+04 4.687e-10
 72.12384    -37.0 1.050e+04 5.975e-10
 72.14364    -37.2 1.079e+04 7.374e-10
 72.16241    -37.3 1.102e+04 8.355e-10
 72.17231    -37.5 1.108e+04 8.657e-10
 72.18325    -37.9 1.117e+04 8.976e-10
 72.20305    -38.4 1.117e+04 8.940e-10
 72.22285    -38.9 1.103e+04 8.047e-10
 72.23674    -39.5 1.080e+04 6.849e-10
 72.24664    -39.0 1.101e+04 7.715e-10
 72.26245    -39.4 1.071e+04 6.304e-10
 72.28225    -39.6 1.043e+04 5.128e-10
 72.29429    -39.9 1.020e+04 4.187e-10
 72.30419    -40.4 1.020e+04 4.320e-10
 72.32185    -40.7 1.001e+04 3.721e-10
 72.35165    -41.0 9.986e+03 3.490e-10
 72.39135    -41.3 9.950e+03 3.506e-10
 72.41647    -41.0 9.966e+03 4.041e-10
 72.43627    -42.4 9.975e+03 4.386e-10
 72.47055    -41.7 1.000e+04 4.668e-10
 72.50015    -40.6 9.983e+03 4.593e-10
 72.51985    -40.6 1.003e+04 4.586e-10
 72.53826    -40.8 1.007e+04 4.692e-10
 72.54816    -41.4 9.980e+03 4.416e-10
 72.55946    -41.6 1.004e+04 4.689e-10
 72.58925    -41.3 1.023e+04 5.479e-10
 72.61437    -40.7 1.053e+04 6.901e-10
 72.63417    -40.0 1.080e+04 7.894e-10
 72.66043    -39.1 1.122e+04 9.989e-10
 72.68023    -40.4 1.084e+04 8.248e-10
 72.70815    -39.7 1.085e+04 7.746e-10
 72.74776    -39.2 1.058e+04 5.885e-10
 72.78736    -39.0 1.024e+04 4.207e-10
 72.82696    -39.1 9.902e+03 3.195e-10
 72.86656    -39.1 9.631e+03 2.755e-10
 72.90440    -39.0 9.524e+03 2.628e-10
 72.92420    -40.8 9.462e+03 2.557e-10
 72.94576    -40.9 9.508e+03 2.628e-10
 72.98536    -40.9 9.505e+03 2.583e-10
 73.02496    -41.0 9.508e+03 2.653e-10
 73.06456    -41.1 9.656e+03 3.079e-10
 73.10416    -40.9 9.904e+03 3.909e-10
 73.14377    -40.5 1.008e+04 4.486e-10
 73.16816    -40.1 1.011e+04 4.603e-10
 73.18796    -41.6 9.964e+03 3.916e-10
 73.22297    -41.2 9.724e+03 3.100e-10
 73.26257    -41.0 9.369e+03 2.274e-10
 73.30217    -40.8 9.186e+03 1.919e-10
 73.34177    -40.5 9.131e+03 1.799e-10
 73.36923    -40.0 9.154e+03 1.887e-10
 73.38903    -40.1 9.166e+03 1.821e-10
 73.41212    -39.7 9.337e+03 2.307e-10
 73.43192    -41.3 9.438e+03 3.054e-10
 73.46057    -40.6 9.529e+03 3.486e-10
 73.50017    -39.9 9.565e+03 3.506e-10
 73.53978    -39.5 9.589e+03 3.618e-10
 73.57938    -39.1 9.614e+03 3.708e-10
 73.61898    -38.7 9.597e+03 3.686e-10
 73.65609    -38.3 9.505e+03 3.411e-10
 73.67589    -39.6 9.125e+03 2.700e-10
 73.69818    -39.3 9.136e+03 2.525e-10
 73.73778    -39.2 9.190e+03 2.490e-10
 73.77738    -39.4 9.419e+03 2.685e-10
 73.81698    -39.8 9.913e+03 3.899e-10
 73.85658    -39.8 1.063e+04 6.559e-10
 73.89618    -39.7 1.147e+04 1.062e-09
 73.91985    -39.7 1.222e+04 1.510e-09
 73.93965    -40.3 1.269e+04 1.899e-09
 73.96539    -40.4 1.314e+04 2.470e-09
 73.98509    -40.3 1.332e+04 2.709e-09
 74.00489    -40.0 1.338e+04 2.767e-09
 74.02469    -39.9 1.348e+04 2.569e-09
 74.04163    -40.2 1.364e+04 2.323e-09
 74.05153    -39.9 1.388e+04 3.079e-09
 74.06429    -41.1 1.413e+04 2.821e-09
 74.08409    -43.6 1.456e+04 2.774e-09
 74.10389    -46.1 1.489e+04 2.985e-09
 74.12370    -47.9 1.495e+04 3.419e-09
 74.13380    -49.3 1.502e+04 3.739e-09
 74.14370    -49.9 1.647e+04 5.714e-09
 74.16330    -51.9 1.669e+04 5.934e-09
 74.17352    -54.5 1.684e+04 5.715e-09
 74.18342    -55.4 1.739e+04 6.332e-09
 74.20290    -58.9 1.752e+04 7.260e-09
 74.22270    -61.5 1.746e+04 8.575e-09
 74.24250    -62.4 1.750e+04 1.027e-08
 74.26230    -62.6 1.750e+04 1.026e-08
 74.27710    -62.5 1.763e+04 1.120e-08
 74.28695    -62.2 1.748e+04 9.872e-09
 74.29540    -62.0 1.728e+04 7.711e-09
 74.30035    -61.4 1.793e+04 9.781e-09
 74.30675    -61.6 1.759e+04 6.555e-09
 74.31665    -63.1 1.684e+04 4.388e-09
 74.32242    -64.1 1.618e+04 3.497e-09
 74.32737    -64.7 1.591e+04 3.121e-09
 74.34145    -65.7 1.503e+04 2.224e-09
 74.36130    -67.1 1.301e+04 1.092e-09
 74.38110    -67.9 1.163e+04 6.073e-10
 74.40090    -68.2 1.108e+04 4.169e-10
 74.41748    -68.3 1.089e+04 3.367e-10
 74.42738    -68.2 1.073e+04 3.039e-10
 74.44050    -68.0 1.057e+04 2.659e-10
 74.46030    -67.7 1.042e+04 2.470e-10
 74.49010    -67.3 1.030e+04 2.325e-10
 74.52980    -66.2 1.025e+04 2.328e-10
 74.56940    -65.3 1.019e+04 2.598e-10
 74.60900    -64.9 1.042e+04 3.309e-10
 74.64860    -64.7 1.084e+04 4.880e-10
 74.67154    -64.7 1.149e+04 7.836e-10
 74.69134    -63.3 1.098e+04 5.714e-10
 74.72781    -63.0 1.172e+04 9.768e-10
 74.76741    -62.4 1.225e+04 1.417e-09
 74.80701    -62.0 1.245e+04 1.629e-09
 74.84661    -61.8 1.243e+04 1.642e-09
 74.87621    -61.2 1.212e+04 1.469e-09
 74.88866    -61.0 1.197e+04 1.401e-09
 74.89856    -60.5 1.182e+04 1.280e-09
 74.91530    -60.3 1.173e+04 1.233e-09
 74.92520    -59.6 1.196e+04 1.415e-09
 74.93552    -59.4 1.188e+04 1.341e-09
 74.95532    -59.5 1.182e+04 1.260e-09
 74.97512    -59.5 1.178e+04 1.192e-09
 74.99492    -59.7 1.179e+04 1.151e-09
 75.01472    -59.9 1.183e+04 1.131e-09
 75.03452    -60.1 1.188e+04 1.128e-09
 75.04719    -60.5 1.195e+04 1.149e-09
 75.05709    -59.5 1.193e+04 1.183e-09
 75.07412    -59.9 1.197e+04 1.196e-09
 75.09392    -60.3 1.204e+04 1.242e-09
 75.11372    -60.8 1.215e+04 1.326e-09
 75.13352    -61.2 1.225e+04 1.409e-09
 75.15332    -61.7 1.232e+04 1.444e-09
 75.16917    -62.0 1.232e+04 1.435e-09
 75.17907    -61.0 1.231e+04 1.442e-09
 75.19292    -61.3 1.231e+04 1.374e-09
 75.21272    -61.5 1.204e+04 1.170e-09
 75.23252    -61.8 1.157e+04 9.078e-10
 75.25232    -62.1 1.104e+04 6.874e-10
 75.26609    -62.2 1.061e+04 5.264e-10
 75.27599    -61.6 1.101e+04 6.334e-10
 75.29115    -61.8 1.043e+04 4.523e-10
 75.30105    -61.0 1.075e+04 5.776e-10
 75.31173    -61.0 1.036e+04 4.381e-10
 75.33153    -60.6 1.018e+04 3.611e-10
 75.36132    -60.4 9.979e+03 2.853e-10
 75.40102    -59.3 9.509e+03 1.891e-10
 75.42323    -58.0 9.218e+03 1.365e-10
 75.44303    -57.4 9.386e+03 1.618e-10
 75.48023    -56.0 9.082e+03 1.173e-10
 75.51983    -54.4 8.964e+03 9.897e-11
 75.55943    -52.7 8.940e+03 9.520e-11
 75.59903    -51.0 8.963e+03 9.626e-11
 75.63382    -49.3 9.070e+03 1.163e-10
 75.65362    -47.9 8.932e+03 8.548e-11
 75.66719    -46.1 9.037e+03 1.079e-10
 75.68699    -45.6 9.167e+03 1.387e-10
 75.71783    -43.7 9.365e+03 1.905e-10
 75.75743    -41.8 9.643e+03 2.620e-10
 75.79703    -39.8 9.957e+03 3.494e-10
 75.82664    -38.6 1.023e+04 4.431e-10
 75.84634    -38.1 1.031e+04 4.885e-10
 75.86614    -37.2 1.047e+04 5.638e-10
 75.88594    -36.4 1.065e+04 6.282e-10
 75.90574    -35.6 1.086e+04 7.145e-10
 75.92086    -35.0 1.112e+04 8.158e-10
 75.93076    -35.1 1.112e+04 7.990e-10
 75.94534    -34.6 1.135e+04 9.031e-10
 75.96514    -34.0 1.153e+04 9.960e-10
 75.98494    -33.4 1.159e+04 1.037e-09
 76.00474    -32.8 1.158e+04 1.041e-09
 76.02095    -31.9 1.138e+04 9.782e-10
 76.03085    -31.1 1.155e+04 1.014e-09
 76.04284    -30.3 1.132e+04 8.444e-10
 76.05274    -30.4 1.103e+04 7.207e-10
 76.07414    -30.0 1.080e+04 6.082e-10
 76.11384    -28.7 1.033e+04 4.375e-10
 76.15344    -27.2 9.888e+03 3.215e-10
 76.17491    -25.6 9.759e+03 2.740e-10
 76.19472    -24.9 9.357e+03 1.981e-10
 76.23265    -23.2 9.350e+03 1.812e-10
 76.27225    -22.0 9.479e+03 1.833e-10
 76.31185    -21.5 9.930e+03 2.592e-10
 76.35145    -20.8 1.044e+04 4.651e-10
 76.38868    -19.8 1.104e+04 8.041e-10
 76.40848    -18.9 1.071e+04 6.542e-10
 76.41888    -17.7 1.139e+04 1.041e-09
 76.42868    -17.1 1.124e+04 9.373e-10
 76.44036    -17.2 1.138e+04 1.005e-09
 76.46016    -16.8 1.197e+04 1.354e-09
 76.47996    -16.6 1.216e+04 1.429e-09
 76.49976    -16.5 1.229e+04 1.440e-09
 76.51956    -17.0 1.236e+04 1.342e-09
 76.54936    -17.8 1.241e+04 1.283e-09
 76.58905    -20.2 1.220e+04 1.218e-09
 76.62866    -22.4 1.183e+04 1.186e-09
 76.66284    -24.3 1.154e+04 1.141e-09
 76.68264    -22.8 1.139e+04 1.026e-09
 76.69786    -24.5 1.109e+04 8.515e-10
 76.71756    -24.6 1.101e+04 7.815e-10
 76.73736    -25.6 1.059e+04 5.400e-10
 76.75716    -26.4 1.034e+04 4.267e-10
 76.77582    -27.6 1.011e+04 3.360e-10
 76.78572    -27.1 1.041e+04 4.139e-10
 76.79453    -28.1 1.032e+04 3.603e-10
 76.80443    -27.6 1.016e+04 3.224e-10
 76.82656    -29.5 1.001e+04 3.015e-10
 76.86626    -31.1 9.906e+03 2.888e-10
 76.90586    -32.4 9.884e+03 3.032e-10
 76.92660    -33.6 9.958e+03 3.219e-10
 76.94640    -32.2 1.005e+04 3.436e-10
 76.98506    -34.0 1.004e+04 3.603e-10
 77.02467    -35.7 9.996e+03 3.570e-10
 77.06427    -37.7 9.972e+03 3.513e-10
 77.10387    -40.8 1.027e+04 3.793e-10
 77.14347    -44.0 1.114e+04 6.453e-10
 77.17057    -47.4 1.092e+04 6.872e-10
 77.18037    -46.5 1.077e+04 6.473e-10
 77.19277    -47.3 1.090e+04 7.030e-10
 77.21258    -49.6 1.115e+04 8.469e-10
 77.23238    -51.9 1.145e+04 9.106e-10
 77.25218    -54.9 1.216e+04 1.064e-09
 77.27198    -58.3 1.300e+04 1.366e-09
 77.29178    -61.5 1.354e+04 1.845e-09
 77.30225    -64.1 1.375e+04 2.459e-09
 77.31215    -64.3 1.365e+04 2.528e-09
 77.33138    -66.0 1.381e+04 3.098e-09
 77.35118    -67.5 1.410e+04 3.623e-09
 77.37098    -69.1 1.445e+04 3.929e-09
 77.39078    -70.9 1.466e+04 3.988e-09
 77.41058    -73.0 1.483e+04 3.865e-09
 77.42423    -75.1 1.463e+04 3.552e-09
 77.43413    -75.3 1.419e+04 2.898e-09
 77.45018    -77.1 1.374e+04 2.694e-09
 77.46998    -78.2 1.348e+04 2.625e-09
 77.48978    -78.8 1.335e+04 2.621e-09
 77.50958    -79.1 1.332e+04 2.583e-09
 77.52938    -79.3 1.333e+04 2.535e-09
 77.54058    -79.4 1.324e+04 2.471e-09
 77.54751    -78.4 1.283e+04 2.226e-09
 77.55612    -78.2 1.307e+04 2.326e-09
 77.56898    -78.1 1.291e+04 2.226e-09
 77.58878    -78.1 1.269e+04 2.072e-09
 77.60859    -77.8 1.247e+04 1.911e-09
 77.62839    -77.4 1.228e+04 1.765e-09
 77.64819    -77.1 1.223e+04 1.655e-09
 77.66799    -77.0 1.235e+04 1.621e-09
 77.67810    -77.7 1.384e+04 1.822e-09
 77.68800    -78.9 1.568e+04 3.058e-09
 77.70759    -80.9 1.775e+04 4.815e-09
 77.72739    -83.1 1.920e+04 8.049e-09
 77.74719    -84.9 2.007e+04 1.267e-08
 77.76199    -86.1 2.020e+04 1.482e-08
 77.77184    -86.8 2.042e+04 1.879e-08
 77.78174    -87.3 2.049e+04 2.332e-08
 77.79164    -87.4 2.052e+04 2.690e-08
 77.79998    -87.8 2.050e+04 2.857e-08
 77.80493    -87.5 2.072e+04 3.532e-08
 77.81144    -87.8 2.051e+04 3.215e-08
 77.82134    -88.1 2.005e+04 2.462e-08
 77.83124    -88.5 1.936e+04 1.787e-08
 77.84114    -88.9 1.872e+04 1.330e-08
 77.85104    -89.4 1.827e+04 1.026e-08
 77.86594    -90.0 1.793e+04 7.454e-09
 77.88579    -92.2 1.620e+04 3.091e-09
 77.90559    -95.5 1.435e+04 1.580e-09
 77.91801    -98.5 1.279e+04 1.184e-09
 77.92457    -98.0 1.208e+04 1.002e-09
 77.93196    -98.7 1.203e+04 1.018e-09
 77.94519    -99.6 1.185e+04 1.002e-09
 77.96499   -100.1 1.187e+04 1.151e-09
 77.98479   -101.0 1.217e+04 1.506e-09
 78.00460   -102.7 1.302e+04 2.200e-09
 78.02440   -105.2 1.469e+04 3.739e-09
 78.04404   -108.2 1.695e+04 6.725e-09
 78.05394   -108.1 1.657e+04 6.352e-09
 78.06400   -111.2 1.817e+04 8.642e-09
 78.08380   -115.5 1.972e+04 1.048e-08
 78.10360   -120.9 2.059e+04 1.106e-08
 78.12340   -127.1 2.118e+04 1.027e-08
 78.14320   -132.7 2.007e+04 8.781e-09
 78.16300   -137.7 1.800e+04 7.423e-09
 78.17592   -140.9 1.622e+04 6.223e-09
 78.18582   -139.9 1.546e+04 3.882e-09
 78.20260   -142.1 1.451e+04 3.766e-09
 78.22240   -143.2 1.391e+04 3.522e-09
 78.24220   -143.9 1.346e+04 3.023e-09
 78.26200   -144.3 1.298e+04 2.378e-09
 78.28180   -144.8 1.245e+04 1.782e-09
 78.29544   -145.3 1.188e+04 1.291e-09
 78.30164   -146.7 1.150e+04 9.443e-10
 78.30780   -145.2 1.180e+04 1.157e-09
 78.32140   -146.1 1.131e+04 8.500e-10
 78.34120   -146.9 1.099e+04 6.799e-10
 78.36100   -147.6 1.084e+04 5.989e-10
 78.38081   -148.2 1.079e+04 5.675e-10
 78.40061   -148.7 1.075e+04 5.569e-10
 78.41988   -149.0 1.071e+04 5.541e-10
 78.42979   -148.4 1.071e+04 5.742e-10
 78.44021   -148.6 1.057e+04 5.551e-10
 78.46001   -148.7 1.038e+04 5.202e-10
 78.47981   -148.7 1.022e+04 4.618e-10
 78.49961   -148.4 1.009e+04 4.032e-10
 78.52941   -148.0 9.993e+03 3.538e-10
 78.56911   -148.0 9.722e+03 2.929e-10
 78.60871   -147.5 9.452e+03 2.347e-10
 78.64831   -146.8 9.333e+03 2.080e-10
 78.67307   -146.0 9.308e+03 2.019e-10
 78.67890   -147.1 9.064e+03 2.002e-10
 78.69374   -146.8 8.987e+03 1.964e-10
 78.72751   -145.6 9.013e+03 1.987e-10
 78.76711   -144.4 9.212e+03 2.184e-10
 78.80671   -143.0 9.488e+03 2.453e-10
 78.84631   -141.8 9.832e+03 2.702e-10
 78.87592   -141.5 1.033e+04 3.028e-10
 78.89562   -142.8 1.100e+04 3.884e-10
 78.91542   -144.8 1.167e+04 6.200e-10
 78.92761   -146.7 1.234e+04 1.127e-09
 78.93751   -147.6 1.318e+04 2.003e-09
 78.95502   -148.0 1.398e+04 3.464e-09
 78.97482   -147.8 1.477e+04 5.387e-09
 78.99462   -147.7 1.541e+04 7.324e-09
 79.01442   -147.7 1.578e+04 8.506e-09
 79.03422   -148.0 1.586e+04 8.796e-09
 79.04959   -148.3 1.593e+04 7.923e-09
 79.05577   -148.7 1.593e+04 7.305e-09
 79.06020   -148.7 1.597e+04 7.903e-09
 79.07382   -149.1 1.543e+04 5.864e-09
 79.09362   -149.7 1.482e+04 4.099e-09
 79.11342   -150.5 1.410e+04 2.755e-09
 79.13322   -151.2 1.332e+04 1.839e-09
 79.15303   -151.8 1.261e+04 1.260e-09
 79.17157   -152.1 1.203e+04 9.142e-10
 79.18147   -153.3 1.195e+04 8.664e-10
 79.19263   -153.4 1.163e+04 7.423e-10
 79.21243   -153.4 1.145e+04 6.995e-10
 79.23223   -153.4 1.140e+04 6.909e-10
 79.25203   -153.4 1.150e+04 7.198e-10
 79.27183   -153.5 1.165e+04 8.076e-10
 79.29163   -153.6 1.189e+04 9.061e-10
 79.30346   -153.7 1.207e+04 9.833e-10
 79.31336   -156.0 1.313e+04 1.432e-09
 79.33123   -156.3 1.327e+04 1.550e-09
 79.35103   -156.6 1.339e+04 1.665e-09
 79.37083   -156.8 1.348e+04 1.789e-09
 79.39063   -156.8 1.357e+04 1.921e-09
 79.41043   -156.5 1.365e+04 2.041e-09
 79.42544   -156.1 1.372e+04 2.116e-09
 79.43284   -158.1 1.496e+04 3.777e-09
 79.43763   -158.9 1.521e+04 3.832e-09
 79.45003   -158.3 1.520e+04 3.775e-09
 79.46983   -157.8 1.518e+04 3.747e-09
 79.48963   -157.3 1.516e+04 3.900e-09
 79.50943   -156.7 1.504e+04 4.080e-09
 79.52923   -155.9 1.488e+04 4.245e-09
 79.54742   -155.0 1.471e+04 4.352e-09
 79.55732   -155.9 1.499e+04 4.854e-09
 79.56884   -154.7 1.473e+04 4.542e-09
 79.58864   -153.5 1.447e+04 4.248e-09
 79.60844   -152.1 1.421e+04 3.946e-09
 79.62824   -150.8 1.400e+04 3.596e-09
 79.64804   -149.5 1.380e+04 3.226e-09
 79.66784   -148.1 1.365e+04 2.873e-09
 79.67930   -146.8 1.352e+04 2.551e-09
 79.68920   -147.9 1.325e+04 2.144e-09
 79.70744   -147.0 1.308e+04 1.882e-09
 79.72724   -146.0 1.290e+04 1.673e-09
 79.74704   -144.9 1.280e+04 1.536e-09
 79.76684   -143.9 1.283e+04 1.486e-09
 79.78664   -143.3 1.289e+04 1.479e-09
 79.80128   -143.3 1.324e+04 1.573e-09
 79.80990   -144.8 1.309e+04 1.519e-09
 79.81506   -145.5 1.272e+04 1.384e-09
 79.82624   -145.5 1.317e+04 1.655e-09
 79.84604   -145.4 1.369e+04 2.068e-09
 79.86584   -145.4 1.415e+04 2.600e-09
 79.88564   -145.2 1.454e+04 3.182e-09
 79.90544   -145.0 1.483e+04 3.669e-09
 79.92326   -144.8 1.495e+04 3.912e-09
 79.93316   -145.0 1.435e+04 2.726e-09
 79.94505   -144.8 1.432e+04 2.617e-09
 79.96485   -144.4 1.399e+04 2.274e-09
 79.98465   -143.9 1.347e+04 1.850e-09
 80.00445   -143.3 1.289e+04 1.474e-09
 80.02425   -142.6 1.235e+04 1.208e-09
 80.04405   -141.8 1.192e+04 1.048e-09
 80.05514   -140.8 1.164e+04 9.625e-10
 80.06504   -141.0 1.163e+04 9.618e-10
 80.08365   -139.7 1.148e+04 9.213e-10
 80.10345   -138.5 1.138e+04 8.953e-10
 80.12325   -137.2 1.131e+04 8.791e-10
 80.14305   -135.7 1.127e+04 8.707e-10
 80.16285   -134.4 1.124e+04 8.664e-10
 80.17713   -133.1 1.122e+04 8.623e-10
 80.18697   -133.0 1.122e+04 9.043e-10
 80.20240   -131.5 1.118e+04 8.342e-10
 80.22225   -130.1 1.117e+04 8.275e-10
 80.24205   -128.8 1.118e+04 8.277e-10
 80.26185   -127.7 1.121e+04 8.397e-10
 80.28165   -126.6 1.125e+04 8.717e-10
 80.29911   -125.4 1.134e+04 9.326e-10
 80.30901   -125.2 1.115e+04 7.695e-10
 80.32126   -124.2 1.126e+04 8.194e-10
 80.34106   -123.3 1.138e+04 8.794e-10
 80.36086   -122.4 1.148e+04 9.413e-10
 80.38066   -121.6 1.156e+04 1.002e-09
 80.40046   -120.8 1.161e+04 1.060e-09
 80.42026   -120.1 1.163e+04 1.109e-09
 80.43099   -119.4 1.165e+04 1.143e-09
 80.44089   -119.3 1.138e+04 8.573e-10
 80.45986   -118.8 1.138e+04 8.684e-10
 80.47966   -118.4 1.131e+04 8.512e-10
 80.50946   -118.1 1.118e+04 8.109e-10
 80.54916   -117.2 1.104e+04 8.039e-10
 80.58876   -116.9 1.094e+04 7.996e-10
 80.61836   -116.8 1.079e+04 7.500e-10
 80.63806   -116.8 1.077e+04 7.410e-10
 80.65786   -116.9 1.076e+04 7.310e-10
 80.67495   -117.1 1.077e+04 7.284e-10
 80.68485   -117.3 1.056e+04 6.517e-10
 80.69746   -117.6 1.057e+04 6.518e-10
 80.71727   -118.2 1.068e+04 6.821e-10
 80.73707   -119.1 1.095e+04 7.767e-10
 80.75687   -119.9 1.127e+04 9.079e-10
 80.77667   -120.7 1.148e+04 1.041e-09
 80.79647   -121.4 1.152e+04 1.124e-09
 80.80683   -122.0 1.150e+04 1.142e-09
 80.81673   -121.4 1.110e+04 8.690e-10
 80.83607   -121.8 1.096e+04 8.690e-10
 80.85587   -122.0 1.071e+04 8.048e-10
 80.87567   -122.3 1.054e+04 7.032e-10
 80.89547   -122.9 1.048e+04 6.149e-10
 80.91527   -123.5 1.052e+04 5.688e-10
 80.92891   -124.4 1.060e+04 5.387e-10
 80.94130   -122.1 1.005e+04 4.537e-10
 80.95745   -121.2 9.882e+03 3.804e-10
 80.98477   -120.7 9.830e+03 3.732e-10
 81.02437   -120.2 9.822e+03 3.818e-10
 81.06397   -119.4 9.854e+03 3.940e-10
 81.10357   -118.5 9.847e+03 4.043e-10
 81.14317   -117.9 9.828e+03 4.177e-10
 81.17297   -117.4 9.912e+03 4.534e-10
 81.19277   -113.7 1.003e+04 4.877e-10
 81.22237   -113.0 1.001e+04 5.422e-10
 81.25198   -116.7 9.268e+03 6.100e-10
 81.27168   -121.2 1.206e+04 8.019e-10
 81.29148   -127.8 1.682e+04 1.600e-09
 81.30466   -133.3 1.984e+04 5.712e-09
 81.31456   -131.8 2.052e+04 4.422e-09
 81.32479   -136.1 2.148e+04 1.280e-08
 81.33469   -132.1 2.094e+04 8.824e-09
 81.35088   -136.0 2.146e+04 1.917e-08
 81.36560   -139.5 2.144e+04 2.496e-08
 81.37050   -138.7 2.185e+04 2.642e-08
 81.37553   -140.4 2.186e+04 2.743e-08
 81.38544   -141.9 2.154e+04 2.724e-08
 81.39534   -142.9 2.071e+04 2.226e-08
 81.40524   -144.1 1.989e+04 1.505e-08
 81.41514   -145.8 1.881e+04 9.031e-09
 81.42504   -148.0 1.733e+04 5.199e-09
 81.43149   -150.1 1.587e+04 3.389e-09
 81.43644   -149.9 1.628e+04 3.546e-09
 81.44984   -152.0 1.507e+04 2.519e-09
 81.46968   -155.6 1.301e+04 1.474e-09
 81.48949   -158.5 1.113e+04 9.251e-10
 81.50929   -159.4 1.066e+04 8.054e-10
 81.52909   -159.8 1.060e+04 7.814e-10
 81.54862   -160.3 1.062e+04 7.789e-10
 81.55852   -161.2 1.170e+04 1.256e-09
 81.56869   -161.8 1.208e+04 1.442e-09
 81.58849   -162.3 1.241e+04 1.676e-09
 81.60829   -162.7 1.268e+04 1.942e-09
 81.62809   -162.9 1.289e+04 2.216e-09
 81.64789   -163.0 1.303e+04 2.452e-09
 81.66769   -162.9 1.307e+04 2.609e-09
 81.68050   -162.7 1.306e+04 2.658e-09
 81.69040   -163.5 1.337e+04 2.663e-09
 81.70222   -163.7 1.301e+04 2.321e-09
 81.71212   -164.1 1.241e+04 1.792e-09
 81.72709   -164.4 1.220e+04 1.591e-09
 81.74689   -164.6 1.199e+04 1.399e-09
 81.76669   -164.8 1.178e+04 1.222e-09
 81.78649   -165.1 1.155e+04 1.072e-09
 81.80248   -165.3 1.133e+04 9.479e-10
 81.81238   -167.3 1.085e+04 7.546e-10
 81.82609   -167.2 1.060e+04 7.009e-10
 81.84589   -167.0 1.039e+04 6.545e-10
 81.86570   -166.6 1.020e+04 6.111e-10
 81.88550   -166.1 1.006e+04 5.680e-10
 81.90530   -165.6 9.944e+03 5.237e-10
 81.92447   -165.0 9.867e+03 4.815e-10
 81.93437   -166.3 9.724e+03 4.125e-10
 81.94490   -166.0 9.766e+03 4.068e-10
 81.96470   -165.9 9.959e+03 4.130e-10
 81.98450   -165.9 1.012e+04 4.341e-10
 82.00430   -166.0 1.032e+04 4.756e-10
 82.02410   -165.9 1.050e+04 5.342e-10
 82.04390   -165.6 1.058e+04 5.982e-10
 82.05635   -165.1 1.058e+04 6.450e-10
 82.06625   -166.6 1.063e+04 7.300e-10
 82.07965   -165.7 1.052e+04 7.273e-10
 82.08955   -165.2 1.051e+04 7.235e-10
 82.10330   -164.2 1.042e+04 6.336e-10
 82.12310   -163.3 1.031e+04 5.219e-10
 82.14290   -162.7 1.019e+04 4.158e-10
 82.16853   -161.4 9.975e+03 3.399e-10
 82.18842   -164.1 9.904e+03 3.058e-10
 82.21240   -162.3 9.605e+03 2.624e-10
 82.25200   -159.9 9.198e+03 2.205e-10
 82.29160   -157.2 8.887e+03 1.937e-10
 82.33120   -154.5 8.742e+03 1.832e-10
 82.37080   -151.6 8.712e+03 1.808e-10
 82.41040   -148.6 8.715e+03 1.812e-10
 82.43239   -145.8 8.755e+03 1.872e-10
 82.44956   -147.3 9.438e+03 2.762e-10
 82.46718   -145.9 8.892e+03 2.011e-10
 82.48961   -143.3 9.183e+03 2.368e-10
 82.52921   -141.0 9.661e+03 3.122e-10
 82.56881   -138.9 1.026e+04 4.411e-10
 82.59841   -138.6 1.134e+04 8.238e-10
 82.61811   -138.1 1.203e+04 1.125e-09
 82.63791   -137.9 1.274e+04 1.572e-09
 82.65772   -137.8 1.344e+04 2.172e-09
 82.67615   -137.8 1.408e+04 2.922e-09
 82.68605   -138.3 1.406e+04 3.125e-09
 82.69732   -138.3 1.450e+04 3.681e-09
 82.71712   -138.4 1.481e+04 4.214e-09
 82.73692   -138.5 1.496e+04 4.580e-09
 82.75672   -138.7 1.508e+04 4.815e-09
 82.77652   -138.8 1.515e+04 4.971e-09
 82.79632   -139.0 1.516e+04 5.003e-09
 82.80804   -139.2 1.503e+04 4.914e-09
 82.81794   -139.2 1.470e+04 4.376e-09
 82.83451   -139.3 1.458e+04 4.301e-09
 82.84441   -138.2 1.470e+04 4.366e-09
 82.85572   -138.3 1.440e+04 3.998e-09
 82.87552   -138.4 1.402e+04 3.513e-09
 82.89532   -138.5 1.361e+04 2.975e-09
 82.91512   -138.8 1.314e+04 2.427e-09
 82.93002   -139.1 1.262e+04 1.927e-09
 82.93992   -139.1 1.244e+04 1.731e-09
 82.96472   -139.8 1.196e+04 1.400e-09
 83.00442   -140.2 1.124e+04 1.024e-09
 83.04402   -140.1 1.078e+04 8.099e-10
 83.08362   -140.2 1.027e+04 6.213e-10
 83.12322   -140.2 9.960e+03 5.074e-10
 83.16282   -140.1 9.743e+03 4.386e-10
 83.18408   -139.8 9.655e+03 4.142e-10
 83.20369   -138.3 9.972e+03 5.155e-10
 83.24184   -137.0 9.574e+03 4.024e-10
 83.28163   -135.8 9.550e+03 3.957e-10
 83.32123   -134.5 9.649e+03 4.137e-10
 83.35083   -133.1 9.956e+03 4.997e-10
 83.37053   -132.6 1.006e+04 5.297e-10
 83.39033   -131.8 1.024e+04 5.859e-10
 83.41013   -131.4 1.032e+04 6.220e-10
 83.42784   -130.6 1.051e+04 7.057e-10
 83.43774   -130.0 1.064e+04 7.842e-10
 83.44974   -129.3 1.080e+04 8.651e-10
 83.46954   -128.5 1.090e+04 9.294e-10
 83.48934   -127.7 1.093e+04 9.581e-10
 83.50914   -127.0 1.093e+04 9.623e-10
 83.52894   -126.1 1.086e+04 9.437e-10
 83.54874   -125.2 1.077e+04 8.961e-10
 83.55972   -124.4 1.069e+04 8.420e-10
 83.56962   -123.8 1.089e+04 9.283e-10
 83.58834   -123.0 1.082e+04 8.702e-10
 83.59927   -122.2 1.076e+04 8.117e-10
 83.60917   -122.3 1.049e+04 6.745e-10
 83.62794   -121.5 1.049e+04 6.482e-10
 83.64774   -120.8 1.053e+04 6.431e-10
 83.67190   -119.9 1.063e+04 6.548e-10
 83.69180   -118.6 1.054e+04 6.638e-10
 83.71724   -116.0 1.036e+04 6.102e-10
 83.75684   -113.6 1.034e+04 5.832e-10
 83.79644   -111.3 1.072e+04 5.832e-10
 83.83604   -109.0 1.119e+04 6.140e-10
 83.87564   -106.8 1.166e+04 6.482e-10
 83.90525   -104.7 1.175e+04 6.374e-10
 83.92495   -104.0 1.257e+04 7.738e-10
 83.93557   -103.2 1.336e+04 1.034e-09
 83.94547   -101.8 1.193e+04 6.071e-10
 83.96455   -101.1 1.293e+04 7.855e-10
 83.97671   -100.4 1.382e+04 1.099e-09
 83.98661   -101.4 1.514e+04 2.855e-09
 84.00415   -100.4 1.543e+04 3.777e-09
 84.02395    -99.3 1.562e+04 4.679e-09
 84.04375    -98.1 1.568e+04 5.411e-09
 84.05755    -96.9 1.577e+04 5.838e-09
 84.06745    -96.3 1.594e+04 4.968e-09
 84.08335    -95.1 1.598e+04 5.711e-09
 84.10315    -93.8 1.606e+04 6.215e-09
 84.12295    -92.4 1.623e+04 6.738e-09
 84.14275    -91.0 1.616e+04 6.998e-09
 84.16255    -89.6 1.593e+04 7.022e-09
 84.17953    -88.2 1.578e+04 6.574e-09
 84.18943    -87.9 1.661e+04 7.648e-09
 84.20216    -86.4 1.650e+04 7.946e-09
 84.22196    -84.8 1.629e+04 8.176e-09
 84.24176    -83.2 1.632e+04 8.086e-09
 84.26156    -81.6 1.657e+04 7.917e-09
 84.28136    -80.1 1.658e+04 7.865e-09
 84.30116    -78.4 1.645e+04 7.526e-09
 84.31141    -76.7 1.629e+04 6.913e-09
 84.32131    -76.7 1.726e+04 1.037e-08
 84.34076    -75.1 1.719e+04 9.565e-09
 84.35414    -73.2 1.691e+04 8.671e-09
 84.36404    -73.7 1.633e+04 4.988e-09
 84.38036    -72.0 1.615e+04 3.857e-09
 84.40016    -70.6 1.590e+04 2.971e-09
 84.41996    -69.5 1.564e+04 2.347e-09
 84.43339    -68.5 1.552e+04 1.994e-09
 84.44329    -68.2 1.639e+04 4.037e-09
 84.45956    -67.4 1.642e+04 3.817e-09
 84.47936    -66.7 1.685e+04 3.828e-09
 84.49916    -66.5 1.754e+04 4.374e-09
 84.51896    -67.0 1.807e+04 5.398e-09
 84.53876    -68.0 1.890e+04 7.377e-09
 84.55538    -69.0 1.963e+04 9.834e-09
 84.56523    -70.4 2.037e+04 1.159e-08
 84.57332    -71.2 2.090e+04 1.475e-08
 84.58322    -71.5 2.197e+04 1.899e-08
 84.59312    -72.0 2.269e+04 2.349e-08
 84.60302    -72.6 2.331e+04 2.808e-08
 84.61292    -73.2 2.372e+04 3.181e-08
 84.62122    -74.0 2.397e+04 3.334e-08
 84.62617    -75.5 2.421e+04 3.567e-08
 84.63272    -76.3 2.412e+04 3.320e-08
 84.64262    -77.2 2.425e+04 3.094e-08
 84.65252    -78.1 2.462e+04 2.896e-08
 84.66242    -79.2 2.512e+04 2.732e-08
 84.67232    -80.3 2.563e+04 2.574e-08
 84.68221    -81.5 2.595e+04 2.391e-08
 84.69211    -83.3 2.365e+04 1.807e-08
 84.70202    -84.5 2.273e+04 1.734e-08
 84.71692    -85.7 2.152e+04 1.673e-08
 84.73157    -86.8 2.099e+04 1.747e-08
 84.74147    -87.9 2.119e+04 1.437e-08
 84.75657    -88.8 1.994e+04 1.007e-08
 84.77637    -90.1 1.933e+04 6.244e-09
 84.79617    -91.7 1.928e+04 3.482e-09
 84.80924    -94.2 1.845e+04 1.853e-09
 84.81914    -89.2 2.012e+04 3.827e-09
 84.83577    -93.2 1.976e+04 1.978e-09
 84.85557    -98.5 1.630e+04 1.492e-09
 84.87018   -102.4 1.332e+04 1.505e-09
 84.87508   -102.0 1.516e+04 1.566e-09
 84.88023   -103.9 1.473e+04 2.008e-09
 84.89013   -105.5 1.536e+04 2.780e-09
 84.90003   -106.6 1.631e+04 3.722e-09
 84.90993   -107.5 1.734e+04 4.962e-09
 84.91983   -108.5 1.841e+04 6.285e-09
 84.92514   -110.2 1.980e+04 7.965e-09
 84.93009   -109.7 1.829e+04 7.107e-09
 84.93607   -111.5 1.951e+04 8.927e-09
 84.94102   -112.1 2.100e+04 1.109e-08
 84.94953   -114.6 2.265e+04 1.805e-08
 84.95943   -116.9 2.359e+04 3.365e-08
 84.96933   -118.7 2.379e+04 6.056e-08
 84.97923   -120.6 2.357e+04 8.944e-08
 84.98913   -123.1 2.334e+04 1.005e-07
 84.99706   -125.4 2.303e+04 9.949e-08
 85.00201   -125.6 2.241e+04 1.489e-07
 85.00893   -126.7 2.230e+04 9.841e-08
 85.01883   -127.4 2.232e+04 5.486e-08
 85.02873   -128.3 2.228e+04 3.138e-08
 85.03863   -129.7 2.177e+04 2.124e-08
 85.04853   -131.1 2.096e+04 1.715e-08
 85.05805   -132.2 2.037e+04 1.561e-08
 85.06300   -131.9 2.000e+04 1.511e-08
 85.06833   -132.6 1.978e+04 1.455e-08
 85.07823   -133.2 1.976e+04 1.446e-08
 85.08813   -133.9 1.984e+04 1.482e-08
 85.09803   -134.6 2.005e+04 1.654e-08
 85.10793   -135.1 2.026e+04 1.919e-08
 85.11385   -135.4 2.052e+04 2.256e-08
 85.11880   -134.9 2.061e+04 1.875e-08
 85.12399   -135.4 2.098e+04 2.273e-08
 85.12894   -134.7 2.071e+04 2.186e-08
 85.13763   -135.2 2.117e+04 2.647e-08
 85.14753   -135.8 2.158e+04 3.128e-08
 85.15743   -136.6 2.194e+04 3.523e-08
 85.16733   -137.4 2.217e+04 3.776e-08
 85.17723   -138.2 2.215e+04 3.867e-08
 85.18499   -138.9 2.187e+04 3.796e-08
 85.18994   -138.5 2.213e+04 4.122e-08
 85.19703   -139.2 2.189e+04 3.888e-08
 85.20693   -140.1 2.178e+04 3.549e-08
 85.21683   -141.2 2.178e+04 3.191e-08
 85.22673   -142.6 2.186e+04 2.866e-08
 85.23663   -144.7 2.188e+04 2.574e-08
 85.24598   -146.9 2.168e+04 2.298e-08
 85.25093   -146.2 2.187e+04 2.521e-08
 85.25643   -148.3 2.149e+04 2.261e-08
 85.26634   -150.3 2.096e+04 2.056e-08
 85.27624   -152.1 2.042e+04 1.923e-08
 85.28614   -153.7 2.003e+04 1.848e-08
 85.29604   -155.3 1.973e+04 1.788e-08
 85.30257   -156.7 1.938e+04 1.684e-08
 85.30752   -156.3 1.828e+04 1.194e-08
 85.31192   -157.7 1.754e+04 1.016e-08
 85.31687   -157.1 1.781e+04 1.082e-08
 85.32574   -158.2 1.708e+04 8.937e-09
 85.33564   -159.1 1.639e+04 7.230e-09
 85.34554   -159.7 1.578e+04 5.840e-09
 85.35544   -160.1 1.531e+04 4.943e-09
 85.37034   -160.4 1.499e+04 4.139e-09
 85.39019   -161.4 1.395e+04 2.515e-09
 85.40999   -162.9 1.265e+04 1.419e-09
 85.42905   -164.0 1.164e+04 9.491e-10
 85.43895   -163.3 1.175e+04 1.012e-09
 85.44959   -163.6 1.125e+04 8.244e-10
 85.46939   -163.6 1.109e+04 7.326e-10
 85.48643   -163.4 1.093e+04 6.681e-10
 85.49633   -162.7 1.089e+04 6.687e-10
 85.50899   -162.5 1.080e+04 6.272e-10
 85.52879   -162.1 1.077e+04 6.045e-10
 85.54859   -161.7 1.079e+04 5.965e-10
 85.56093   -161.3 1.080e+04 5.962e-10
 85.57083   -160.8 1.079e+04 5.867e-10
 85.58819   -160.3 1.080e+04 5.839e-10
 85.60799   -159.8 1.083e+04 5.835e-10
 85.62779   -159.3 1.092e+04 5.890e-10
 85.64759   -158.7 1.093e+04 6.069e-10
 85.66739   -158.0 1.091e+04 6.149e-10
 85.68291   -157.2 1.088e+04 6.184e-10
 85.69281   -156.7 1.092e+04 6.388e-10
 85.70699   -155.9 1.086e+04 6.392e-10
 85.72679   -154.9 1.079e+04 6.245e-10
 85.74660   -153.9 1.071e+04 6.038e-10
 85.76640   -152.9 1.066e+04 5.825e-10
 85.78620   -151.8 1.061e+04 5.639e-10
 85.80489   -150.7 1.059e+04 5.502e-10
 85.81479   -150.4 1.057e+04 5.451e-10
 85.82580   -149.2 1.056e+04 5.351e-10
 85.84560   -147.9 1.056e+04 5.326e-10
 85.86386   -146.7 1.059e+04 5.331e-10
 85.87376   -146.3 1.056e+04 5.006e-10
 85.88520   -145.3 1.063e+04 5.035e-10
 85.90500   -144.1 1.069e+04 5.171e-10
 85.92480   -143.1 1.074e+04 5.399e-10
 85.93677   -142.0 1.081e+04 5.786e-10
 85.94677   -142.7 1.079e+04 5.587e-10
 85.97450   -140.5 1.103e+04 6.681e-10
 86.01410   -138.7 1.139e+04 8.213e-10
 86.05370   -137.1 1.181e+04 9.912e-10
 86.08330   -135.6 1.197e+04 1.050e-09
 86.10300   -135.1 1.208e+04 1.095e-09
 86.12280   -134.6 1.213e+04 1.110e-09
 86.14261   -133.9 1.212e+04 1.104e-09
 86.16241   -133.2 1.211e+04 1.051e-09
 86.18073   -132.3 1.202e+04 9.591e-10
 86.19073   -133.0 1.178e+04 7.966e-10
 86.21210   -131.5 1.166e+04 6.795e-10
 86.24139   -129.8 1.163e+04 6.543e-10
 86.25119   -128.4 1.197e+04 7.385e-10
 86.26141   -127.8 1.198e+04 7.242e-10
 86.28121   -127.2 1.206e+04 7.234e-10
 86.30101   -126.6 1.221e+04 7.963e-10
 86.31262   -126.1 1.250e+04 9.637e-10
 86.32252   -125.9 1.206e+04 8.430e-10
 86.34061   -125.3 1.256e+04 1.074e-09
 86.36041   -125.1 1.313e+04 1.411e-09
 86.38021   -125.0 1.377e+04 1.936e-09
 86.40001   -125.2 1.451e+04 2.816e-09
 86.41981   -125.6 1.535e+04 4.286e-09
 86.43460   -125.7 1.625e+04 6.580e-09
 86.44450   -125.4 1.619e+04 6.369e-09
 86.45941   -125.4 1.706e+04 9.247e-09
 86.47921   -125.5 1.775e+04 1.204e-08
 86.49901   -126.1 1.807e+04 1.354e-08
 86.51882   -126.9 1.811e+04 1.378e-08
 86.53862   -127.4 1.780e+04 1.295e-08
 86.55658   -127.5 1.708e+04 1.031e-08
 86.56648   -127.3 1.693e+04 9.426e-09
 86.57822   -127.4 1.619e+04 7.409e-09
 86.59802   -127.4 1.558e+04 6.060e-09
 86.61782   -127.6 1.504e+04 5.121e-09
 86.62862   -127.3 1.441e+04 4.246e-09
 86.63852   -127.8 1.468e+04 4.913e-09
 86.65742   -127.2 1.385e+04 3.754e-09
 86.67722   -126.2 1.323e+04 3.015e-09
 86.68846   -125.3 1.284e+04 2.570e-09
 86.69836   -125.2 1.304e+04 2.829e-09
 86.71682   -124.4 1.279e+04 2.503e-09
 86.73662   -123.8 1.268e+04 2.296e-09
 86.75642   -123.4 1.260e+04 2.194e-09
 86.77622   -123.3 1.255e+04 2.139e-09
 86.79602   -123.3 1.258e+04 2.140e-09
 86.81044   -123.4 1.274e+04 2.222e-09
 86.82034   -123.6 1.271e+04 2.216e-09
 86.83562   -124.3 1.290e+04 2.339e-09
 86.85542   -125.5 1.299e+04 2.420e-09
 86.87522   -127.0 1.300e+04 2.429e-09
 86.89502   -128.6 1.278e+04 2.363e-09
 86.91483   -130.1 1.234e+04 2.077e-09
 86.93242   -131.5 1.184e+04 1.744e-09
 86.94232   -130.7 1.176e+04 1.701e-09
 86.95443   -131.6 1.131e+04 1.443e-09
 86.97423   -132.2 1.090e+04 1.226e-09
 86.99403   -132.6 1.054e+04 1.045e-09
 87.00605   -132.7 1.022e+04 8.930e-10
 87.01595   -132.0 1.040e+04 9.632e-10
 87.03363   -132.0 1.010e+04 8.252e-10
 87.05343   -131.8 9.750e+03 6.887e-10
 87.06430   -131.5 9.386e+03 5.596e-10
 87.07420   -130.6 9.348e+03 5.546e-10
 87.09303   -130.4 9.092e+03 4.764e-10
 87.12283   -130.6 8.847e+03 4.037e-10
 87.16253   -130.0 8.312e+03 2.905e-10
 87.18648   -128.5 8.027e+03 2.381e-10
 87.20628   -127.2 7.937e+03 2.252e-10
 87.24173   -125.7 7.838e+03 2.068e-10
 87.28133   -124.5 7.828e+03 2.039e-10
 87.32093   -123.3 7.840e+03 2.055e-10
 87.36053   -122.3 7.858e+03 2.094e-10
 87.40013   -121.2 7.859e+03 2.101e-10
 87.43044   -120.0 7.758e+03 1.944e-10
 87.45024   -118.9 7.657e+03 1.777e-10
 87.47934   -117.7 7.507e+03 1.550e-10
 87.51894   -116.5 7.319e+03 1.280e-10
 87.55854   -115.2 7.146e+03 1.054e-10
 87.59814   -113.9 7.019e+03 8.958e-11
 87.63774   -112.6 6.952e+03 8.031e-11
 87.67441   -111.3 6.921e+03 7.507e-11
 87.69421   -110.6 6.939e+03 7.692e-11
 87.71694   -109.3 6.935e+03 7.506e-11
 87.75121   -108.1 6.937e+03 7.456e-11
 87.77101   -107.7 6.962e+03 7.975e-11
 87.79614   -106.6 7.029e+03 8.178e-11
 87.83574   -105.6 7.175e+03 9.379e-11
 87.87535   -104.7 7.365e+03 1.168e-10
 87.91495   -103.8 7.622e+03 1.505e-10
 87.93817   -102.9 7.918e+03 1.919e-10
 87.95797   -103.0 7.956e+03 1.984e-10
 87.99415   -102.4 8.202e+03 2.321e-10
 88.03375   -101.9 8.397e+03 2.514e-10
 88.07335   -101.6 8.480e+03 2.553e-10
 88.11295   -101.3 8.501e+03 2.539e-10
 88.15255   -101.0 8.548e+03 2.447e-10
 88.18213   -100.6 8.602e+03 2.351e-10
 88.20193   -100.8 8.573e+03 2.282e-10
 88.23175   -100.3 8.625e+03 2.272e-10
 88.27136    -99.7 8.679e+03 2.197e-10
 88.31096    -98.9 8.712e+03 2.088e-10
 88.35056    -98.0 8.725e+03 1.943e-10
 88.39016    -97.0 8.751e+03 1.795e-10
 88.42610    -96.1 8.787e+03 1.690e-10
 88.44590    -96.2 8.785e+03 1.704e-10
 88.46936    -95.2 8.808e+03 1.681e-10
 88.50607    -94.3 8.940e+03 1.713e-10
 88.52587    -94.2 8.901e+03 1.595e-10
 88.54856    -93.2 9.138e+03 1.857e-10
 88.58816    -92.2 9.380e+03 2.240e-10
 88.62776    -91.3 9.586e+03 2.506e-10
 88.66737    -90.7 9.644e+03 2.565e-10
 88.68986    -90.1 9.668e+03 2.517e-10
 88.70966    -90.0 9.695e+03 2.382e-10
 88.74657    -89.2 9.680e+03 1.975e-10
 88.78617    -88.5 9.662e+03 1.658e-10
 88.82577    -87.9 9.657e+03 1.560e-10
 88.86537    -87.5 9.715e+03 1.595e-10
 88.90497    -87.2 9.917e+03 1.967e-10
 88.93382    -86.9 1.023e+04 2.669e-10
 88.95362    -86.9 1.057e+04 3.554e-10
 88.98417    -86.6 1.100e+04 4.520e-10
 89.02377    -86.2 1.140e+04 5.053e-10
 89.05338    -86.2 1.160e+04 5.121e-10
 89.06551    -86.6 1.171e+04 5.017e-10
 89.07541    -87.2 1.177e+04 4.936e-10
 89.09288    -87.8 1.178e+04 4.540e-10
 89.11268    -87.9 1.170e+04 4.349e-10
 89.14248    -87.4 1.168e+04 4.385e-10
 89.17778    -86.9 1.160e+04 4.096e-10
 89.19758    -87.2 1.158e+04 4.144e-10
 89.22178    -86.7 1.152e+04 4.021e-10
 89.26093    -86.1 1.148e+04 4.000e-10
 89.28074    -86.9 1.136e+04 3.586e-10
 89.30098    -85.8 1.136e+04 3.668e-10
 89.34058    -84.4 1.134e+04 3.619e-10
 89.38018    -82.9 1.131e+04 3.322e-10
 89.41979    -81.3 1.126e+04 2.994e-10
 89.44155    -79.5 1.123e+04 2.797e-10
 89.46135    -79.8 1.137e+04 3.119e-10
 89.49899    -78.0 1.137e+04 3.080e-10
 89.53859    -76.2 1.138e+04 3.105e-10
 89.57819    -75.0 1.151e+04 3.211e-10
 89.61779    -74.5 1.192e+04 4.262e-10
 89.65739    -74.3 1.242e+04 7.254e-10
 89.68551    -74.3 1.302e+04 1.234e-09
 89.70531    -75.1 1.301e+04 1.218e-09
 89.73659    -75.4 1.346e+04 1.724e-09
 89.77619    -76.6 1.359e+04 1.900e-09
 89.81580    -77.4 1.327e+04 1.740e-09
 89.85540    -77.5 1.258e+04 1.046e-09
 89.89500    -77.3 1.193e+04 5.244e-10
 89.92947    -77.2 1.150e+04 2.784e-10
 89.94927    -77.5 1.144e+04 2.578e-10
 89.97420    -76.8 1.128e+04 2.005e-10
 90.01380    -75.8 1.121e+04 1.802e-10
 90.03560    -74.7 1.121e+04 1.774e-10
 90.05540    -74.8 1.110e+04 1.633e-10
 90.09300    -73.8 1.114e+04 1.654e-10
 90.13260    -73.5 1.141e+04 1.990e-10
 90.17220    -73.3 1.161e+04 3.054e-10
 90.19324    -73.2 1.185e+04 4.692e-10
 90.21304    -73.4 1.195e+04 5.253e-10
 90.25141    -73.3 1.214e+04 6.725e-10
 90.29101    -73.5 1.220e+04 7.263e-10
 90.33061    -73.6 1.216e+04 7.275e-10
 90.37021    -73.6 1.199e+04 6.508e-10
 90.40981    -73.4 1.184e+04 5.788e-10
 90.43720    -72.9 1.176e+04 5.344e-10
 90.45700    -73.3 1.166e+04 4.796e-10
 90.48901    -72.5 1.162e+04 4.633e-10
 90.52861    -71.5 1.155e+04 4.231e-10
 90.56821    -70.3 1.139e+04 3.495e-10
 90.60782    -68.8 1.122e+04 2.610e-10
 90.64742    -67.2 1.109e+04 1.861e-10
 90.68116    -65.5 1.101e+04 1.339e-10
 90.70096    -65.3 1.095e+04 1.176e-10
 90.72662    -63.6 1.088e+04 9.057e-11
 90.76622    -61.8 1.076e+04 7.894e-11
 90.79046    -60.0 1.073e+04 7.644e-11
 90.81026    -60.2 1.079e+04 8.955e-11
 90.84542    -58.4 1.080e+04 8.994e-11
 90.88502    -56.9 1.091e+04 9.908e-11
 90.92462    -56.0 1.108e+04 1.544e-10
 90.94492    -55.2 1.137e+04 2.717e-10
 90.96473    -54.6 1.137e+04 2.836e-10
 91.00383    -54.1 1.185e+04 4.993e-10
 91.04343    -54.1 1.245e+04 8.790e-10
 91.08303    -54.5 1.306e+04 1.481e-09
 91.12263    -55.4 1.343e+04 2.118e-09
 91.16223    -56.4 1.346e+04 2.344e-09
 91.18889    -57.0 1.294e+04 1.915e-09
 91.20869    -56.5 1.303e+04 1.987e-09
 91.24143    -56.8 1.228e+04 1.151e-09
 91.28103    -56.9 1.169e+04 6.306e-10
 91.32063    -57.0 1.134e+04 3.724e-10
 91.36024    -56.6 1.108e+04 2.613e-10
 91.39984    -56.0 1.087e+04 2.056e-10
 91.43285    -55.3 1.081e+04 1.899e-10
 91.45265    -54.8 1.083e+04 2.322e-10
 91.47904    -54.1 1.084e+04 2.392e-10
 91.51864    -53.6 1.110e+04 3.198e-10
 91.54532    -53.2 1.140e+04 4.673e-10
 91.56512    -52.7 1.140e+04 4.556e-10
 91.59784    -52.4 1.176e+04 6.724e-10
 91.62744    -53.0 1.200e+04 8.961e-10
 91.64715    -53.4 1.229e+04 1.132e-09
 91.66695    -53.8 1.260e+04 1.392e-09
 91.68652    -54.4 1.291e+04 1.677e-09
 91.69642    -54.3 1.289e+04 1.624e-09
 91.70655    -55.0 1.315e+04 1.889e-09
 91.72635    -55.8 1.332e+04 2.106e-09
 91.74615    -56.6 1.335e+04 2.199e-09
 91.76595    -57.3 1.330e+04 2.204e-09
 91.78575    -57.6 1.301e+04 2.054e-09
 91.80555    -57.7 1.271e+04 1.752e-09
 91.81840    -57.8 1.246e+04 1.456e-09
 91.82830    -57.8 1.255e+04 1.539e-09
 91.84515    -57.9 1.231e+04 1.293e-09
 91.86495    -57.9 1.207e+04 1.071e-09
 91.88475    -57.6 1.180e+04 8.606e-10
 91.90455    -57.1 1.164e+04 6.919e-10
 91.92256    -56.9 1.163e+04 6.098e-10
 91.93246    -56.9 1.169e+04 6.287e-10
 91.94048    -56.8 1.164e+04 5.473e-10
 91.96038    -56.8 1.168e+04 5.772e-10
 91.99385    -56.4 1.156e+04 4.940e-10
 92.03345    -55.5 1.141e+04 4.403e-10
 92.07305    -54.3 1.129e+04 4.038e-10
 92.11265    -53.0 1.120e+04 3.709e-10
 92.15226    -51.6 1.113e+04 3.433e-10
 92.18454    -50.1 1.107e+04 3.234e-10
 92.20434    -50.3 1.103e+04 3.065e-10
 92.23146    -48.6 1.094e+04 2.818e-10
 92.27106    -47.0 1.086e+04 2.572e-10
 92.30018    -45.2 1.076e+04 2.343e-10
 92.31998    -45.8 1.087e+04 2.768e-10
 92.35026    -43.9 1.077e+04 2.525e-10
 92.38986    -41.8 1.068e+04 2.254e-10
 92.42850    -39.7 1.061e+04 1.981e-10
 92.44830    -39.7 1.060e+04 2.054e-10
 92.46906    -37.6 1.056e+04 1.833e-10
 92.50866    -35.4 1.054e+04 1.630e-10
 92.54827    -33.3 1.054e+04 1.504e-10
 92.58787    -31.2 1.054e+04 1.470e-10
 92.62747    -29.2 1.062e+04 1.496e-10
 92.66707    -27.4 1.075e+04 1.745e-10
 92.69226    -25.4 1.085e+04 2.109e-10
 92.71207    -25.2 1.085e+04 2.018e-10
 92.74627    -23.2 1.092e+04 2.181e-10
 92.78587    -21.3 1.094e+04 2.219e-10
 92.82547    -19.3 1.093e+04 2.159e-10
 92.86507    -17.3 1.087e+04 2.033e-10
 92.90467    -15.3 1.079e+04 1.937e-10
 92.93623    -13.3 1.071e+04 1.916e-10
 92.95603    -13.1 1.068e+04 1.891e-10
 92.98388    -10.9 1.063e+04 1.985e-10
 93.02348     -8.7 1.058e+04 2.028e-10
 93.05505     -6.4 1.051e+04 2.020e-10
 93.07485     -6.5 1.063e+04 2.460e-10
 93.10268     -4.0 1.052e+04 2.290e-10
 93.14228     -1.4 1.046e+04 1.953e-10
 93.18019      1.1 1.044e+04 1.590e-10
 93.19999      1.2 1.047e+04 1.697e-10
 93.22148      3.5 1.047e+04 1.347e-10
 93.26108      5.8 1.045e+04 1.125e-10
 93.30069      8.0 1.044e+04 1.020e-10
 93.34029     10.4 1.043e+04 9.832e-11
 93.37989     12.9 1.045e+04 9.797e-11
 93.41949     15.2 1.054e+04 1.017e-10
 93.44395     17.4 1.062e+04 1.119e-10
 93.46375     17.4 1.065e+04 1.229e-10
 93.49869     19.4 1.074e+04 1.452e-10
 93.53829     21.4 1.079e+04 1.851e-10
 93.57789     23.5 1.082e+04 2.447e-10
 93.61749     25.9 1.083e+04 3.045e-10
 93.65709     28.5 1.084e+04 3.285e-10
 93.68792     31.1 1.100e+04 2.646e-10
 93.70772     30.9 1.110e+04 2.971e-10
 93.73630     32.9 1.107e+04 2.121e-10
 93.77590     34.8 1.099e+04 1.525e-10
 93.80991     36.4 1.101e+04 1.221e-10
 93.82971     36.0 1.105e+04 1.514e-10
 93.85510     37.9 1.092e+04 1.442e-10
 93.89470     39.9 1.094e+04 1.488e-10
 93.93188     41.7 1.100e+04 1.642e-10
 93.95168     41.4 1.100e+04 1.644e-10
 93.97390     43.2 1.101e+04 1.977e-10
 94.01350     45.1 1.095e+04 2.401e-10
 94.05310     47.0 1.101e+04 2.602e-10
 94.09271     48.8 1.109e+04 2.551e-10
 94.13231     50.4 1.117e+04 2.432e-10
 94.17191     51.9 1.125e+04 2.451e-10
 94.19564     53.3 1.131e+04 2.727e-10
 94.21544     53.0 1.130e+04 2.917e-10
 94.25111     54.8 1.126e+04 3.087e-10
 94.29071     56.8 1.120e+04 3.075e-10
 94.33031     58.9 1.118e+04 2.893e-10
 94.36991     60.9 1.121e+04 2.585e-10
 94.40951     62.9 1.127e+04 2.289e-10
 94.43960     64.9 1.125e+04 2.148e-10
 94.45941     64.8 1.120e+04 1.650e-10
 94.48872     67.1 1.114e+04 1.660e-10
 94.52832     69.4 1.109e+04 1.739e-10
 94.56477     71.9 1.102e+04 1.917e-10
 94.58457     71.8 1.110e+04 1.936e-10
 94.60752     74.3 1.108e+04 2.229e-10
 94.64712     76.9 1.108e+04 2.588e-10
 94.68357     79.4 1.107e+04 2.931e-10
 94.70337     79.4 1.108e+04 2.782e-10
 94.72632     82.0 1.109e+04 3.154e-10
 94.76592     84.5 1.113e+04 3.418e-10
 94.80552     86.9 1.116e+04 3.678e-10
 94.84513     89.4 1.120e+04 3.894e-10
 94.88473     91.8 1.123e+04 4.163e-10
 94.92433     94.1 1.126e+04 4.498e-10
 94.94733     96.5 1.131e+04 4.924e-10
 94.96713     96.4 1.151e+04 5.688e-10
 95.00353     98.8 1.155e+04 6.315e-10
 95.04313    101.3 1.164e+04 6.964e-10
 95.08273    103.6 1.175e+04 7.495e-10
 95.12233    105.9 1.185e+04 7.947e-10
 95.16193    108.0 1.195e+04 8.375e-10
 95.19129    110.0 1.201e+04 8.801e-10
 95.21109    109.5 1.204e+04 8.525e-10
 95.24114    111.4 1.209e+04 9.061e-10
 95.28074    113.3 1.218e+04 9.924e-10
 95.31963    115.1 1.236e+04 1.138e-09
 95.33943    114.9 1.220e+04 1.033e-09
 95.35994    116.9 1.252e+04 1.378e-09
 95.39954    118.8 1.294e+04 1.810e-09
 95.43526    120.5 1.333e+04 2.224e-09
 95.45506    119.3 1.364e+04 2.344e-09
 95.47874    120.5 1.390e+04 2.484e-09
 95.51834    121.4 1.387e+04 2.410e-09
 95.55794    122.4 1.370e+04 2.136e-09
 95.59754    123.9 1.336e+04 1.710e-09
 95.63715    125.5 1.297e+04 1.298e-09
 95.67675    127.2 1.263e+04 9.930e-10
 95.69902    128.9 1.240e+04 8.216e-10
 95.71882    127.1 1.216e+04 6.502e-10
 95.75595    128.9 1.206e+04 6.135e-10
 95.79555    130.7 1.203e+04 6.104e-10
 95.83515    132.5 1.200e+04 6.163e-10
 95.87475    134.1 1.194e+04 6.417e-10
 95.91435    135.6 1.187e+04 6.772e-10
 95.94298    136.9 1.181e+04 7.079e-10
 95.96278    134.8 1.119e+04 5.326e-10
 95.99355    136.0 1.109e+04 4.958e-10
 96.03316    137.2 1.092e+04 4.016e-10
 96.07276    138.2 1.059e+04 2.795e-10
 96.09429    139.0 9.988e+03 1.869e-10
 96.11409    140.8 1.039e+04 2.597e-10
 96.15196    141.4 9.773e+03 1.917e-10
 96.18694    141.9 9.631e+03 1.927e-10
 96.20675    140.2 9.545e+03 1.924e-10
 96.23116    141.3 9.653e+03 2.374e-10
 96.27076    142.4 9.859e+03 3.231e-10
 96.31036    143.5 1.012e+04 4.441e-10
 96.34996    144.2 1.037e+04 5.649e-10
 96.38956    144.6 1.054e+04 6.491e-10
 96.42917    144.9 1.062e+04 6.866e-10
 96.45071    144.9 1.075e+04 7.314e-10
 96.47051    143.8 1.074e+04 8.369e-10
 96.50837    144.2 1.099e+04 9.232e-10
 96.53797    144.4 1.105e+04 9.811e-10
 96.55767    144.9 1.105e+04 1.002e-09
 96.57249    145.3 1.110e+04 1.048e-09
 96.58239    144.3 1.147e+04 1.308e-09
 96.59727    144.4 1.167e+04 1.462e-09
 96.61708    144.2 1.200e+04 1.701e-09
 96.63688    143.5 1.274e+04 2.226e-09
 96.65668    141.6 1.417e+04 3.497e-09
 96.67648    139.4 1.597e+04 6.310e-09
 96.69448    137.8 1.768e+04 1.150e-08
 96.70438    136.2 1.757e+04 1.109e-08
 96.71608    135.1 1.883e+04 1.608e-08
 96.73588    133.5 1.913e+04 1.617e-08
 96.75568    131.9 1.890e+04 1.299e-08
 96.77548    130.1 1.782e+04 7.240e-09
 96.79528    126.9 1.574e+04 3.219e-09
 96.81508    122.0 1.276e+04 1.790e-09
 96.82636    118.6 1.172e+04 1.609e-09
 96.83626    117.7 1.170e+04 1.613e-09
 96.84896    117.3 1.167e+04 1.602e-09
 96.85886    118.3 1.178e+04 1.623e-09
 96.87448    117.8 1.176e+04 1.613e-09
 96.89428    117.1 1.167e+04 1.580e-09
 96.91408    116.3 1.143e+04 1.457e-09
 96.93388    115.4 1.112e+04 1.251e-09
 96.94834    114.3 1.077e+04 1.024e-09
 96.95824    113.8 1.078e+04 1.024e-09
 96.97348    112.7 1.042e+04 8.108e-10
 96.99329    111.5 1.007e+04 6.253e-10
 97.01309    110.1 9.796e+03 4.908e-10
 97.03289    108.8 9.657e+03 4.027e-10
 97.05269    107.7 9.606e+03 3.741e-10
 97.07032    106.7 9.654e+03 3.810e-10
 97.08022    107.4 9.339e+03 2.911e-10
 97.09229    106.9 9.331e+03 2.921e-10
 97.11209    106.5 9.336e+03 3.054e-10
 97.13189    106.2 9.371e+03 3.507e-10
 97.15169    105.8 9.556e+03 4.398e-10
 97.17149    105.3 9.967e+03 5.841e-10
 97.19129    104.7 1.060e+04 8.160e-10
 97.20220    104.1 1.143e+04 1.185e-09
 97.21210    105.2 1.038e+04 7.585e-10
 97.22639    104.6 1.121e+04 1.138e-09
 97.23629    104.0 1.143e+04 1.237e-09
 97.25069    103.7 1.223e+04 1.815e-09
 97.27049    103.8 1.275e+04 2.358e-09
 97.29029    103.9 1.294e+04 2.463e-09
 97.31009    103.9 1.277e+04 2.308e-09
 97.32418    103.9 1.233e+04 1.853e-09
 97.33408    104.9 1.270e+04 2.187e-09
 97.34969    104.8 1.223e+04 1.675e-09
 97.36949    104.3 1.160e+04 1.146e-09
 97.38930    103.3 1.094e+04 7.696e-10
 97.40910    102.3 1.040e+04 5.924e-10
 97.42890    102.2 1.029e+04 5.785e-10
 97.44616    102.3 1.029e+04 5.836e-10
 97.45606    102.4 1.061e+04 6.818e-10
 97.46850    102.5 1.067e+04 7.174e-10
 97.48830    102.7 1.084e+04 8.007e-10
 97.50810    103.1 1.111e+04 9.291e-10
 97.52790    103.4 1.143e+04 1.093e-09
 97.54770    103.8 1.177e+04 1.270e-09
 97.56750    104.1 1.210e+04 1.429e-09
 97.57805    104.4 1.238e+04 1.534e-09
 97.58795    103.5 1.315e+04 2.103e-09
 97.60382    103.7 1.321e+04 2.094e-09
 97.61372    102.4 1.351e+04 2.330e-09
 97.62690    102.5 1.346e+04 2.170e-09
 97.64670    102.6 1.336e+04 1.977e-09
 97.66650    102.7 1.323e+04 1.820e-09
 97.68630    102.7 1.307e+04 1.704e-09
 97.70003    103.0 1.288e+04 1.637e-09
 97.70993    101.7 1.316e+04 1.762e-09
 97.72590    101.9 1.304e+04 1.782e-09
 97.74570    102.2 1.304e+04 1.796e-09
 97.77550    102.3 1.300e+04 1.826e-09
 97.81520    103.7 1.270e+04 1.604e-09
 97.85480    105.3 1.236e+04 1.346e-09
 97.89440    106.9 1.206e+04 1.098e-09
 97.93400    108.4 1.181e+04 9.217e-10
 97.95409    110.0 1.168e+04 8.732e-10
 97.97389    108.7 1.086e+04 4.509e-10
 98.01321    110.3 1.081e+04 4.759e-10
 98.05281    111.8 1.081e+04 5.925e-10
 98.09241    113.4 1.116e+04 8.345e-10
 98.13201    114.8 1.173e+04 1.217e-09
 98.17161    115.6 1.232e+04 1.652e-09
 98.19795    115.6 1.265e+04 1.956e-09
 98.21775    115.5 1.199e+04 1.356e-09
 98.25081    115.7 1.191e+04 1.262e-09
 98.29041    116.0 1.150e+04 9.675e-10
 98.33001    116.3 1.087e+04 6.531e-10
 98.35888    117.1 1.017e+04 4.306e-10
 98.37868    117.3 1.003e+04 3.857e-10
 98.40922    118.5 9.512e+03 2.765e-10
 98.44201    120.1 9.201e+03 2.201e-10
 98.46181    121.3 9.133e+03 2.131e-10
 98.48842    123.4 9.052e+03 2.017e-10
 98.52802    125.5 9.033e+03 1.951e-10
 98.56762    127.7 9.036e+03 1.893e-10
 98.60722    129.7 9.004e+03 1.783e-10
 98.64682    131.7 8.983e+03 1.693e-10
 98.68597    133.7 8.993e+03 1.689e-10
 98.70577    134.5 9.232e+03 2.177e-10
 98.72603    136.1 9.436e+03 2.355e-10
 98.76563    136.6 9.710e+03 2.795e-10
 98.80523    136.4 9.878e+03 3.291e-10
 98.82766    135.7 1.008e+04 4.121e-10
 98.83746    135.9 1.021e+04 4.439e-10
 98.85453    135.4 1.060e+04 6.043e-10
 98.87433    134.7 1.109e+04 8.278e-10
 98.89413    133.8 1.161e+04 1.065e-09
 98.91393    132.4 1.196e+04 1.151e-09
 98.93374    130.4 1.195e+04 1.132e-09
 98.94954    128.6 1.178e+04 1.023e-09
 98.95944    128.2 1.198e+04 1.145e-09
 98.97334    126.4 1.160e+04 9.439e-10
 98.99314    124.7 1.123e+04 7.684e-10
 99.01294    123.1 1.096e+04 6.603e-10
 99.03274    121.9 1.082e+04 6.120e-10
 99.05254    121.0 1.073e+04 5.920e-10
 99.07152    120.1 1.074e+04 5.972e-10
 99.08142    120.4 1.107e+04 7.574e-10
 99.09214    119.8 1.109e+04 7.540e-10
 99.11194    119.2 1.114e+04 7.554e-10
 99.12345    118.5 1.115e+04 7.498e-10
 99.13344    119.1 1.093e+04 6.612e-10
 99.16164    117.9 1.073e+04 5.844e-10
 99.19370    117.1 1.056e+04 5.364e-10
 99.21350    116.5 1.133e+04 8.253e-10
 99.24084    115.8 1.124e+04 7.923e-10
 99.28044    115.0 1.138e+04 8.421e-10
 99.32004    114.0 1.179e+04 1.041e-09
 99.35964    113.0 1.234e+04 1.427e-09
 99.39924    112.2 1.253e+04 1.644e-09
 99.43766    111.4 1.244e+04 1.598e-09
 99.45746    111.2 1.259e+04 1.750e-09
 99.47844    110.6 1.210e+04 1.377e-09
 99.51805    110.5 1.167e+04 1.101e-09
 99.55765    110.5 1.139e+04 9.348e-10
 99.59725    110.8 1.125e+04 8.377e-10
 99.63685    111.2 1.113e+04 7.573e-10
 99.67645    111.8 1.093e+04 6.486e-10
 99.70143    112.7 1.065e+04 5.223e-10
 99.72123    113.0 1.044e+04 4.281e-10
 99.75565    114.0 1.018e+04 3.412e-10
 99.79525    115.2 9.938e+03 2.790e-10
 99.83485    116.5 9.747e+03 2.398e-10
 99.86860    117.9 9.603e+03 2.177e-10
 99.88840    117.8 9.510e+03 2.136e-10
 99.91406    119.5 9.446e+03 2.087e-10
 99.94539    121.4 9.445e+03 2.101e-10
 99.96519    121.3 9.331e+03 1.908e-10
 99.99326    123.2 9.346e+03 1.931e-10
