# Columns:
#   distance along LOS (in CHIMPs)
#   peculiar velocity  (in km/s)
#   temperature (K)
#   HI number density
# pos=(150.57,170.176,179.483), angles=(1.17312,3.12739)
  0.00359     91.9 1.029e+04 3.519e-10
  0.00971     93.3 1.026e+04 3.909e-10
  0.02273     93.2 1.026e+04 3.718e-10
  0.04382     93.4 1.037e+04 3.533e-10
  0.05592     93.3 1.055e+04 3.577e-10
  0.06651     94.2 1.052e+04 3.764e-10
  0.08619     94.0 1.058e+04 3.764e-10
  0.10232     94.0 1.068e+04 3.836e-10
  0.11292     94.7 1.074e+04 4.156e-10
  0.12857     94.7 1.083e+04 4.328e-10
  0.14872     94.7 1.107e+04 4.729e-10
  0.15932     95.4 1.107e+04 5.059e-10
  0.17094     94.9 1.158e+04 6.008e-10
  0.19213     92.5 1.329e+04 9.032e-10
  0.20572     87.9 1.809e+04 2.268e-09
  0.21631     90.7 1.504e+04 1.740e-09
  0.23450     87.9 1.959e+04 4.419e-09
  0.25212     87.3 2.106e+04 1.010e-08
  0.26272     89.6 2.021e+04 6.407e-09
  0.27687     89.2 2.086e+04 9.923e-09
  0.29806     88.6 2.006e+04 1.037e-08
  0.30912     88.0 1.847e+04 9.167e-09
  0.31971     89.8 1.957e+04 6.825e-09
  0.34043     88.4 1.786e+04 6.278e-09
  0.35552     87.1 1.633e+04 5.507e-09
  0.36612     88.7 1.738e+04 4.466e-09
  0.38280     88.1 1.592e+04 4.586e-09
  0.40193     88.6 1.530e+04 4.760e-09
  0.41252     89.7 1.586e+04 3.812e-09
  0.42518     90.3 1.524e+04 4.343e-09
  0.44636     91.2 1.502e+04 4.742e-09
  0.45892     92.2 1.516e+04 5.058e-09
  0.46951     92.8 1.519e+04 4.571e-09
  0.48874     93.4 1.553e+04 5.462e-09
  0.50532     93.8 1.607e+04 6.587e-09
  0.51592     94.3 1.600e+04 6.225e-09
  0.53111     94.4 1.660e+04 8.138e-09
  0.55173     94.6 1.710e+04 1.001e-08
  0.56232     95.3 1.694e+04 9.618e-09
  0.57348     95.5 1.748e+04 1.126e-08
  0.59467     95.8 1.787e+04 1.150e-08
  0.60872     96.0 1.813e+04 1.004e-08
  0.61932     97.0 1.790e+04 1.107e-08
  0.63704     97.0 1.821e+04 1.007e-08
  0.65513     96.5 1.822e+04 7.292e-09
  0.66572     97.8 1.824e+04 1.016e-08
  0.67942     97.6 1.801e+04 7.655e-09
  0.70060     97.0 1.701e+04 5.065e-09
  0.71212     96.3 1.524e+04 3.125e-09
  0.72272     98.7 1.701e+04 5.257e-09
  0.74298     97.9 1.532e+04 3.014e-09
  0.75852     97.0 1.306e+04 1.723e-09
  0.76912     99.6 1.530e+04 2.721e-09
  0.78535     98.4 1.273e+04 1.425e-09
  0.80493     97.6 1.105e+04 8.964e-10
  0.81552     99.4 1.188e+04 1.086e-09
  0.82772     98.8 1.061e+04 7.264e-10
  0.84891     99.3 1.056e+04 6.100e-10
  0.86192     99.6 1.077e+04 6.211e-10
  0.87220    100.9 1.055e+04 5.677e-10
  0.88037    101.2 1.070e+04 5.851e-10
  0.89128    101.5 1.099e+04 6.206e-10
  0.90833    101.3 1.158e+04 7.555e-10
  0.91892    103.2 1.122e+04 6.301e-10
  0.93365    102.7 1.198e+04 8.496e-10
  0.95473    102.2 1.271e+04 1.330e-09
  0.96532    104.0 1.247e+04 9.817e-10
  0.97603    103.5 1.335e+04 1.707e-09
  0.99721    103.3 1.394e+04 2.753e-09
  1.01173    102.7 1.530e+04 4.495e-09
  1.02232    104.3 1.478e+04 3.666e-09
  1.03959    102.1 1.796e+04 7.356e-09
  1.05813     98.4 2.012e+04 1.288e-08
  1.06872    100.8 1.992e+04 1.071e-08
  1.08196     97.5 2.031e+04 1.454e-08
  1.10315     95.5 1.936e+04 1.354e-08
  1.11512     93.1 1.825e+04 8.605e-09
  1.12572     94.7 1.905e+04 1.214e-08
  1.14552     91.3 1.805e+04 6.480e-09
  1.16153     86.0 1.586e+04 2.815e-09
  1.17212     89.2 1.744e+04 4.780e-09
  1.18789     83.9 1.447e+04 2.300e-09
  1.20793     80.7 1.228e+04 1.477e-09
  1.21852     82.9 1.343e+04 2.043e-09
  1.23027     81.2 1.200e+04 1.449e-09
  1.25145     81.1 1.157e+04 1.129e-09
  1.26493     80.9 1.127e+04 8.357e-10
  1.27552     82.0 1.166e+04 9.987e-10
  1.29382     81.3 1.114e+04 6.891e-10
  1.31133     80.2 1.045e+04 4.768e-10
  1.32192     81.2 1.070e+04 5.522e-10
  1.33620     80.0 9.973e+03 4.038e-10
  1.35738     79.6 9.714e+03 3.455e-10
  1.38926     80.2 9.829e+03 3.473e-10
  1.41492     81.4 9.901e+03 3.472e-10
  1.43611     82.2 9.997e+03 3.727e-10
  1.47411     83.1 1.010e+04 3.870e-10
  1.50773     84.0 1.000e+04 3.824e-10
  1.52892     84.6 1.010e+04 3.937e-10
  1.55885     85.4 1.007e+04 3.815e-10
  1.60053     86.3 9.953e+03 3.670e-10
  1.62162     86.6 9.930e+03 3.759e-10
  1.63281     87.8 9.826e+03 3.678e-10
  1.65400     87.9 9.809e+03 3.673e-10
  1.66793     89.3 9.855e+03 3.114e-10
  1.67852     89.5 9.926e+03 3.306e-10
  1.69637     89.8 9.943e+03 3.296e-10
  1.71433     90.7 9.856e+03 3.028e-10
  1.72492     91.0 1.006e+04 3.589e-10
  1.73874     91.3 1.007e+04 3.525e-10
  1.75993     91.3 1.015e+04 3.888e-10
  1.77133     89.8 1.150e+04 5.880e-10
  1.78192     89.3 1.234e+04 7.519e-10
  1.80230     87.5 1.388e+04 1.352e-09
  1.81773     87.1 1.440e+04 2.346e-09
  1.82832     86.5 1.506e+04 3.064e-09
  1.84467     87.0 1.531e+04 4.520e-09
  1.86413     87.7 1.578e+04 5.787e-09
  1.87473     87.1 1.654e+04 7.406e-09
  1.88705     87.8 1.686e+04 8.046e-09
  1.90823     88.3 1.676e+04 7.541e-09
  1.92113     88.7 1.633e+04 6.383e-09
  1.93172     88.7 1.654e+04 6.995e-09
  1.95061     89.0 1.599e+04 4.961e-09
  1.96753     88.8 1.530e+04 3.342e-09
  1.97813     88.7 1.563e+04 3.501e-09
  1.99298     87.8 1.491e+04 2.087e-09
  2.01394     86.2 1.347e+04 1.342e-09
  2.02453     86.0 1.361e+04 1.383e-09
  2.03535     85.0 1.205e+04 9.877e-10
  2.05654     84.6 1.166e+04 7.743e-10
  2.07093     85.3 1.129e+04 8.215e-10
  2.08152     85.2 1.153e+04 9.345e-10
  2.09891     86.1 1.150e+04 8.555e-10
  2.11733     87.0 1.134e+04 8.097e-10
  2.12793     87.0 1.164e+04 9.677e-10
  2.14129     88.2 1.143e+04 9.238e-10
  2.16247     89.3 1.128e+04 8.328e-10
  2.17433     90.3 1.117e+04 7.223e-10
  2.18492     90.2 1.167e+04 9.192e-10
  2.20484     91.2 1.150e+04 8.516e-10
  2.22073     92.2 1.132e+04 7.822e-10
  2.23133     91.9 1.191e+04 1.022e-09
  2.24722     92.6 1.186e+04 9.489e-10
  2.26714     93.3 1.186e+04 9.306e-10
  2.27773     92.8 1.267e+04 1.290e-09
  2.28959     93.6 1.273e+04 1.352e-09
  2.31078     94.3 1.286e+04 1.453e-09
  2.32413     95.0 1.302e+04 1.565e-09
  2.33473     94.5 1.396e+04 2.382e-09
  2.35315     95.6 1.400e+04 2.552e-09
  2.36775     96.9 1.398e+04 2.696e-09
  2.37454     96.7 1.372e+04 2.379e-09
  2.38113     96.7 1.440e+04 2.811e-09
  2.39552     98.0 1.441e+04 2.756e-09
  2.41671     99.2 1.427e+04 2.566e-09
  2.42753    100.2 1.400e+04 2.304e-09
  2.43812     99.7 1.402e+04 2.291e-09
  2.45908    100.5 1.372e+04 2.007e-09
  2.47393    101.1 1.342e+04 1.723e-09
  2.48453    100.3 1.335e+04 1.603e-09
  2.50146    100.9 1.297e+04 1.380e-09
  2.52034    101.5 1.270e+04 1.219e-09
  2.53093    101.1 1.251e+04 1.101e-09
  2.54383    101.7 1.237e+04 1.037e-09
  2.56502    102.4 1.216e+04 9.717e-10
  2.57733    103.3 1.193e+04 9.084e-10
  2.58793    103.1 1.191e+04 8.715e-10
  2.60739    103.9 1.175e+04 8.224e-10
  2.62374    104.7 1.158e+04 7.636e-10
  2.63433    104.7 1.156e+04 7.521e-10
  2.64976    105.4 1.144e+04 7.218e-10
  2.67014    105.8 1.137e+04 7.141e-10
  2.68073    106.1 1.141e+04 7.189e-10
  2.69213    106.4 1.140e+04 7.297e-10
  2.71332    106.6 1.142e+04 7.806e-10
  2.72713    106.8 1.163e+04 8.994e-10
  2.73773    107.2 1.165e+04 9.019e-10
  2.75569    107.0 1.211e+04 1.117e-09
  2.77354    105.8 1.333e+04 1.663e-09
  2.78413    106.0 1.331e+04 1.641e-09
  2.79807    102.5 1.556e+04 3.154e-09
  2.81925     99.4 1.748e+04 6.909e-09
  2.83053     98.1 1.860e+04 1.226e-08
  2.84113     98.3 1.799e+04 9.750e-09
  2.86163     96.4 1.911e+04 1.214e-08
  2.87694     93.2 1.932e+04 1.083e-08
  2.88753     92.4 1.880e+04 7.909e-09
  2.90400     87.2 1.786e+04 5.566e-09
  2.92334     81.8 1.530e+04 3.695e-09
  2.93393     80.3 1.493e+04 3.717e-09
  2.94637     77.5 1.422e+04 2.866e-09
  2.96756     75.6 1.401e+04 2.429e-09
  2.98034     73.7 1.359e+04 2.078e-09
  2.99093     73.4 1.393e+04 2.313e-09
  3.00993     71.6 1.322e+04 1.922e-09
  3.02674     70.6 1.272e+04 1.714e-09
  3.03733     69.8 1.272e+04 1.710e-09
  3.05231     69.3 1.257e+04 1.614e-09
  3.07314     69.1 1.243e+04 1.521e-09
  3.08373     68.3 1.235e+04 1.464e-09
  3.09468     68.0 1.209e+04 1.345e-09
  3.11587     68.0 1.186e+04 1.240e-09
  3.13014     68.0 1.170e+04 1.149e-09
  3.14073     67.0 1.170e+04 1.142e-09
  3.15824     67.0 1.161e+04 1.073e-09
  3.17654     66.8 1.157e+04 1.037e-09
  3.18713     65.6 1.165e+04 1.082e-09
  3.20061     65.5 1.170e+04 1.083e-09
  3.22180     65.4 1.168e+04 1.065e-09
  3.23354     65.4 1.163e+04 1.084e-09
  3.24413     64.7 1.155e+04 1.078e-09
  3.26417     65.1 1.142e+04 9.865e-10
  3.27994     65.4 1.113e+04 8.491e-10
  3.29053     64.3 1.089e+04 7.207e-10
  3.30654     64.3 1.055e+04 5.448e-10
  3.32644     64.1 1.005e+04 3.648e-10
  3.34772     60.8 9.397e+03 2.937e-10
  3.38089     61.0 9.092e+03 2.570e-10
  3.41934     62.2 8.864e+03 2.193e-10
  3.44053     60.7 8.887e+03 2.315e-10
  3.46564     62.3 8.798e+03 2.149e-10
  3.50801     63.8 8.845e+03 2.189e-10
  3.53333     65.4 8.999e+03 2.408e-10
  3.54383     64.8 9.152e+03 2.765e-10
  3.56078     64.8 9.182e+03 2.809e-10
  3.57954     66.3 9.405e+03 3.275e-10
  3.59014     65.0 9.841e+03 4.307e-10
  3.60315     65.5 1.016e+04 5.056e-10
  3.62434     66.2 1.055e+04 6.249e-10
  3.63654     66.9 1.092e+04 7.248e-10
  3.64713     65.8 1.181e+04 1.161e-09
  3.66671     66.4 1.218e+04 1.344e-09
  3.68294     66.7 1.248e+04 1.532e-09
  3.69353     65.6 1.323e+04 2.108e-09
  3.70909     65.9 1.358e+04 2.334e-09
  3.72934     65.9 1.390e+04 2.555e-09
  3.73994     64.7 1.390e+04 2.520e-09
  3.75146     65.1 1.407e+04 2.739e-09
  3.77265     66.0 1.428e+04 3.085e-09
  3.78634     67.2 1.447e+04 3.399e-09
  3.79693     66.7 1.404e+04 2.317e-09
  3.81502     68.0 1.410e+04 2.257e-09
  3.83274     69.1 1.407e+04 2.042e-09
  3.84334     67.4 1.334e+04 1.026e-09
  3.85512     67.9 1.316e+04 8.889e-10
  3.86572     65.7 1.160e+04 4.100e-10
  3.87858     66.3 1.139e+04 4.119e-10
  3.88974     67.2 1.123e+04 4.321e-10
  3.90033     65.6 9.776e+03 3.134e-10
  3.92095     67.0 9.868e+03 3.404e-10
  3.93614     68.5 1.011e+04 3.857e-10
  3.94673     67.6 9.609e+03 3.524e-10
  3.96333     69.2 9.821e+03 3.969e-10
  3.98254     70.7 1.001e+04 4.458e-10
  3.99314     69.8 9.894e+03 4.297e-10
  4.00570     71.1 9.982e+03 4.611e-10
  4.02689     72.4 1.019e+04 5.067e-10
  4.03954     72.4 1.143e+04 6.482e-10
  4.05013     70.3 1.153e+04 6.784e-10
  4.06926     63.4 1.828e+04 1.889e-09
  4.08510     56.5 2.398e+04 5.134e-09
  4.09114     53.9 2.459e+04 1.052e-08
  4.09649     53.7 2.312e+04 9.164e-09
  4.10629     51.0 2.478e+04 1.905e-08
  4.11434     49.9 2.478e+04 3.628e-08
  4.11964     49.5 2.482e+04 3.446e-08
  4.12742     49.0 2.477e+04 6.165e-08
  4.13755     49.5 2.367e+04 1.142e-07
  4.14284     48.4 2.430e+04 8.540e-08
  4.14861     48.3 2.387e+04 1.189e-07
  4.15920     48.3 2.359e+04 1.420e-07
  4.16604     47.5 2.340e+04 1.448e-07
  4.17134     45.8 2.375e+04 1.016e-07
  4.18039     45.1 2.353e+04 8.777e-08
  4.18924     44.2 2.334e+04 6.961e-08
  4.19454     42.5 2.302e+04 6.352e-08
  4.20158     42.4 2.288e+04 5.215e-08
  4.21217     42.4 2.279e+04 4.227e-08
  4.21774     42.6 2.270e+04 3.401e-08
  4.22304     41.4 2.220e+04 3.708e-08
  4.23336     41.6 2.191e+04 3.043e-08
  4.24094     41.7 2.145e+04 2.455e-08
  4.24624     41.1 2.105e+04 2.671e-08
  4.25454     41.3 2.082e+04 2.202e-08
  4.26415     41.7 2.039e+04 1.869e-08
  4.26944     41.1 2.023e+04 1.916e-08
  4.28107     42.4 1.952e+04 1.507e-08
  4.29274     43.6 1.857e+04 9.127e-09
  4.30333     42.5 1.842e+04 1.106e-08
  4.32350     43.6 1.745e+04 7.253e-09
  4.33914     44.0 1.604e+04 4.481e-09
  4.34974     43.6 1.607e+04 5.422e-09
  4.36587     44.4 1.492e+04 3.498e-09
  4.38555     45.2 1.374e+04 2.310e-09
  4.39614     45.5 1.394e+04 2.564e-09
  4.40824     46.4 1.301e+04 1.803e-09
  4.42943     47.6 1.236e+04 1.212e-09
  4.44254     48.9 1.166e+04 9.663e-10
  4.45314     48.5 1.188e+04 9.997e-10
  4.47180     50.5 1.118e+04 6.790e-10
  4.48895     51.7 1.076e+04 4.857e-10
  4.49954     51.3 1.087e+04 5.226e-10
  4.51418     52.4 1.041e+04 3.502e-10
  4.53535     52.6 1.002e+04 2.812e-10
  4.56723     54.1 9.751e+03 2.594e-10
  4.60971     56.5 9.442e+03 2.362e-10
  4.63894     59.0 9.296e+03 2.300e-10
  4.66013     58.4 9.459e+03 2.623e-10
  4.69446     61.0 9.301e+03 2.590e-10
  4.73175     63.9 9.222e+03 2.600e-10
  4.75294     63.3 9.357e+03 2.867e-10
  4.77920     66.4 9.115e+03 2.403e-10
  4.82157     69.1 8.960e+03 1.945e-10
  4.84574     71.5 8.809e+03 1.544e-10
  4.86693     71.1 8.825e+03 1.599e-10
  4.90632     73.4 8.688e+03 1.369e-10
  4.93855     75.8 8.630e+03 1.380e-10
  4.95973     75.5 8.715e+03 1.610e-10
  4.99107     78.2 8.739e+03 1.657e-10
  5.03135     81.0 8.745e+03 1.734e-10
  5.05254     80.9 8.942e+03 2.175e-10
  5.07581     83.7 8.874e+03 2.099e-10
  5.11819     86.5 8.755e+03 1.902e-10
  5.14534     89.1 8.596e+03 1.616e-10
  5.16653     89.0 8.915e+03 2.084e-10
  5.20293     91.4 8.740e+03 1.727e-10
  5.23815     93.6 8.574e+03 1.497e-10
  5.25934     93.6 8.926e+03 2.027e-10
  5.28768     95.8 8.815e+03 1.923e-10
  5.33005     98.1 8.766e+03 1.932e-10
  5.35214    100.5 8.727e+03 1.993e-10
  5.37333    100.7 9.023e+03 2.528e-10
  5.41480    103.1 8.966e+03 2.600e-10
  5.44495    105.6 8.902e+03 2.588e-10
  5.46613    105.7 9.229e+03 3.130e-10
  5.49954    108.0 9.177e+03 3.060e-10
  5.53775    110.3 9.071e+03 2.823e-10
  5.55894    110.3 9.332e+03 3.310e-10
  5.58429    112.3 9.264e+03 3.117e-10
  5.62666    114.4 9.163e+03 2.976e-10
  5.65175    116.3 9.146e+03 2.999e-10
  5.66224    115.5 9.285e+03 3.288e-10
  5.67943    116.1 9.275e+03 3.278e-10
  5.69795    117.2 9.265e+03 3.354e-10
  5.70855    116.8 9.444e+03 3.772e-10
  5.72181    117.5 9.553e+03 4.133e-10
  5.74299    118.0 9.747e+03 4.761e-10
  5.75495    118.4 1.001e+04 5.631e-10
  5.76554    117.3 1.064e+04 7.606e-10
  5.78537    117.4 1.089e+04 8.661e-10
  5.80135    117.4 1.111e+04 9.679e-10
  5.81195    116.0 1.172e+04 1.276e-09
  5.82774    115.8 1.171e+04 1.277e-09
  5.84776    115.4 1.167e+04 1.244e-09
  5.85835    114.3 1.190e+04 1.340e-09
  5.87011    113.5 1.166e+04 1.186e-09
  5.89130    112.5 1.143e+04 1.058e-09
  5.90475    111.2 1.129e+04 9.749e-10
  5.91534    110.7 1.128e+04 9.658e-10
  5.93367    109.4 1.142e+04 1.002e-09
  5.95115    106.2 1.217e+04 1.219e-09
  5.96175    105.7 1.288e+04 1.479e-09
  5.97604    101.7 1.471e+04 2.846e-09
  5.99723     99.4 1.560e+04 4.483e-09
  6.00815     98.0 1.567e+04 4.896e-09
  6.01340     98.6 1.624e+04 6.101e-09
  6.02362     98.2 1.616e+04 6.080e-09
  6.03956     98.6 1.627e+04 6.302e-09
  6.05455     98.1 1.534e+04 3.713e-09
  6.06515    100.0 1.634e+04 5.309e-09
  6.08198     98.3 1.508e+04 1.908e-09
  6.10096     91.8 1.267e+04 5.774e-10
  6.11155     92.5 1.312e+04 6.656e-10
  6.12435     86.8 1.045e+04 4.538e-10
  6.14554     86.2 1.032e+04 4.477e-10
  6.15795     86.0 1.033e+04 4.586e-10
  6.16855     85.7 1.063e+04 5.597e-10
  6.18791     85.4 1.079e+04 6.307e-10
  6.20435     85.3 1.086e+04 6.949e-10
  6.21495     84.0 1.155e+04 9.989e-10
  6.23028     84.1 1.176e+04 1.140e-09
  6.25076     84.4 1.195e+04 1.206e-09
  6.26135     81.4 1.431e+04 2.678e-09
  6.27266     81.8 1.466e+04 2.905e-09
  6.29384     82.2 1.481e+04 2.930e-09
  6.30775     82.7 1.481e+04 2.837e-09
  6.31835     80.2 1.658e+04 6.536e-09
  6.33622     81.0 1.637e+04 6.021e-09
  6.35416     81.7 1.614e+04 5.504e-09
  6.36475     79.6 1.732e+04 7.056e-09
  6.37859     80.4 1.693e+04 6.254e-09
  6.39978     81.4 1.678e+04 5.835e-09
  6.41115     82.3 1.682e+04 5.681e-09
  6.42175     79.8 1.693e+04 5.295e-09
  6.44215     80.7 1.679e+04 5.104e-09
  6.45756     82.0 1.677e+04 5.067e-09
  6.46815     79.3 1.617e+04 3.491e-09
  6.48452     80.3 1.623e+04 3.567e-09
  6.50396     81.0 1.634e+04 3.804e-09
  6.51455     78.3 1.424e+04 2.094e-09
  6.52689     79.3 1.434e+04 2.288e-09
  6.54808     80.4 1.455e+04 2.583e-09
  6.56095     81.5 1.492e+04 2.980e-09
  6.57155     79.2 1.255e+04 1.560e-09
  6.59045     80.0 1.298e+04 1.735e-09
  6.60736     80.7 1.326e+04 1.825e-09
  6.61795     78.7 1.102e+04 1.161e-09
  6.63283     79.2 1.112e+04 1.224e-09
  6.65376     79.7 1.114e+04 1.214e-09
  6.66435     79.7 1.085e+04 1.085e-09
  6.67520     80.3 1.086e+04 1.090e-09
  6.69639     80.9 1.082e+04 1.056e-09
  6.71076     81.5 1.068e+04 9.674e-10
  6.72135     81.6 1.062e+04 9.423e-10
  6.73876     82.1 1.050e+04 8.903e-10
  6.75716     82.6 1.037e+04 8.311e-10
  6.76775     82.7 1.047e+04 9.009e-10
  6.78113     83.1 1.045e+04 8.934e-10
  6.80232     83.5 1.043e+04 8.767e-10
  6.81416     83.9 1.039e+04 8.522e-10
  6.82475     84.2 1.070e+04 1.028e-09
  6.84046     84.6 1.065e+04 9.965e-10
  6.85106     84.8 1.050e+04 9.321e-10
  6.86056     85.2 1.036e+04 8.659e-10
  6.87115     85.5 1.072e+04 1.054e-09
  6.88707     85.8 1.051e+04 9.344e-10
  6.90696     86.1 1.019e+04 7.739e-10
  6.91755     86.1 1.061e+04 9.568e-10
  6.92944     86.2 1.019e+04 7.624e-10
  6.95062     86.2 9.778e+03 6.003e-10
  6.96396     86.2 9.421e+03 4.750e-10
  6.97455     86.0 9.730e+03 5.868e-10
  6.99300     85.9 9.390e+03 4.812e-10
  7.01036     86.0 9.163e+03 4.152e-10
  7.02095     85.8 9.380e+03 4.969e-10
  7.03537     85.9 9.257e+03 4.644e-10
  7.05656     86.2 9.214e+03 4.617e-10
  7.06736     86.5 9.230e+03 4.678e-10
  7.07795     86.3 9.333e+03 4.916e-10
  7.09893     86.6 9.338e+03 4.943e-10
  7.11376     87.0 9.384e+03 5.117e-10
  7.12435     86.8 9.342e+03 4.911e-10
  7.14130     87.1 9.367e+03 5.032e-10
  7.16016     87.5 9.401e+03 5.214e-10
  7.17075     87.3 9.351e+03 4.827e-10
  7.18368     87.7 9.453e+03 5.191e-10
  7.20486     88.1 9.610e+03 5.763e-10
  7.21716     88.4 9.821e+03 6.526e-10
  7.22775     88.0 1.001e+04 6.869e-10
  7.24724     87.9 1.049e+04 8.477e-10
  7.26356     87.7 1.109e+04 1.085e-09
  7.27415     86.5 1.194e+04 1.472e-09
  7.28961     86.3 1.274e+04 2.000e-09
  7.30996     86.5 1.344e+04 2.624e-09
  7.32056     85.7 1.443e+04 3.845e-09
  7.33198     86.1 1.495e+04 4.474e-09
  7.35317     86.2 1.511e+04 4.529e-09
  7.36696     85.9 1.510e+04 4.410e-09
  7.37755     84.3 1.638e+04 6.095e-09
  7.39554     82.7 1.652e+04 6.162e-09
  7.41336     80.8 1.644e+04 6.143e-09
  7.42396     78.7 1.710e+04 8.306e-09
  7.43791     77.9 1.649e+04 7.643e-09
  7.45910     77.5 1.590e+04 6.740e-09
  7.47036     77.3 1.544e+04 5.871e-09
  7.48095     76.6 1.478e+04 4.939e-09
  7.50147     76.4 1.408e+04 3.750e-09
  7.51676     75.7 1.344e+04 2.819e-09
  7.52735     74.1 1.217e+04 1.678e-09
  7.54385     72.8 1.143e+04 1.245e-09
  7.56316     71.8 1.083e+04 1.008e-09
  7.58445     70.8 9.793e+03 5.468e-10
  7.60750     70.7 9.802e+03 5.692e-10
  7.62016     71.0 9.828e+03 6.057e-10
  7.63075     70.5 9.395e+03 4.691e-10
  7.64978     70.8 9.231e+03 4.533e-10
  7.66656     71.3 9.161e+03 4.609e-10
  7.67725     71.2 8.952e+03 3.799e-10
  7.69225     71.2 8.975e+03 3.920e-10
  7.71297     71.3 9.055e+03 4.085e-10
  7.72356     71.7 8.984e+03 3.977e-10
  7.73453     71.7 9.093e+03 4.222e-10
  7.75571     71.5 9.585e+03 5.322e-10
  7.76996     70.9 1.054e+04 8.064e-10
  7.78055     72.3 9.763e+03 5.441e-10
  7.79809     72.1 1.072e+04 8.369e-10
  7.81636     72.7 1.153e+04 1.325e-09
  7.82696     73.7 1.086e+04 8.162e-10
  7.84046     74.2 1.161e+04 1.268e-09
  7.86164     75.0 1.211e+04 1.831e-09
  7.87336     75.7 1.253e+04 2.408e-09
  7.88395     76.2 1.208e+04 1.537e-09
  7.90402     76.9 1.246e+04 2.083e-09
  7.91976     77.5 1.278e+04 2.606e-09
  7.93036     78.0 1.230e+04 1.659e-09
  7.94639     78.7 1.257e+04 2.192e-09
  7.96617     79.4 1.279e+04 2.710e-09
  7.97676     80.0 1.217e+04 1.665e-09
  7.98876     80.9 1.243e+04 2.208e-09
  8.00995     81.8 1.286e+04 2.849e-09
  8.02316     82.6 1.337e+04 3.537e-09
  8.03376     83.3 1.248e+04 2.169e-09
  8.05232     84.1 1.292e+04 2.739e-09
  8.06957     84.8 1.336e+04 3.171e-09
  8.08016     85.4 1.241e+04 1.910e-09
  8.09470     86.0 1.279e+04 2.342e-09
  8.11588     86.7 1.309e+04 2.734e-09
  8.13707     87.6 1.258e+04 2.162e-09
  8.15826     88.3 1.271e+04 2.341e-09
  8.17296     88.6 1.285e+04 2.416e-09
  8.18356     89.0 1.261e+04 2.297e-09
  8.20063     89.0 1.320e+04 2.653e-09
  8.21937     87.2 1.604e+04 3.840e-09
  8.22996     88.2 1.488e+04 4.042e-09
  8.24300     85.4 1.838e+04 6.557e-09
  8.25884     83.7 1.952e+04 8.530e-09
  8.26939     81.8 2.076e+04 1.094e-08
  8.27627     79.3 2.210e+04 1.451e-08
  8.28156     80.7 2.207e+04 1.513e-08
  8.29057     77.9 2.338e+04 1.970e-08
  8.29947     75.5 2.378e+04 2.407e-08
  8.30476     76.6 2.414e+04 2.504e-08
  8.31176     74.2 2.401e+04 3.069e-08
  8.32235     72.4 2.297e+04 3.561e-08
  8.32796     71.3 2.186e+04 4.055e-08
  8.33326     71.4 2.342e+04 4.886e-08
  8.33833     70.5 2.236e+04 5.967e-08
  8.34363     70.3 2.221e+04 5.305e-08
  8.35117     70.0 2.149e+04 5.924e-08
  8.35646     70.1 2.267e+04 8.515e-08
  8.36473     70.1 2.207e+04 9.811e-08
  8.37437     70.0 2.182e+04 9.527e-08
  8.37966     69.9 2.268e+04 1.787e-07
  8.38591     69.6 2.216e+04 1.848e-07
  8.39651     69.1 2.193e+04 1.685e-07
  8.40287     68.8 2.203e+04 1.278e-07
  8.40816     68.1 2.216e+04 2.816e-07
  8.41769     67.4 2.245e+04 1.932e-07
  8.42607     66.3 2.323e+04 1.158e-07
  8.43136     64.6 2.284e+04 2.566e-07
  8.43888     62.4 2.369e+04 1.567e-07
  8.44927     60.8 2.435e+04 8.468e-08
  8.45457     58.9 2.322e+04 1.837e-07
  8.46007     58.9 2.313e+04 9.704e-08
  8.47066     59.3 2.252e+04 4.387e-08
  8.47777     59.1 2.193e+04 2.024e-08
  8.48306     58.9 2.175e+04 3.686e-08
  8.49185     59.1 2.104e+04 1.694e-08
  8.50097     58.8 2.008e+04 1.112e-08
  8.50626     58.9 2.109e+04 1.706e-08
  8.51838     59.4 1.922e+04 8.461e-09
  8.52956     59.2 1.620e+04 3.646e-09
  8.54016     59.8 1.928e+04 8.617e-09
  8.56080     59.4 1.613e+04 4.098e-09
  8.57597     59.4 1.334e+04 2.365e-09
  8.58656     60.3 1.621e+04 4.794e-09
  8.60317     60.7 1.401e+04 3.048e-09
  8.62237     61.8 1.288e+04 2.326e-09
  8.63296     62.5 1.479e+04 3.756e-09
  8.64555     63.5 1.373e+04 3.021e-09
  8.66673     64.9 1.318e+04 2.605e-09
  8.67937     66.3 1.287e+04 2.273e-09
  8.68996     66.3 1.405e+04 3.349e-09
  8.70911     67.7 1.362e+04 2.915e-09
  8.72577     69.1 1.324e+04 2.461e-09
  8.73636     69.1 1.429e+04 3.568e-09
  8.75148     70.5 1.382e+04 3.024e-09
  8.77217     71.8 1.341e+04 2.514e-09
  8.78276     72.1 1.413e+04 3.232e-09
  8.79385     73.4 1.372e+04 2.805e-09
  8.81504     74.5 1.335e+04 2.429e-09
  8.82917     75.7 1.305e+04 2.102e-09
  8.83976     76.0 1.348e+04 2.440e-09
  8.85741     77.1 1.331e+04 2.328e-09
  8.87557     78.2 1.314e+04 2.221e-09
  8.88616     78.5 1.326e+04 2.276e-09
  8.89978     79.6 1.321e+04 2.290e-09
  8.92097     80.8 1.313e+04 2.309e-09
  8.93257     82.1 1.309e+04 2.159e-09
  8.94316     82.3 1.317e+04 2.489e-09
  8.96334     83.6 1.319e+04 2.427e-09
  8.97897     84.9 1.319e+04 2.236e-09
  8.98956     85.0 1.329e+04 2.670e-09
  9.00572     86.3 1.328e+04 2.516e-09
  9.02537     87.7 1.324e+04 2.144e-09
  9.03597     87.9 1.338e+04 2.850e-09
  9.04809     89.2 1.342e+04 2.346e-09
  9.06928     90.0 1.326e+04 1.691e-09
  9.08247     90.5 1.209e+04 8.123e-10
  9.09306     91.2 1.330e+04 1.580e-09
  9.11165     91.4 1.280e+04 1.040e-09
  9.14353     92.2 1.212e+04 7.147e-10
  9.17537     92.6 1.111e+04 4.977e-10
  9.19656     93.4 1.178e+04 6.776e-10
  9.22837     94.2 1.107e+04 5.790e-10
  9.26817     95.5 1.106e+04 6.080e-10
  9.28936     96.2 1.119e+04 6.757e-10
  9.31312     97.5 1.130e+04 7.673e-10
  9.35549     98.9 1.180e+04 1.059e-09
  9.38217    100.0 1.233e+04 1.378e-09
  9.40335    100.5 1.228e+04 1.323e-09
  9.44024    100.8 1.249e+04 1.409e-09
  9.47497    101.1 1.242e+04 1.352e-09
  9.49616    101.7 1.241e+04 1.298e-09
  9.52498    102.0 1.220e+04 1.114e-09
  9.56735    102.4 1.175e+04 8.242e-10
  9.58896    102.7 1.128e+04 5.522e-10
  9.61015    103.5 1.131e+04 6.044e-10
  9.65210    103.9 1.096e+04 4.156e-10
  9.68177    104.1 1.072e+04 3.039e-10
  9.70296    105.0 1.083e+04 3.530e-10
  9.73685    105.4 1.072e+04 2.988e-10
  9.77458    105.8 1.066e+04 2.871e-10
  9.79576    106.6 1.087e+04 3.418e-10
  9.81541    106.9 1.079e+04 3.168e-10
  9.83659    106.8 1.102e+04 4.085e-10
  9.86397    107.3 1.091e+04 3.927e-10
  9.88857    107.9 1.083e+04 3.848e-10
  9.90975    107.8 1.088e+04 4.014e-10
  9.94871    108.3 1.076e+04 3.948e-10
  9.98137    108.8 1.074e+04 3.957e-10
 10.00256    108.2 1.089e+04 4.547e-10
 10.03346    108.5 1.089e+04 4.614e-10
 10.07418    108.9 1.090e+04 4.733e-10
 10.09537    107.9 1.119e+04 6.345e-10
 10.11820    108.4 1.105e+04 6.077e-10
 10.16058    108.9 1.087e+04 5.543e-10
 10.18817    109.6 1.063e+04 4.928e-10
 10.20936    108.9 1.057e+04 4.894e-10
 10.24532    109.8 1.041e+04 4.652e-10
 10.28098    111.0 1.042e+04 4.684e-10
 10.30216    110.6 1.031e+04 4.437e-10
 10.33007    112.0 1.036e+04 4.671e-10
 10.37244    113.4 1.050e+04 5.245e-10
 10.39497    114.8 1.069e+04 6.054e-10
 10.41616    114.4 1.055e+04 5.462e-10
 10.45719    115.8 1.081e+04 6.616e-10
 10.48778    117.2 1.105e+04 7.908e-10
 10.50896    116.3 1.089e+04 6.790e-10
 10.54193    117.6 1.123e+04 8.280e-10
 10.58058    118.8 1.163e+04 1.002e-09
 10.60177    116.9 1.108e+04 6.781e-10
 10.62668    117.5 1.138e+04 8.008e-10
 10.66905    117.7 1.164e+04 9.408e-10
 10.69457    117.6 1.182e+04 1.094e-09
 10.71576    115.7 1.107e+04 8.047e-10
 10.75380    116.0 1.136e+04 9.322e-10
 10.78738    116.1 1.146e+04 9.344e-10
 10.80857    115.2 1.083e+04 5.856e-10
 10.83855    115.2 1.080e+04 5.019e-10
 10.88018    115.1 1.061e+04 3.618e-10
 10.90137    114.5 1.014e+04 2.525e-10
 10.92329    114.6 1.001e+04 1.821e-10
 10.96566    114.7 9.912e+03 1.487e-10
 10.99418    115.2 9.889e+03 1.495e-10
 11.01536    115.6 9.894e+03 1.515e-10
 11.05041    116.5 9.822e+03 1.608e-10
 11.08698    117.6 9.808e+03 1.843e-10
 11.10817    118.0 9.807e+03 2.018e-10
 11.13516    119.2 9.866e+03 2.404e-10
 11.17753    120.5 1.010e+04 2.978e-10
 11.20097    121.5 1.039e+04 3.687e-10
 11.22216    121.7 1.038e+04 4.164e-10
 11.26228    122.9 1.083e+04 5.431e-10
 11.29368    123.3 1.110e+04 6.539e-10
 11.31487    123.9 1.119e+04 7.071e-10
 11.34702    124.5 1.168e+04 9.191e-10
 11.37870    124.7 1.195e+04 1.075e-09
 11.39698    124.9 1.220e+04 1.231e-09
 11.40767    125.0 1.207e+04 1.141e-09
 11.43177    125.6 1.271e+04 1.537e-09
 11.45408    125.7 1.302e+04 1.799e-09
 11.46457    125.6 1.301e+04 1.773e-09
 11.48454    125.7 1.319e+04 1.899e-09
 11.50038    126.0 1.320e+04 1.901e-09
 11.52167    126.2 1.299e+04 1.685e-09
 11.54688    126.6 1.292e+04 1.631e-09
 11.55738    126.4 1.287e+04 1.596e-09
 11.56929    127.0 1.271e+04 1.464e-09
 11.59047    127.6 1.253e+04 1.308e-09
 11.60378    128.3 1.237e+04 1.153e-09
 11.61447    127.8 1.221e+04 1.088e-09
 11.63294    128.5 1.213e+04 1.013e-09
 11.65018    129.3 1.211e+04 9.682e-10
 11.66078    129.0 1.204e+04 9.600e-10
 11.67522    129.8 1.207e+04 9.606e-10
 11.69640    130.5 1.215e+04 9.807e-10
 11.70718    131.3 1.229e+04 1.046e-09
 11.71777    130.8 1.227e+04 9.746e-10
 11.73878    131.6 1.250e+04 1.100e-09
 11.75358    132.5 1.272e+04 1.267e-09
 11.76418    132.0 1.266e+04 1.143e-09
 11.78115    132.9 1.290e+04 1.296e-09
 11.79999    133.8 1.314e+04 1.464e-09
 11.81058    133.1 1.301e+04 1.217e-09
 11.82352    133.8 1.324e+04 1.330e-09
 11.84471    134.5 1.344e+04 1.425e-09
 11.85698    135.2 1.358e+04 1.500e-09
 11.86758    134.0 1.323e+04 1.242e-09
 11.88708    134.5 1.332e+04 1.310e-09
 11.90339    135.0 1.337e+04 1.382e-09
 11.91398    133.9 1.295e+04 1.306e-09
 11.92946    134.3 1.300e+04 1.400e-09
 11.94979    134.6 1.304e+04 1.504e-09
 11.96038    133.8 1.302e+04 1.525e-09
 11.97183    133.9 1.308e+04 1.650e-09
 11.99302    134.0 1.315e+04 1.797e-09
 12.00678    134.0 1.327e+04 1.970e-09
 12.01738    133.1 1.338e+04 2.068e-09
 12.03539    133.0 1.352e+04 2.169e-09
 12.05319    132.8 1.355e+04 2.167e-09
 12.06378    131.8 1.358e+04 2.170e-09
 12.07776    131.8 1.340e+04 1.997e-09
 12.09895    131.8 1.312e+04 1.716e-09
 12.11018    131.6 1.279e+04 1.425e-09
 12.12087    130.3 1.262e+04 1.247e-09
 12.15211    129.5 1.167e+04 7.271e-10
 12.19259    128.6 1.067e+04 4.031e-10
 12.21378    126.2 9.396e+03 1.965e-10
 12.23686    125.1 8.887e+03 1.580e-10
 12.27923    124.8 8.813e+03 1.571e-10
 12.30658    125.1 8.827e+03 1.625e-10
 12.32777    124.1 8.895e+03 1.738e-10
 12.36398    123.8 9.033e+03 1.982e-10
 12.39566    123.1 9.143e+03 2.326e-10
 12.40979    121.7 9.499e+03 3.049e-10
 12.42038    119.2 1.083e+04 4.966e-10
 12.43793    115.6 1.256e+04 9.476e-10
 12.45619    112.1 1.404e+04 1.871e-09
 12.46678    110.0 1.537e+04 3.605e-09
 12.48031    107.6 1.637e+04 5.301e-09
 12.49615    106.3 1.682e+04 5.884e-09
 12.50669    104.8 1.746e+04 6.374e-09
 12.51309    100.7 1.979e+04 7.715e-09
 12.51838     96.2 2.282e+04 9.352e-09
 12.52788     87.4 2.792e+04 1.347e-08
 12.53629     78.3 2.823e+04 1.998e-08
 12.54159     75.5 2.670e+04 2.215e-08
 12.54906     68.6 2.456e+04 2.265e-08
 12.55949     62.8 2.280e+04 2.132e-08
 12.56479     60.7 2.239e+04 2.006e-08
 12.57025     57.7 2.236e+04 1.761e-08
 12.58084     51.8 2.414e+04 1.426e-08
 12.58799     46.9 2.485e+04 1.132e-08
 12.59329     45.4 2.532e+04 1.060e-08
 12.60594     36.4 2.437e+04 7.249e-09
 12.61658     31.2 2.276e+04 5.761e-09
 12.62861     20.2 1.510e+04 3.451e-09
 12.64980     17.7 1.318e+04 2.532e-09
 12.66299     17.0 1.250e+04 1.773e-09
 12.67358     16.8 1.217e+04 1.459e-09
 12.69889     12.4 1.133e+04 7.691e-10
 12.72008     10.5 1.011e+04 4.601e-10
 12.74523      6.0 9.696e+03 3.863e-10
 12.78771      2.5 1.008e+04 5.441e-10
 12.81124      2.1 1.038e+04 6.903e-10
 12.81524      2.6 1.036e+04 7.033e-10
 12.83407      3.2 1.016e+04 6.088e-10
 12.85929      2.4 1.034e+04 7.031e-10
 12.86979      2.9 1.039e+04 7.095e-10
 12.88285      3.4 1.032e+04 7.056e-10
 12.90404      3.9 1.014e+04 6.454e-10
 12.91619      3.7 1.007e+04 6.146e-10
 12.92688      4.1 1.035e+04 7.110e-10
 12.95720      3.9 1.009e+04 5.763e-10
 12.99860      0.5 1.123e+04 7.200e-10
 13.01968     -3.2 1.301e+04 1.524e-09
 13.03116     -6.2 1.392e+04 2.360e-09
 13.05234     -8.6 1.445e+04 3.615e-09
 13.06599    -10.3 1.572e+04 5.270e-09
 13.07658    -10.4 1.643e+04 6.561e-09
 13.09471    -12.6 1.716e+04 6.005e-09
 13.11239    -14.7 1.622e+04 4.198e-09
 13.12299    -15.0 1.515e+04 3.377e-09
 13.13709    -19.6 1.310e+04 1.590e-09
 13.15827    -24.6 1.156e+04 9.017e-10
 13.16939    -26.9 1.141e+04 8.263e-10
 13.17998    -25.4 1.071e+04 6.352e-10
 13.20065    -28.0 1.059e+04 5.668e-10
 13.21579    -30.3 1.258e+04 8.957e-10
 13.22638    -27.9 1.073e+04 4.802e-10
 13.24302    -31.7 1.289e+04 9.349e-10
 13.26219    -33.4 1.404e+04 2.267e-09
 13.27279    -31.6 1.330e+04 1.202e-09
 13.28539    -32.8 1.415e+04 2.636e-09
 13.30658    -32.7 1.470e+04 4.662e-09
 13.31919    -31.3 1.511e+04 6.577e-09
 13.32978    -31.1 1.498e+04 4.708e-09
 13.34895    -30.0 1.519e+04 6.057e-09
 13.36559    -29.0 1.539e+04 6.509e-09
 13.37619    -29.3 1.516e+04 5.543e-09
 13.39133    -28.8 1.549e+04 5.953e-09
 13.41200    -29.5 1.605e+04 5.529e-09
 13.42259    -29.7 1.671e+04 6.743e-09
 13.43370    -32.3 1.801e+04 7.508e-09
 13.45489    -37.2 1.843e+04 7.643e-09
 13.46899    -41.4 1.789e+04 8.068e-09
 13.47959    -40.0 1.865e+04 1.138e-08
 13.49726    -42.4 1.837e+04 1.182e-08
 13.51539    -43.9 1.800e+04 1.147e-08
 13.52599    -43.1 1.890e+04 1.393e-08
 13.53963    -45.3 1.837e+04 9.174e-09
 13.56082    -49.5 1.746e+04 5.173e-09
 13.57239    -55.7 1.552e+04 2.962e-09
 13.58298    -59.3 1.521e+04 3.379e-09
 13.60319    -63.8 1.385e+04 2.790e-09
 13.61879    -66.4 1.360e+04 2.660e-09
 13.62939    -69.3 1.487e+04 3.230e-09
 13.64556    -73.2 1.504e+04 3.127e-09
 13.66520    -77.7 1.554e+04 3.091e-09
 13.67579    -84.6 1.557e+04 3.149e-09
 13.68794    -89.3 1.537e+04 3.144e-09
 13.70912    -93.3 1.529e+04 3.449e-09
 13.72219    -96.7 1.560e+04 3.916e-09
 13.73279   -102.2 1.605e+04 4.039e-09
 13.75150   -105.7 1.632e+04 4.290e-09
 13.76860   -109.2 1.619e+04 4.302e-09
 13.77919   -113.9 1.512e+04 3.683e-09
 13.79387   -116.0 1.454e+04 3.221e-09
 13.81500   -117.6 1.402e+04 2.610e-09
 13.83619   -122.4 1.287e+04 1.371e-09
 13.85743   -124.3 1.212e+04 1.007e-09
 13.87199   -125.8 1.141e+04 7.695e-10
 13.88259   -128.1 1.085e+04 6.357e-10
 13.89980   -128.6 1.052e+04 5.322e-10
 13.91840   -128.8 1.026e+04 4.475e-10
 13.92899   -129.7 1.010e+04 3.909e-10
 13.94218   -129.7 9.951e+03 3.440e-10
 13.97405   -130.1 9.876e+03 3.143e-10
 14.01140   -130.6 9.763e+03 2.851e-10
 14.03258   -132.4 9.501e+03 2.360e-10
 14.05890   -132.6 9.456e+03 2.265e-10
 14.10127   -133.1 9.512e+03 2.273e-10
 14.12539   -133.9 9.873e+03 2.648e-10
 14.14658   -134.9 9.849e+03 2.562e-10
 14.18602   -135.8 1.024e+04 3.355e-10
 14.21820   -136.6 1.058e+04 4.297e-10
 14.23938   -137.2 1.056e+04 4.342e-10
 14.27076   -137.6 1.063e+04 4.693e-10
 14.29862   -137.6 1.049e+04 4.375e-10
 14.30911   -137.6 1.050e+04 4.467e-10
 14.32140   -137.5 1.039e+04 4.347e-10
 14.33209   -137.6 1.032e+04 3.864e-10
 14.35551   -137.3 1.005e+04 3.322e-10
 14.39788   -137.0 9.847e+03 3.039e-10
 14.42499   -136.6 9.693e+03 2.901e-10
 14.44618   -136.1 9.267e+03 1.961e-10
 14.48263   -135.4 9.242e+03 1.949e-10
 14.51780   -135.0 9.242e+03 2.216e-10
 14.53899   -134.3 8.750e+03 1.359e-10
 14.56737   -134.4 9.280e+03 2.458e-10
 14.60975   -134.4 1.020e+04 4.738e-10
 14.63169   -133.8 1.064e+04 6.330e-10
 14.65288   -133.7 1.055e+04 5.644e-10
 14.69449   -133.7 1.116e+04 7.763e-10
 14.72450   -133.9 1.124e+04 7.627e-10
 14.74569   -134.3 1.103e+04 6.233e-10
 14.77924   -136.8 1.146e+04 7.058e-10
 14.81092   -139.4 1.171e+04 7.066e-10
 14.82780   -140.9 1.194e+04 7.550e-10
 14.83849   -140.4 1.184e+04 6.870e-10
 14.86398   -144.2 1.199e+04 7.446e-10
 14.89567   -146.6 1.187e+04 7.477e-10
 14.91676   -147.6 1.159e+04 7.273e-10
 14.93120   -148.9 1.096e+04 5.934e-10
 14.94179   -148.3 1.096e+04 5.664e-10
 14.95913   -148.7 1.055e+04 4.332e-10
 14.99101   -149.2 1.029e+04 3.435e-10
 15.02420   -149.9 1.008e+04 2.936e-10
 15.04539   -149.1 9.831e+03 2.489e-10
 15.07585   -149.2 9.660e+03 2.243e-10
 15.11701   -148.7 9.621e+03 2.201e-10
 15.13819   -147.5 9.410e+03 1.858e-10
 15.16060   -146.4 9.417e+03 1.920e-10
 15.20297   -145.4 9.542e+03 2.111e-10
 15.23100   -144.3 9.655e+03 2.299e-10
 15.25219   -143.0 9.464e+03 1.918e-10
 15.28771   -141.9 9.572e+03 2.126e-10
 15.32380   -141.0 9.777e+03 2.492e-10
 15.34499   -139.5 9.549e+03 2.056e-10
 15.37246   -138.5 9.807e+03 2.554e-10
 15.41483   -137.7 1.018e+04 3.430e-10
 15.43780   -137.0 1.063e+04 4.849e-10
 15.45898   -135.2 1.028e+04 3.699e-10
 15.49958   -134.3 1.071e+04 5.148e-10
 15.53060   -133.5 1.106e+04 6.794e-10
 15.55179   -131.5 1.073e+04 5.322e-10
 15.58433   -130.7 1.111e+04 7.041e-10
 15.62341   -129.9 1.137e+04 8.473e-10
 15.64459   -127.7 1.129e+04 7.798e-10
 15.66907   -127.2 1.175e+04 9.986e-10
 15.69090   -127.9 1.200e+04 1.156e-09
 15.70140   -126.2 1.216e+04 1.232e-09
 15.72184   -126.7 1.227e+04 1.284e-09
 15.73721   -127.4 1.227e+04 1.310e-09
 15.74780   -125.9 1.252e+04 1.448e-09
 15.76422   -126.4 1.248e+04 1.431e-09
 15.78361   -126.8 1.219e+04 1.263e-09
 15.79420   -125.5 1.252e+04 1.444e-09
 15.79649   -125.9 1.222e+04 1.238e-09
 15.80708   -126.4 1.231e+04 1.458e-09
 15.82778   -126.4 1.183e+04 1.163e-09
 15.84060   -126.4 1.139e+04 9.080e-10
 15.85120   -125.4 1.163e+04 1.012e-09
 15.87015   -125.2 1.121e+04 7.859e-10
 15.88701   -125.0 1.088e+04 6.026e-10
 15.89760   -124.1 1.106e+04 6.787e-10
 15.91252   -123.9 1.073e+04 5.195e-10
 15.93341   -123.7 1.046e+04 4.045e-10
 15.94400   -122.8 1.073e+04 5.186e-10
 15.95489   -122.4 1.052e+04 4.331e-10
 15.97608   -122.0 1.039e+04 3.796e-10
 15.99041   -121.4 1.037e+04 3.632e-10
 16.00100   -120.9 1.045e+04 4.084e-10
 16.01845   -120.6 1.042e+04 3.883e-10
 16.03691   -120.2 1.041e+04 3.797e-10
 16.05819   -118.9 1.091e+04 5.617e-10
 16.09280   -118.4 1.126e+04 6.680e-10
 16.12981   -117.9 1.196e+04 1.058e-09
 16.15100   -117.0 1.220e+04 1.214e-09
 16.17755   -116.4 1.265e+04 1.645e-09
 16.21992   -115.7 1.286e+04 1.995e-09
 16.24380   -114.8 1.286e+04 2.168e-09
 16.26499   -113.8 1.293e+04 2.183e-09
 16.29011   -112.9 1.278e+04 2.275e-09
 16.30060   -112.3 1.294e+04 2.321e-09
 16.31507   -111.5 1.308e+04 2.513e-09
 16.33625   -110.8 1.320e+04 2.737e-09
 16.34701   -110.1 1.330e+04 2.910e-09
 16.35760   -109.6 1.353e+04 3.214e-09
 16.37862   -108.9 1.363e+04 3.413e-09
 16.39341   -108.2 1.366e+04 3.462e-09
 16.40400   -107.6 1.402e+04 3.877e-09
 16.42100   -106.9 1.403e+04 3.903e-09
 16.43981   -106.2 1.388e+04 3.729e-09
 16.45040   -105.6 1.418e+04 3.951e-09
 16.46337   -104.8 1.388e+04 3.559e-09
 16.48456   -104.2 1.352e+04 3.108e-09
 16.49681   -103.6 1.323e+04 2.786e-09
 16.50740   -102.8 1.349e+04 2.935e-09
 16.52693   -102.1 1.340e+04 2.833e-09
 16.54321   -101.4 1.341e+04 2.829e-09
 16.55380   -100.7 1.362e+04 2.833e-09
 16.56930   -100.0 1.371e+04 2.998e-09
 16.58961    -99.3 1.386e+04 3.169e-09
 16.60021    -98.7 1.417e+04 3.051e-09
 16.61168    -97.9 1.435e+04 3.306e-09
 16.63286    -97.3 1.455e+04 3.488e-09
 16.64661    -96.7 1.470e+04 3.604e-09
 16.65720    -96.3 1.522e+04 3.855e-09
 16.67524    -95.8 1.561e+04 4.181e-09
 16.69301    -95.4 1.597e+04 4.389e-09
 16.70361    -95.0 1.631e+04 5.001e-09
 16.71761    -94.6 1.675e+04 5.458e-09
 16.73880    -94.5 1.693e+04 5.578e-09
 16.75001    -94.5 1.720e+04 5.201e-09
 16.76060    -94.5 1.693e+04 6.379e-09
 16.78117    -94.6 1.687e+04 6.249e-09
 16.79641    -94.5 1.648e+04 5.193e-09
 16.80700    -94.4 1.611e+04 6.750e-09
 16.82354    -94.4 1.563e+04 5.738e-09
 16.84281    -94.3 1.520e+04 4.471e-09
 16.85341    -94.0 1.518e+04 6.412e-09
 16.86591    -94.0 1.487e+04 5.221e-09
 16.88710    -94.0 1.452e+04 3.948e-09
 16.89981    -94.4 1.418e+04 3.013e-09
 16.91040    -93.4 1.431e+04 4.262e-09
 16.92947    -94.0 1.394e+04 3.438e-09
 16.94621    -94.5 1.348e+04 2.929e-09
 16.95681    -92.9 1.373e+04 3.256e-09
 16.97185    -93.3 1.329e+04 2.801e-09
 16.99262    -93.4 1.287e+04 2.391e-09
 17.00321    -92.2 1.315e+04 2.055e-09
 17.01422    -92.2 1.271e+04 1.616e-09
 17.03541    -92.3 1.231e+04 1.250e-09
 17.04961    -92.7 1.192e+04 9.747e-10
 17.06020    -92.9 1.171e+04 7.021e-10
 17.07778    -93.3 1.127e+04 5.808e-10
 17.09601    -93.5 1.095e+04 5.214e-10
 17.10661    -93.5 1.056e+04 4.461e-10
 17.12015    -93.4 1.050e+04 4.378e-10
 17.14134    -93.2 1.049e+04 4.368e-10
 17.15301    -93.1 1.045e+04 4.599e-10
 17.16360    -92.8 1.025e+04 4.290e-10
 17.18371    -92.9 1.035e+04 4.801e-10
 17.19941    -92.9 1.047e+04 5.456e-10
 17.21001    -92.7 1.042e+04 5.332e-10
 17.22609    -93.0 1.060e+04 6.178e-10
 17.24582    -93.1 1.079e+04 7.214e-10
 17.25641    -93.2 1.089e+04 7.262e-10
 17.26846    -93.4 1.109e+04 8.582e-10
 17.28386    -93.5 1.125e+04 9.832e-10
 17.29446    -93.9 1.122e+04 9.716e-10
 17.30281    -93.9 1.130e+04 1.045e-09
 17.31341    -94.1 1.127e+04 9.930e-10
 17.33202    -94.1 1.127e+04 1.003e-09
 17.34921    -94.1 1.112e+04 9.957e-10
 17.35981    -93.9 1.071e+04 8.283e-10
 17.37439    -93.3 1.037e+04 7.136e-10
 17.39558    -92.5 1.000e+04 5.750e-10
 17.41676    -91.6 9.625e+03 4.107e-10
 17.44212    -90.9 9.536e+03 3.889e-10
 17.46340    -91.8 9.072e+03 2.220e-10
 17.49111    -90.3 8.592e+03 1.598e-10
 17.53349    -88.7 8.281e+03 1.311e-10
 17.55621    -87.1 8.083e+03 1.183e-10
 17.57739    -87.3 7.910e+03 8.767e-11
 17.61823    -85.3 7.785e+03 8.253e-11
 17.64901    -83.3 7.680e+03 7.887e-11
 17.67020    -82.9 7.818e+03 8.069e-11
 17.70298    -80.7 7.693e+03 7.431e-11
 17.74182    -78.6 7.669e+03 7.315e-11
 17.76301    -78.4 8.036e+03 9.355e-11
 17.78772    -77.2 8.063e+03 9.335e-11
 17.83010    -76.9 8.055e+03 1.119e-10
 17.85581    -77.3 9.034e+03 2.690e-10
 17.87700    -76.2 9.530e+03 3.448e-10
 17.91484    -75.9 1.045e+04 6.305e-10
 17.94862    -76.0 1.132e+04 1.031e-09
 17.96971    -75.1 1.109e+04 8.445e-10
 17.98880    -75.8 1.149e+04 9.932e-10
 18.00542    -76.5 1.175e+04 1.075e-09
 18.01601    -76.1 1.168e+04 1.058e-09
 18.03117    -77.1 1.181e+04 1.084e-09
 18.05182    -78.3 1.186e+04 1.064e-09
 18.06241    -76.8 1.167e+04 1.093e-09
 18.07355    -78.3 1.165e+04 1.102e-09
 18.09473    -79.2 1.144e+04 1.054e-09
 18.10882    -79.6 1.105e+04 8.530e-10
 18.11941    -77.9 1.126e+04 9.494e-10
 18.13711    -79.0 1.121e+04 7.972e-10
 18.15522    -84.4 1.189e+04 7.767e-10
 18.16581    -87.1 1.341e+04 9.939e-10
 18.17948   -100.5 1.903e+04 1.879e-09
 18.20067   -105.8 1.950e+04 1.219e-08
 18.21217   -106.1 2.017e+04 4.000e-08
 18.21741   -105.3 2.039e+04 4.319e-08
 18.22705   -105.2 2.169e+04 6.737e-08
 18.23532   -106.4 2.270e+04 8.075e-08
 18.24062   -105.3 2.230e+04 6.376e-08
 18.24824   -107.3 2.277e+04 6.442e-08
 18.25852   -109.7 2.453e+04 4.926e-08
 18.26382   -109.4 2.460e+04 3.418e-08
 18.26942   -113.9 2.631e+04 2.201e-08
 18.28002   -120.5 2.527e+04 1.496e-08
 18.28702   -126.9 2.265e+04 1.142e-08
 18.29232   -128.8 2.097e+04 1.043e-08
 18.30120   -132.4 1.995e+04 1.013e-08
 18.31022   -134.2 1.962e+04 1.017e-08
 18.31552   -133.4 1.889e+04 1.196e-08
 18.32239   -134.5 1.889e+04 1.310e-08
 18.33298   -135.5 1.888e+04 1.341e-08
 18.33872   -136.7 1.886e+04 1.343e-08
 18.34402   -136.6 1.914e+04 1.393e-08
 18.35417   -137.7 1.888e+04 1.335e-08
 18.36192   -138.9 1.855e+04 1.235e-08
 18.37256   -138.1 1.911e+04 1.559e-08
 18.39134   -141.7 1.820e+04 9.913e-09
 18.40842   -146.5 1.705e+04 5.621e-09
 18.41896   -148.3 1.753e+04 4.959e-09
 18.43367   -152.8 1.675e+04 3.966e-09
 18.45482   -157.3 1.589e+04 3.440e-09
 18.47601   -164.6 1.422e+04 3.232e-09
 18.49728   -166.4 1.358e+04 2.790e-09
 18.51182   -167.2 1.291e+04 2.304e-09
 18.52241   -167.8 1.280e+04 2.096e-09
 18.53965   -168.3 1.226e+04 1.592e-09
 18.55822   -168.9 1.181e+04 1.205e-09
 18.56882   -170.6 1.163e+04 8.936e-10
 18.58202   -171.3 1.119e+04 6.952e-10
 18.60321   -171.5 1.079e+04 5.722e-10
 18.61522   -171.3 1.050e+04 5.026e-10
 18.62581   -172.7 1.027e+04 4.470e-10
 18.64558   -172.2 1.025e+04 4.431e-10
 18.66162   -171.7 1.025e+04 4.476e-10
 18.67221   -172.8 1.031e+04 4.840e-10
 18.68796   -172.2 1.041e+04 5.340e-10
 18.70802   -171.6 1.045e+04 5.761e-10
 18.71862   -172.3 1.074e+04 7.099e-10
 18.73033   -171.5 1.071e+04 7.277e-10
 18.75151   -170.7 1.067e+04 7.309e-10
 18.76502   -169.8 1.050e+04 7.056e-10
 18.77415   -169.9 1.066e+04 7.776e-10
 18.78183   -169.3 1.063e+04 7.683e-10
 18.79389   -168.4 1.044e+04 7.014e-10
 18.81142   -167.5 1.025e+04 6.308e-10
 18.82202   -167.5 1.038e+04 6.720e-10
 18.83626   -166.8 1.024e+04 6.059e-10
 18.85745   -166.2 1.020e+04 5.761e-10
 18.86842   -165.9 1.020e+04 5.716e-10
 18.87901   -166.7 1.044e+04 6.077e-10
 18.89982   -167.0 1.060e+04 6.099e-10
 18.91482   -167.7 1.111e+04 6.746e-10
 18.92542   -168.9 1.160e+04 8.180e-10
 18.94219   -169.7 1.194e+04 1.010e-09
 18.96122   -170.3 1.226e+04 1.250e-09
 18.97182   -170.8 1.230e+04 1.442e-09
 18.98457   -171.5 1.245e+04 1.573e-09
 19.00575   -172.6 1.250e+04 1.605e-09
 19.01822   -173.8 1.246e+04 1.597e-09
 19.02881   -173.9 1.235e+04 1.594e-09
 19.04813   -175.1 1.210e+04 1.411e-09
 19.06462   -176.4 1.174e+04 1.201e-09
 19.07522   -176.5 1.177e+04 1.201e-09
 19.09050   -177.6 1.141e+04 1.044e-09
 19.11103   -178.4 1.127e+04 9.822e-10
 19.12162   -178.5 1.128e+04 9.766e-10
 19.13287   -179.5 1.127e+04 9.664e-10
 19.15406   -181.3 1.140e+04 9.802e-10
 19.16802   -184.1 1.245e+04 1.207e-09
 19.17862   -184.1 1.223e+04 1.112e-09
 19.19643   -186.7 1.360e+04 1.721e-09
 19.21443   -188.8 1.473e+04 2.809e-09
 19.22502   -188.9 1.407e+04 2.061e-09
 19.23880   -190.8 1.479e+04 2.874e-09
 19.25999   -192.6 1.517e+04 3.557e-09
 19.27142   -194.4 1.526e+04 3.846e-09
 19.28201   -195.6 1.442e+04 2.584e-09
 19.30236   -197.2 1.442e+04 2.611e-09
 19.31782   -198.7 1.420e+04 2.544e-09
 19.32842   -199.8 1.325e+04 1.841e-09
 19.34474   -200.9 1.291e+04 1.673e-09
 19.36423   -201.7 1.255e+04 1.469e-09
 19.37482   -202.0 1.199e+04 1.207e-09
 19.38711   -202.5 1.182e+04 1.109e-09
 19.40830   -202.8 1.179e+04 1.084e-09
 19.42122   -203.0 1.180e+04 1.083e-09
 19.43182   -202.9 1.149e+04 9.506e-10
 19.45067   -203.0 1.169e+04 9.893e-10
 19.46763   -203.2 1.222e+04 1.173e-09
 19.47822   -203.1 1.195e+04 1.022e-09
 19.49304   -203.3 1.256e+04 1.311e-09
 19.51403   -203.3 1.311e+04 1.702e-09
 19.52462   -203.2 1.298e+04 1.587e-09
 19.53542   -203.0 1.346e+04 2.055e-09
 19.55660   -202.7 1.379e+04 2.511e-09
 19.57103   -202.4 1.392e+04 2.831e-09
 19.58162   -201.7 1.406e+04 2.866e-09
 19.59898   -201.2 1.414e+04 3.090e-09
 19.61743   -200.9 1.413e+04 3.158e-09
 19.62802   -199.9 1.428e+04 3.239e-09
 19.64135   -199.5 1.427e+04 3.256e-09
 19.66253   -199.2 1.414e+04 3.210e-09
 19.67442   -198.9 1.394e+04 3.021e-09
 19.68502   -198.2 1.411e+04 3.004e-09
 19.70491   -198.1 1.392e+04 2.817e-09
 19.72083   -198.0 1.371e+04 2.595e-09
 19.73142   -197.8 1.402e+04 2.766e-09
 19.74728   -197.8 1.376e+04 2.578e-09
 19.76723   -197.9 1.353e+04 2.392e-09
 19.77782   -197.9 1.396e+04 2.797e-09
 19.78965   -198.0 1.363e+04 2.615e-09
 19.81084   -198.0 1.346e+04 2.530e-09
 19.82423   -198.1 1.342e+04 2.513e-09
 19.83482   -198.6 1.371e+04 3.045e-09
 19.85321   -198.8 1.366e+04 3.069e-09
 19.87063   -199.1 1.375e+04 3.351e-09
 19.88122   -199.3 1.416e+04 3.969e-09
 19.89559   -199.5 1.431e+04 4.231e-09
 19.91677   -199.9 1.444e+04 4.322e-09
 19.92762   -200.3 1.445e+04 4.323e-09
 19.93822   -200.1 1.436e+04 4.164e-09
 19.95915   -200.3 1.411e+04 3.525e-09
 19.97403   -200.9 1.370e+04 2.823e-09
 19.98462   -200.9 1.326e+04 2.202e-09
 20.00152   -201.8 1.265e+04 1.745e-09
 20.02043   -202.7 1.202e+04 1.405e-09
 20.03102   -202.6 1.167e+04 1.190e-09
 20.04389   -203.0 1.124e+04 1.040e-09
 20.06508   -203.0 1.090e+04 9.244e-10
 20.07743   -202.8 1.058e+04 8.158e-10
 20.08802   -202.2 1.063e+04 8.123e-10
 20.10745   -201.7 1.033e+04 7.035e-10
 20.12383   -201.0 9.999e+03 5.821e-10
 20.13442   -200.3 1.019e+04 6.150e-10
 20.14982   -199.3 9.838e+03 4.968e-10
 20.17023   -198.3 9.494e+03 3.965e-10
 20.18083   -197.7 9.862e+03 4.524e-10
 20.19220   -196.5 9.594e+03 3.745e-10
 20.21338   -195.5 9.444e+03 3.336e-10
 20.24526   -194.8 9.346e+03 3.036e-10
 20.27383   -193.2 9.003e+03 2.483e-10
 20.29501   -191.5 9.592e+03 3.148e-10
 20.33011   -189.6 9.204e+03 2.528e-10
 20.36663   -187.2 8.957e+03 2.218e-10
 20.38782   -185.9 9.442e+03 2.654e-10
 20.41485   -183.7 9.220e+03 2.309e-10
 20.45722   -181.2 9.165e+03 2.243e-10
 20.48062   -179.1 9.173e+03 2.257e-10
 20.50181   -177.9 9.452e+03 2.294e-10
 20.54197   -176.1 9.503e+03 2.317e-10
 20.57343   -175.2 1.032e+04 3.257e-10
 20.59462   -173.4 9.779e+03 2.739e-10
 20.62672   -172.6 1.068e+04 3.854e-10
 20.66624   -171.9 1.167e+04 7.004e-10
 20.68742   -169.8 1.083e+04 5.431e-10
 20.71146   -168.9 1.177e+04 8.904e-10
 20.75384   -167.9 1.252e+04 1.399e-09
 20.78013   -165.9 1.266e+04 1.650e-09
 20.80132   -164.7 1.246e+04 1.455e-09
 20.82653   -163.6 1.290e+04 1.953e-09
 20.83703   -162.5 1.255e+04 1.607e-09
 20.84898   -161.8 1.281e+04 1.914e-09
 20.87017   -161.0 1.305e+04 2.169e-09
 20.88343   -160.4 1.328e+04 2.279e-09
 20.89402   -159.7 1.310e+04 2.213e-09
 20.91254   -159.2 1.340e+04 2.353e-09
 20.92983   -158.8 1.358e+04 2.371e-09
 20.94043   -158.0 1.356e+04 2.445e-09
 20.95491   -157.7 1.380e+04 2.498e-09
 20.97610   -157.8 1.387e+04 2.455e-09
 20.98683   -158.1 1.407e+04 2.215e-09
 20.99742   -157.4 1.398e+04 2.406e-09
 21.01847   -157.9 1.419e+04 2.177e-09
 21.03323   -161.2 1.693e+04 1.970e-09
 21.04383   -157.9 1.423e+04 1.985e-09
 21.06084   -164.3 2.592e+04 1.497e-09
 21.07669   -171.6 4.979e+04 1.089e-09
 21.08483   -180.4 3.736e+04 7.862e-09
 21.09018   -176.1 4.814e+04 1.448e-09
 21.09787   -186.1 3.231e+04 2.898e-08
 21.10804   -189.0 2.477e+04 1.738e-07
 21.11333   -189.6 2.424e+04 2.142e-07
 21.11901   -191.7 2.176e+04 6.778e-07
 21.12960   -194.3 2.133e+04 1.072e-06
 21.13653   -199.2 2.141e+04 1.143e-06
 21.14183   -199.6 2.088e+04 1.529e-06
 21.15079   -205.8 2.145e+04 1.155e-06
 21.15974   -214.4 2.248e+04 3.015e-07
 21.16503   -212.6 2.236e+04 3.769e-07
 21.17198   -221.3 2.259e+04 5.044e-08
 21.18257   -227.8 1.907e+04 9.553e-09
 21.18823   -229.6 1.668e+04 5.402e-09
 21.19353   -228.8 1.728e+04 5.543e-09
 21.20376   -229.2 1.602e+04 4.513e-09
 21.21144   -229.2 1.570e+04 4.266e-09
 21.21673   -228.8 1.577e+04 4.110e-09
 21.22494   -228.7 1.563e+04 4.021e-09
 21.23464   -228.5 1.559e+04 3.965e-09
 21.23993   -227.6 1.550e+04 3.563e-09
 21.25147   -227.4 1.543e+04 3.421e-09
 21.27271   -227.1 1.497e+04 3.045e-09
 21.28643   -226.7 1.427e+04 2.646e-09
 21.29703   -225.6 1.425e+04 2.378e-09
 21.31508   -225.3 1.364e+04 2.142e-09
 21.33284   -225.0 1.318e+04 1.970e-09
 21.34343   -224.1 1.321e+04 1.850e-09
 21.35746   -223.8 1.288e+04 1.741e-09
 21.37864   -223.2 1.258e+04 1.627e-09
 21.38983   -222.6 1.230e+04 1.507e-09
 21.40043   -222.0 1.242e+04 1.541e-09
 21.42102   -221.5 1.218e+04 1.438e-09
 21.43624   -220.9 1.196e+04 1.335e-09
 21.44683   -220.4 1.211e+04 1.439e-09
 21.46339   -219.9 1.189e+04 1.345e-09
 21.48264   -219.3 1.169e+04 1.245e-09
 21.49323   -218.8 1.183e+04 1.384e-09
 21.50576   -218.2 1.164e+04 1.282e-09
 21.52695   -217.5 1.144e+04 1.169e-09
 21.53963   -216.8 1.126e+04 1.049e-09
 21.55023   -216.3 1.145e+04 1.212e-09
 21.56932   -215.5 1.129e+04 1.098e-09
 21.58604   -214.8 1.116e+04 9.882e-10
 21.59663   -214.3 1.136e+04 1.171e-09
 21.61169   -213.5 1.124e+04 1.078e-09
 21.63244   -212.7 1.115e+04 9.909e-10
 21.64303   -212.2 1.136e+04 1.199e-09
 21.65407   -211.4 1.128e+04 1.128e-09
 21.67525   -210.6 1.121e+04 1.045e-09
 21.68944   -209.8 1.112e+04 9.476e-10
 21.70003   -209.2 1.132e+04 1.163e-09
 21.71763   -208.5 1.120e+04 1.051e-09
 21.73584   -207.8 1.105e+04 9.226e-10
 21.74643   -207.2 1.122e+04 1.104e-09
 21.75658   -206.5 1.107e+04 9.671e-10
 21.76717   -206.4 1.126e+04 9.930e-10
 21.78119   -205.9 1.106e+04 8.445e-10
 21.79284   -205.6 1.087e+04 7.278e-10
 21.80343   -204.8 1.103e+04 8.525e-10
 21.82356   -204.6 1.089e+04 7.401e-10
 21.83924   -204.4 1.077e+04 6.663e-10
 21.84983   -203.7 1.094e+04 7.432e-10
 21.86593   -203.7 1.087e+04 6.868e-10
 21.88564   -203.7 1.085e+04 6.633e-10
 21.89623   -203.2 1.105e+04 7.329e-10
 21.90831   -203.3 1.105e+04 7.241e-10
 21.92949   -203.6 1.104e+04 7.207e-10
 21.94264   -203.8 1.097e+04 7.135e-10
 21.95323   -203.5 1.117e+04 8.025e-10
 21.97187   -203.7 1.100e+04 7.613e-10
 21.98904   -203.8 1.085e+04 6.957e-10
 21.99963   -203.8 1.135e+04 8.727e-10
 22.01424   -205.6 1.150e+04 8.540e-10
 22.03542   -209.3 1.358e+04 8.775e-10
 22.05661   -217.8 1.706e+04 3.569e-09
 22.07780   -219.9 1.699e+04 5.809e-09
 22.09244   -220.7 1.705e+04 8.382e-09
 22.10303   -221.7 1.780e+04 1.171e-08
 22.12017   -221.9 1.781e+04 1.200e-08
 22.13884   -222.1 1.775e+04 1.091e-08
 22.14943   -223.7 1.749e+04 8.386e-09
 22.16254   -224.5 1.701e+04 6.048e-09
 22.18373   -225.8 1.626e+04 4.283e-09
 22.19584   -227.4 1.517e+04 3.009e-09
 22.20643   -230.3 1.310e+04 1.743e-09
 22.22610   -231.2 1.212e+04 1.340e-09
 22.24224   -231.5 1.173e+04 1.106e-09
 22.25283   -232.3 1.155e+04 8.578e-10
 22.26848   -232.1 1.148e+04 7.514e-10
 22.28864   -232.0 1.133e+04 6.584e-10
 22.29924   -232.7 1.119e+04 6.076e-10
 22.31085   -232.4 1.102e+04 5.639e-10
 22.33204   -232.0 1.089e+04 5.312e-10
 22.34564   -231.4 1.084e+04 5.108e-10
 22.35623   -231.5 1.088e+04 5.176e-10
 22.37441   -230.6 1.090e+04 5.146e-10
 22.39204   -229.8 1.091e+04 5.135e-10
 22.40264   -229.7 1.089e+04 5.121e-10
 22.41678   -228.8 1.087e+04 5.078e-10
 22.43797   -227.8 1.085e+04 4.986e-10
 22.44904   -226.7 1.083e+04 4.833e-10
 22.45963   -226.4 1.074e+04 4.586e-10
 22.48034   -225.3 1.076e+04 4.398e-10
 22.49544   -224.2 1.080e+04 4.242e-10
 22.50603   -224.1 1.075e+04 4.180e-10
 22.52271   -223.1 1.078e+04 4.097e-10
 22.54184   -222.1 1.083e+04 4.037e-10
 22.55244   -221.9 1.083e+04 4.094e-10
 22.56509   -221.0 1.087e+04 4.143e-10
 22.58627   -220.0 1.092e+04 4.274e-10
 22.59884   -219.0 1.097e+04 4.451e-10
 22.60943   -218.6 1.097e+04 4.719e-10
 22.62865   -217.5 1.104e+04 5.014e-10
 22.66052   -216.3 1.112e+04 5.303e-10
 22.69184   -213.5 1.107e+04 5.305e-10
 22.71303   -213.1 1.099e+04 5.389e-10
 22.74537   -210.6 1.094e+04 5.012e-10
 22.78465   -208.0 1.089e+04 4.670e-10
 22.80583   -207.3 1.071e+04 4.350e-10
 22.83011   -204.8 1.063e+04 3.969e-10
 22.87249   -202.4 1.059e+04 3.671e-10
 22.89864   -200.1 1.057e+04 3.428e-10
 22.91983   -199.5 1.037e+04 3.024e-10
 22.95723   -197.3 1.035e+04 2.787e-10
 22.99144   -195.0 1.035e+04 2.621e-10
 23.01263   -194.4 1.019e+04 2.531e-10
 23.04198   -192.2 1.021e+04 2.483e-10
 23.08425   -190.0 1.021e+04 2.478e-10
 23.12662   -187.7 1.048e+04 2.674e-10
 23.16910   -185.9 1.078e+04 3.324e-10
 23.19824   -184.2 1.107e+04 4.423e-10
 23.21943   -184.0 1.104e+04 4.596e-10
 23.25384   -182.4 1.130e+04 5.602e-10
 23.29105   -180.9 1.154e+04 6.413e-10
 23.31223   -180.7 1.129e+04 5.211e-10
 23.33859   -179.4 1.137e+04 5.224e-10
 23.38096   -178.2 1.147e+04 4.970e-10
 23.40504   -177.2 1.150e+04 4.613e-10
 23.42623   -177.1 1.119e+04 3.600e-10
 23.46571   -176.3 1.123e+04 3.574e-10
 23.49785   -175.7 1.144e+04 3.727e-10
 23.51903   -175.4 1.146e+04 3.841e-10
 23.55046   -175.0 1.167e+04 4.179e-10
 23.59065   -174.8 1.177e+04 4.397e-10
 23.61184   -174.7 1.190e+04 5.123e-10
 23.63520   -174.7 1.192e+04 5.186e-10
 23.67758   -174.6 1.186e+04 4.766e-10
 23.70464   -174.2 1.166e+04 3.848e-10
 23.72583   -174.3 1.182e+04 4.741e-10
 23.76232   -173.9 1.153e+04 3.646e-10
 23.79745   -173.4 1.125e+04 2.839e-10
 23.81864   -173.7 1.138e+04 3.620e-10
 23.84707   -173.1 1.112e+04 2.937e-10
 23.88944   -172.4 1.092e+04 2.468e-10
 23.91144   -171.4 1.075e+04 2.105e-10
 23.93263   -171.6 1.081e+04 2.438e-10
 23.97419   -170.4 1.063e+04 1.990e-10
 24.00425   -169.0 1.048e+04 1.624e-10
 24.02543   -169.0 1.054e+04 1.780e-10
 24.05893   -167.5 1.040e+04 1.456e-10
 24.09705   -165.9 1.029e+04 1.220e-10
 24.11824   -165.9 1.033e+04 1.398e-10
 24.14368   -164.3 1.024e+04 1.222e-10
 24.18605   -162.5 1.019e+04 1.108e-10
 24.21105   -160.8 1.015e+04 1.038e-10
 24.23223   -160.6 1.017e+04 1.209e-10
 24.27080   -158.7 1.014e+04 1.140e-10
 24.30385   -156.9 1.012e+04 1.082e-10
 24.32504   -156.6 1.013e+04 1.196e-10
 24.35554   -154.8 1.013e+04 1.126e-10
 24.39666   -153.0 1.013e+04 1.071e-10
 24.41784   -152.8 1.017e+04 1.179e-10
 24.44029   -151.1 1.020e+04 1.154e-10
 24.48266   -149.5 1.021e+04 1.151e-10
 24.51065   -147.9 1.024e+04 1.189e-10
 24.53184   -147.8 1.028e+04 1.396e-10
 24.56741   -146.2 1.029e+04 1.441e-10
 24.60345   -144.6 1.031e+04 1.519e-10
 24.62464   -144.4 1.031e+04 1.678e-10
 24.65215   -142.7 1.032e+04 1.688e-10
 24.69453   -140.9 1.036e+04 1.705e-10
 24.71745   -139.1 1.040e+04 1.714e-10
 24.73325   -138.9 1.038e+04 1.578e-10
 24.75271   -138.3 1.029e+04 1.625e-10
 24.77927   -136.5 1.036e+04 1.602e-10
 24.81025   -134.8 1.038e+04 1.518e-10
 24.83144   -134.6 1.038e+04 1.507e-10
 24.86402   -132.9 1.039e+04 1.359e-10
 24.90306   -131.1 1.041e+04 1.212e-10
 24.92424   -131.1 1.041e+04 1.306e-10
 24.94877   -129.3 1.042e+04 1.233e-10
 24.99114   -127.6 1.043e+04 1.216e-10
 25.01705   -125.8 1.055e+04 1.336e-10
 25.03824   -125.5 1.096e+04 2.019e-10
 25.07589   -124.0 1.113e+04 2.497e-10
 25.10986   -122.7 1.124e+04 3.266e-10
 25.13094   -123.7 1.148e+04 5.460e-10
 25.14984   -122.8 1.143e+04 6.339e-10
 25.16666   -122.1 1.142e+04 6.756e-10
 25.17725   -122.7 1.155e+04 9.098e-10
 25.19222   -121.7 1.156e+04 8.525e-10
 25.21306   -120.8 1.160e+04 7.563e-10
 25.22365   -121.8 1.196e+04 7.623e-10
 25.23459   -121.4 1.195e+04 6.487e-10
 25.25578   -121.2 1.188e+04 5.642e-10
 25.27006   -120.9 1.175e+04 5.086e-10
 25.28065   -122.7 1.166e+04 6.193e-10
 25.29815   -121.9 1.149e+04 6.159e-10
 25.31646   -121.0 1.139e+04 6.176e-10
 25.32705   -121.7 1.144e+04 7.376e-10
 25.34052   -120.6 1.140e+04 7.160e-10
 25.36171   -119.6 1.134e+04 6.837e-10
 25.37345   -118.6 1.125e+04 6.518e-10
 25.38405   -119.0 1.121e+04 6.538e-10
 25.40936   -117.5 1.112e+04 6.118e-10
 25.43065   -118.7 1.091e+04 5.316e-10
 25.45724   -116.4 1.080e+04 4.928e-10
 25.49962   -114.2 1.076e+04 4.834e-10
 25.52345   -112.1 1.075e+04 4.806e-10
 25.54464   -114.2 1.056e+04 4.230e-10
 25.58436   -112.3 1.060e+04 4.602e-10
 25.61626   -110.4 1.067e+04 4.977e-10
 25.63744   -112.8 1.058e+04 4.945e-10
 25.66911   -111.0 1.063e+04 5.268e-10
 25.70906   -109.4 1.071e+04 5.605e-10
 25.73025   -112.3 1.066e+04 5.613e-10
 25.75385   -111.4 1.091e+04 6.281e-10
 25.79623   -111.0 1.130e+04 7.896e-10
 25.82306   -110.8 1.176e+04 1.063e-09
 25.84424   -114.0 1.150e+04 9.727e-10
 25.88097   -113.5 1.173e+04 1.172e-09
 25.91586   -113.1 1.185e+04 1.240e-09
 25.93705   -115.8 1.093e+04 7.390e-10
 25.96572   -115.7 1.093e+04 7.267e-10
 26.00809   -115.9 1.092e+04 7.163e-10
 26.02985   -116.2 1.098e+04 7.894e-10
 26.05104   -118.0 1.091e+04 7.839e-10
 26.09284   -117.7 1.147e+04 1.094e-09
 26.12266   -117.3 1.204e+04 1.477e-09
 26.14385   -118.2 1.162e+04 1.212e-09
 26.16689   -117.2 1.185e+04 1.404e-09
 26.17946   -116.8 1.186e+04 1.440e-09
 26.19005   -117.1 1.155e+04 1.225e-09
 26.20917   -116.9 1.156e+04 1.235e-09
 26.22586   -118.3 1.279e+04 1.372e-09
 26.23539   -124.9 1.708e+04 2.256e-09
 26.23989   -128.4 1.920e+04 3.426e-09
 26.25154   -132.2 2.013e+04 1.031e-08
 26.26738   -133.1 1.985e+04 2.121e-08
 26.27746   -133.2 1.986e+04 3.056e-08
 26.28276   -132.9 2.006e+04 3.643e-08
 26.28852   -132.8 2.024e+04 4.204e-08
 26.29911   -132.7 2.030e+04 4.379e-08
 26.30596   -132.6 2.030e+04 4.385e-08
 26.31126   -132.7 2.053e+04 3.545e-08
 26.32030   -132.6 2.083e+04 2.766e-08
 26.32916   -132.8 2.109e+04 2.040e-08
 26.33446   -135.8 2.054e+04 1.136e-08
 26.34149   -138.4 1.942e+04 7.551e-09
 26.35743   -141.9 1.769e+04 4.709e-09
 26.37566   -147.5 1.361e+04 2.280e-09
 26.38626   -150.1 1.175e+04 1.545e-09
 26.39985   -150.5 1.135e+04 1.393e-09
 26.42103   -150.4 1.108e+04 1.275e-09
 26.43266   -150.0 1.083e+04 1.169e-09
 26.44325   -149.6 1.070e+04 1.073e-09
 26.46341   -149.1 1.049e+04 9.718e-10
 26.47906   -148.6 1.027e+04 8.702e-10
 26.48966   -148.2 1.004e+04 7.176e-10
 26.50578   -147.5 9.833e+03 6.282e-10
 26.52547   -146.7 9.654e+03 5.478e-10
 26.53606   -146.3 9.418e+03 4.181e-10
 26.54815   -145.7 9.322e+03 3.764e-10
 26.56934   -145.1 9.266e+03 3.511e-10
 26.58246   -144.5 9.230e+03 3.278e-10
 26.59306   -144.5 9.155e+03 3.046e-10
 26.61171   -144.0 9.157e+03 2.981e-10
 26.62886   -143.3 9.173e+03 2.952e-10
 26.63946   -144.2 9.194e+03 2.823e-10
 26.65409   -144.0 9.392e+03 2.949e-10
 26.67527   -143.9 9.675e+03 3.319e-10
 26.69645   -144.9 1.011e+04 4.856e-10
 26.71764   -144.9 1.043e+04 6.524e-10
 26.73226   -144.6 1.074e+04 8.235e-10
 26.74286   -145.0 1.107e+04 1.108e-09
 26.76002   -144.7 1.138e+04 1.299e-09
 26.77867   -144.4 1.165e+04 1.471e-09
 26.78926   -144.7 1.186e+04 1.651e-09
 26.80239   -144.6 1.198e+04 1.717e-09
 26.82358   -144.6 1.201e+04 1.730e-09
 26.83566   -144.6 1.201e+04 1.729e-09
 26.84626   -144.8 1.196e+04 1.707e-09
 26.86595   -144.6 1.182e+04 1.577e-09
 26.88207   -144.3 1.158e+04 1.379e-09
 26.89266   -144.4 1.141e+04 1.257e-09
 26.90832   -144.3 1.119e+04 1.104e-09
 26.92847   -143.9 1.084e+04 9.023e-10
 26.93906   -144.4 1.049e+04 7.277e-10
 26.95070   -143.9 1.030e+04 6.369e-10
 26.97188   -143.1 1.004e+04 5.260e-10
 26.98546   -142.4 9.904e+03 4.567e-10
 26.99606   -142.4 9.867e+03 4.413e-10
 27.02137   -141.6 9.767e+03 3.829e-10
 27.04266   -142.0 9.562e+03 3.247e-10
 27.06742   -140.1 9.360e+03 2.640e-10
 27.10979   -138.1 9.185e+03 2.161e-10
 27.13546   -136.0 9.076e+03 1.874e-10
 27.15665   -135.9 8.931e+03 1.663e-10
 27.19454   -133.8 8.941e+03 1.599e-10
 27.22827   -131.7 8.947e+03 1.591e-10
 27.24945   -131.6 8.846e+03 1.476e-10
 27.27928   -129.8 8.919e+03 1.489e-10
 27.32107   -128.2 9.230e+03 1.786e-10
 27.34226   -128.3 9.163e+03 1.687e-10
 27.36403   -126.9 9.514e+03 2.374e-10
 27.40640   -125.4 9.913e+03 3.519e-10
 27.43506   -123.9 1.028e+04 4.867e-10
 27.45625   -124.3 1.029e+04 5.105e-10
 27.49115   -122.9 1.057e+04 6.164e-10
 27.52787   -121.5 1.064e+04 6.429e-10
 27.54906   -121.8 1.057e+04 6.326e-10
 27.57589   -120.2 1.060e+04 6.332e-10
 27.61827   -118.4 1.064e+04 6.155e-10
 27.64186   -116.7 1.071e+04 6.163e-10
 27.66305   -117.5 1.086e+04 6.095e-10
 27.70301   -116.0 1.125e+04 7.825e-10
 27.72746   -114.4 1.171e+04 1.027e-09
 27.73792   -114.7 1.239e+04 1.543e-09
 27.75585   -115.7 1.188e+04 1.135e-09
 27.78776   -114.1 1.218e+04 1.309e-09
 27.82747   -112.6 1.235e+04 1.394e-09
 27.84866   -113.8 1.101e+04 6.599e-10
 27.87251   -112.2 1.118e+04 7.146e-10
 27.91488   -110.8 1.135e+04 7.737e-10
 27.94147   -109.5 1.150e+04 8.435e-10
 27.96265   -110.7 1.073e+04 5.140e-10
 27.99962   -109.3 1.092e+04 5.792e-10
 28.03427   -108.0 1.105e+04 6.083e-10
 28.05546   -108.8 1.087e+04 5.583e-10
 28.08437   -107.8 1.092e+04 5.678e-10
 28.12674   -107.0 1.093e+04 5.563e-10
 28.14826   -106.2 1.097e+04 5.416e-10
 28.16945   -107.0 1.126e+04 7.292e-10
 28.21149   -106.2 1.143e+04 7.983e-10
 28.24107   -105.5 1.163e+04 8.871e-10
 28.26226   -106.0 1.203e+04 1.147e-09
 28.29624   -105.1 1.233e+04 1.341e-09
 28.32792   -104.5 1.262e+04 1.626e-09
 28.34427   -104.2 1.260e+04 1.671e-09
 28.35496   -104.7 1.271e+04 1.554e-09
 28.37029   -103.9 1.272e+04 1.789e-09
 28.39068   -103.3 1.272e+04 1.798e-09
 28.40127   -103.7 1.279e+04 1.789e-09
 28.41257   -102.9 1.269e+04 1.794e-09
 28.43375   -102.1 1.248e+04 1.589e-09
 28.44767   -101.4 1.234e+04 1.372e-09
 28.45827   -101.8 1.246e+04 1.400e-09
 28.47613   -101.1 1.239e+04 1.243e-09
 28.49408   -100.6 1.218e+04 1.118e-09
 28.50467   -101.2 1.258e+04 1.217e-09
 28.51850   -100.9 1.264e+04 1.209e-09
 28.53969   -100.7 1.272e+04 1.224e-09
 28.55107   -100.6 1.280e+04 1.287e-09
 28.56166   -102.0 1.383e+04 1.873e-09
 28.58206   -101.7 1.395e+04 2.067e-09
 28.59747   -101.4 1.407e+04 2.236e-09
 28.60807   -103.1 1.519e+04 3.401e-09
 28.62443   -103.2 1.538e+04 3.453e-09
 28.64388   -103.7 1.557e+04 3.510e-09
 28.65447   -106.3 1.644e+04 5.039e-09
 28.66680   -107.3 1.652e+04 5.166e-09
 28.68799   -108.1 1.655e+04 5.527e-09
 28.70087   -108.7 1.662e+04 6.043e-09
 28.71147   -111.4 1.718e+04 6.840e-09
 28.73036   -112.0 1.713e+04 6.838e-09
 28.74728   -112.6 1.696e+04 6.775e-09
 28.75787   -116.0 1.693e+04 5.768e-09
 28.77274   -116.5 1.642e+04 4.732e-09
 28.79368   -117.0 1.577e+04 3.650e-09
 28.80427   -120.6 1.468e+04 2.261e-09
 28.81511   -120.8 1.389e+04 1.605e-09
 28.83630   -120.8 1.320e+04 1.131e-09
 28.85067   -120.8 1.262e+04 7.956e-10
 28.86127   -123.2 1.176e+04 5.080e-10
 28.87867   -123.0 1.142e+04 3.741e-10
 28.89708   -122.9 1.120e+04 2.997e-10
 28.90767   -124.1 1.101e+04 2.688e-10
 28.93173   -122.7 1.101e+04 2.472e-10
 28.95427   -121.3 1.092e+04 2.307e-10
 28.97546   -123.2 1.065e+04 2.043e-10
 29.01658   -121.8 1.046e+04 1.898e-10
 29.04707   -120.4 1.032e+04 1.832e-10
 29.06826   -121.3 1.023e+04 1.815e-10
 29.10132   -119.4 1.018e+04 1.817e-10
 29.13988   -117.6 1.012e+04 1.816e-10
 29.16107   -117.9 1.009e+04 1.834e-10
 29.18607   -116.0 1.004e+04 1.737e-10
 29.22844   -114.2 9.979e+03 1.676e-10
 29.25387   -112.3 9.953e+03 1.666e-10
 29.27506   -112.4 9.870e+03 1.460e-10
 29.31319   -110.5 9.830e+03 1.480e-10
 29.34668   -108.7 9.777e+03 1.579e-10
 29.36786   -108.5 9.696e+03 1.319e-10
 29.39793   -106.7 9.686e+03 1.428e-10
 29.43948   -104.9 9.680e+03 1.533e-10
 29.46067   -104.6 9.625e+03 1.328e-10
 29.48268   -102.8 9.617e+03 1.431e-10
 29.52505   -100.9 9.607e+03 1.525e-10
 29.55348    -99.1 9.603e+03 1.620e-10
 29.57466    -98.7 9.564e+03 1.505e-10
 29.60980    -96.8 9.558e+03 1.633e-10
 29.64628    -95.0 9.561e+03 1.765e-10
 29.66747    -94.4 9.487e+03 1.617e-10
 29.69455    -92.5 9.475e+03 1.720e-10
 29.73692    -90.5 9.469e+03 1.748e-10
 29.76027    -88.5 9.400e+03 1.693e-10
 29.78146    -87.8 9.395e+03 1.581e-10
 29.82167    -85.7 9.352e+03 1.481e-10
 29.85308    -83.8 9.337e+03 1.275e-10
 29.87427    -83.1 9.432e+03 1.442e-10
 29.90641    -81.3 9.442e+03 1.317e-10
 29.94589    -79.7 9.432e+03 1.216e-10
 29.96707    -78.9 9.549e+03 1.561e-10
 29.99116    -77.2 9.526e+03 1.507e-10
 30.03353    -75.4 9.488e+03 1.480e-10
 30.05988    -73.5 9.454e+03 1.477e-10
 30.08106    -72.7 9.567e+03 1.730e-10
 30.11828    -70.7 9.517e+03 1.636e-10
 30.15268    -68.7 9.463e+03 1.468e-10
 30.17387    -68.0 9.554e+03 1.636e-10
 30.20302    -66.1 9.511e+03 1.445e-10
 30.24540    -64.3 9.484e+03 1.288e-10
 30.28777    -61.9 9.618e+03 1.447e-10
 30.33014    -60.7 9.748e+03 1.445e-10
 30.35948    -60.0 9.872e+03 1.881e-10
 30.38067    -59.1 1.011e+04 2.254e-10
 30.41489    -58.0 1.016e+04 3.236e-10
 30.45229    -56.1 1.031e+04 4.159e-10
 30.47347    -55.3 1.044e+04 4.659e-10
 30.49963    -53.7 1.039e+04 4.460e-10
 30.54201    -52.5 1.021e+04 3.453e-10
 30.56628    -51.6 9.927e+03 2.790e-10
 30.58747    -51.0 9.913e+03 2.535e-10
 30.62675    -49.5 9.856e+03 2.486e-10
 30.65908    -47.9 9.896e+03 2.872e-10
 30.68027    -47.5 9.894e+03 2.813e-10
 30.70220    -45.5 9.984e+03 3.228e-10
 30.72339    -45.3 1.007e+04 3.482e-10
 30.75189    -43.3 1.016e+04 3.622e-10
 30.77308    -42.9 1.018e+04 3.790e-10
 30.79624    -40.9 1.014e+04 3.640e-10
 30.83862    -39.0 1.008e+04 3.415e-10
 30.86588    -37.0 1.009e+04 3.383e-10
 30.88707    -36.4 9.961e+03 3.010e-10
 30.92336    -34.2 9.929e+03 3.048e-10
 30.95869    -31.9 9.928e+03 2.944e-10
 30.97987    -30.9 9.789e+03 2.597e-10
 31.00811    -28.8 9.920e+03 2.525e-10
 31.05048    -27.0 1.007e+04 2.859e-10
 31.07268    -25.0 1.022e+04 3.566e-10
 31.09387    -23.8 1.014e+04 3.444e-10
 31.13523    -21.5 1.035e+04 4.266e-10
 31.16549    -18.9 1.058e+04 4.869e-10
 31.18667    -17.8 1.060e+04 5.034e-10
 31.20928    -17.0 1.070e+04 5.198e-10
 31.22229    -16.3 1.082e+04 5.370e-10
 31.23288    -15.9 1.088e+04 5.909e-10
 31.25156    -15.1 1.098e+04 6.303e-10
 31.26869    -14.3 1.112e+04 6.739e-10
 31.27928    -13.7 1.127e+04 7.689e-10
 31.29393    -13.1 1.149e+04 8.485e-10
 31.31509    -12.4 1.163e+04 9.180e-10
 31.34697    -11.7 1.174e+04 1.005e-09
 31.37228    -10.6 1.192e+04 1.132e-09
 31.39347     -9.4 1.193e+04 1.166e-09
 31.43184     -8.3 1.179e+04 1.117e-09
 31.46352     -6.8 1.155e+04 9.977e-10
 31.47549     -6.6 1.160e+04 9.744e-10
 31.48618     -5.9 1.142e+04 8.384e-10
 31.51659     -4.6 1.130e+04 7.504e-10
 31.55790     -2.7 1.126e+04 7.040e-10
 31.57908     -1.5 1.112e+04 6.537e-10
 31.60133      0.1 1.121e+04 6.919e-10
 31.64371      2.1 1.139e+04 7.698e-10
 31.67189      4.5 1.173e+04 9.400e-10
 31.69307      5.4 1.174e+04 9.863e-10
 31.72845      7.8 1.227e+04 1.255e-09
 31.76013      9.0 1.235e+04 1.293e-09
 31.77509      9.9 1.274e+04 1.533e-09
 31.78568     10.5 1.253e+04 1.364e-09
 31.80241     11.1 1.302e+04 1.722e-09
 31.82149     11.7 1.356e+04 2.340e-09
 31.83209     12.0 1.323e+04 1.904e-09
 31.84478     12.7 1.370e+04 2.589e-09
 31.86597     13.4 1.434e+04 3.518e-09
 31.87849     13.3 1.527e+04 4.747e-09
 31.88908     13.2 1.493e+04 4.288e-09
 31.90834     12.4 1.654e+04 6.408e-09
 31.92489     10.7 1.833e+04 1.003e-08
 31.93549     10.6 1.802e+04 1.023e-08
 31.95071      9.2 1.906e+04 1.552e-08
 31.97130      8.2 1.961e+04 2.045e-08
 31.98189      8.8 1.924e+04 2.047e-08
 31.99309      8.6 1.912e+04 2.020e-08
 32.01427      9.2 1.859e+04 1.766e-08
 32.02829     10.0 1.779e+04 1.195e-08
 32.03888     10.9 1.675e+04 9.603e-09
 32.05665     11.1 1.574e+04 5.116e-09
 32.07469     10.1 1.483e+04 2.730e-09
 32.08529     10.7 1.385e+04 2.207e-09
 32.09902      9.8 1.274e+04 1.291e-09
 32.12021      9.6 1.225e+04 1.169e-09
 32.15208     11.3 1.174e+04 9.817e-10
 32.17829     14.5 1.116e+04 8.086e-10
 32.19948     16.6 1.062e+04 5.197e-10
 32.23693     19.1 1.034e+04 4.498e-10
 32.27109     21.7 1.008e+04 3.957e-10
 32.29228     23.4 9.851e+03 2.929e-10
 32.32167     26.1 9.624e+03 2.635e-10
 32.36390     29.0 9.395e+03 2.222e-10
 32.40627     33.7 9.100e+03 1.561e-10
 32.44879     36.7 8.909e+03 1.203e-10
 32.47789     39.8 8.737e+03 8.925e-11
 32.49908     41.3 8.768e+03 9.106e-11
 32.53354     44.3 8.625e+03 6.851e-11
 32.57070     47.2 8.492e+03 5.326e-11
 32.59188     48.6 8.608e+03 6.422e-11
 32.61829     51.6 8.483e+03 4.946e-11
 32.66066     54.6 8.367e+03 4.042e-11
 32.68469     57.6 8.240e+03 3.632e-11
 32.70588     59.0 8.459e+03 4.143e-11
 32.74540     62.1 8.286e+03 3.621e-11
 32.77750     65.1 8.065e+03 3.581e-11
 32.79868     66.4 8.492e+03 4.224e-11
 32.83015     69.4 8.336e+03 3.892e-11
 32.87030     72.4 8.177e+03 3.875e-11
 32.89149     73.5 8.571e+03 5.594e-11
 32.91490     76.5 8.521e+03 5.042e-11
 32.95727     79.5 8.392e+03 4.849e-11
 32.98429     82.5 8.306e+03 4.966e-11
 33.00548     83.3 8.805e+03 8.064e-11
 33.04202     86.2 8.788e+03 7.377e-11
 33.07710     89.1 8.687e+03 7.368e-11
 33.09829     89.5 9.302e+03 1.883e-10
 33.12676     92.3 9.335e+03 1.746e-10
 33.16913     95.1 9.338e+03 1.710e-10
 33.19109     97.7 9.321e+03 1.734e-10
 33.20159     97.4 1.019e+04 5.105e-10
 33.22191     98.3 1.021e+04 5.081e-10
 33.25378    100.2 1.016e+04 4.682e-10
 33.28390    102.8 1.000e+04 4.301e-10
 33.29439    102.8 1.131e+04 1.064e-09
 33.30665    104.2 1.113e+04 9.427e-10
 33.32784    105.5 1.093e+04 8.247e-10
 33.34070    106.8 1.069e+04 7.125e-10
 33.35129    106.8 1.114e+04 1.079e-09
 33.37021    108.2 1.096e+04 9.270e-10
 33.38710    109.6 1.077e+04 7.952e-10
 33.39769    110.1 1.106e+04 1.101e-09
 33.41258    111.4 1.085e+04 9.284e-10
 33.43350    112.7 1.065e+04 7.876e-10
 33.44410    113.1 1.084e+04 9.740e-10
 33.45496    114.5 1.067e+04 8.284e-10
 33.47614    115.8 1.050e+04 7.056e-10
 33.49050    117.2 1.031e+04 6.098e-10
 33.50109    117.5 1.034e+04 6.829e-10
 33.51852    119.0 1.018e+04 5.866e-10
 33.53690    120.5 1.007e+04 5.096e-10
 33.54750    120.8 9.961e+03 5.467e-10
 33.56089    122.2 9.863e+03 4.793e-10
 33.58208    123.6 9.739e+03 4.207e-10
 33.59390    125.0 9.614e+03 3.793e-10
 33.60449    125.2 9.626e+03 4.048e-10
 33.63514    127.6 9.535e+03 3.705e-10
 33.67631    130.6 9.350e+03 3.236e-10
 33.69683    131.6 9.368e+03 3.493e-10
 33.69814    131.6 9.301e+03 3.202e-10
 33.71998    134.6 9.150e+03 2.805e-10
 33.76236    137.8 8.980e+03 2.559e-10
 33.79030    141.2 8.951e+03 2.529e-10
 33.81149    141.9 8.852e+03 2.432e-10
 33.84710    145.3 8.844e+03 2.435e-10
 33.88310    148.9 8.875e+03 2.499e-10
 33.90429    150.0 8.955e+03 2.649e-10
 33.93185    153.3 9.098e+03 2.861e-10
 33.96353    154.7 9.126e+03 3.011e-10
 33.98462    155.9 9.124e+03 3.184e-10
 33.99690    157.5 9.140e+03 3.569e-10
 34.00749    158.6 9.131e+03 3.966e-10
 34.02699    160.4 9.323e+03 4.635e-10
 34.04330    162.0 9.542e+03 5.369e-10
 34.05390    162.6 9.769e+03 5.429e-10
 34.06937    164.2 9.920e+03 6.114e-10
 34.08971    165.6 1.003e+04 6.698e-10
 34.10030    166.0 1.030e+04 6.467e-10
 34.11174    167.5 1.038e+04 6.879e-10
 34.13293    169.1 1.043e+04 7.216e-10
 34.14670    170.6 1.046e+04 7.495e-10
 34.15730    171.0 1.048e+04 7.534e-10
 34.17530    172.4 1.057e+04 7.829e-10
 34.19311    173.7 1.069e+04 8.204e-10
 34.20370    173.7 1.090e+04 8.468e-10
 34.21767    174.7 1.127e+04 9.436e-10
 34.23886    175.4 1.197e+04 1.164e-09
 34.25010    175.8 1.292e+04 1.612e-09
 34.26070    175.2 1.395e+04 2.236e-09
 34.28123    175.6 1.503e+04 3.528e-09
 34.29646    176.1 1.534e+04 3.962e-09
 34.30170    176.4 1.563e+04 4.556e-09
 34.30762    176.6 1.609e+04 5.306e-09
 34.31821    176.4 1.682e+04 6.688e-09
 34.32490    176.1 1.761e+04 8.670e-09
 34.33020    175.1 1.848e+04 1.038e-08
 34.33940    174.9 1.910e+04 1.360e-08
 34.34811    174.7 1.956e+04 1.784e-08
 34.35340    175.5 1.953e+04 2.093e-08
 34.36058    175.8 1.989e+04 2.827e-08
 34.37118    175.9 2.026e+04 3.997e-08
 34.37660    176.0 2.080e+04 5.858e-08
 34.38190    176.6 2.077e+04 6.718e-08
 34.39236    177.0 2.166e+04 1.044e-07
 34.39981    176.6 2.268e+04 1.435e-07
 34.40510    176.3 2.214e+04 1.275e-07
 34.41355    174.4 2.235e+04 1.289e-07
 34.42301    172.9 2.217e+04 1.188e-07
 34.42830    173.8 2.159e+04 9.446e-08
 34.43474    173.4 2.142e+04 7.419e-08
 34.44153    173.3 2.114e+04 5.385e-08
 34.44683    172.9 2.015e+04 3.478e-08
 34.45151    172.7 1.952e+04 2.707e-08
 34.45680    172.3 2.073e+04 2.338e-08
 34.46652    171.4 2.019e+04 2.041e-08
 34.47471    170.5 1.965e+04 1.899e-08
 34.48000    169.4 2.000e+04 1.763e-08
 34.48770    169.1 1.956e+04 1.782e-08
 34.49791    169.0 1.949e+04 1.802e-08
 34.50320    168.2 1.978e+04 1.616e-08
 34.50889    168.4 1.961e+04 1.739e-08
 34.51948    168.6 1.958e+04 1.859e-08
 34.52641    168.7 1.960e+04 1.955e-08
 34.53170    168.5 1.948e+04 1.771e-08
 34.54067    168.8 1.952e+04 1.839e-08
 34.54961    168.9 1.957e+04 1.870e-08
 34.55490    168.6 1.911e+04 1.549e-08
 34.56186    168.9 1.928e+04 1.593e-08
 34.57245    168.9 1.952e+04 1.608e-08
 34.57811    169.0 1.967e+04 1.611e-08
 34.58340    168.7 1.973e+04 1.592e-08
 34.59364    168.5 2.008e+04 1.599e-08
 34.60131    168.3 2.035e+04 1.617e-08
 34.60665    167.0 1.909e+04 1.092e-08
 34.62022    166.1 1.955e+04 1.022e-08
 34.64140    165.0 2.001e+04 9.598e-09
 34.65310    163.6 2.025e+04 8.934e-09
 34.66370    160.6 1.630e+04 4.810e-09
 34.68378    158.4 1.684e+04 4.403e-09
 34.69951    155.3 1.718e+04 4.411e-09
 34.71010    153.6 1.547e+04 3.559e-09
 34.72615    149.8 1.567e+04 3.839e-09
 34.74591    146.3 1.621e+04 4.828e-09
 34.75650    146.5 1.541e+04 5.044e-09
 34.76852    144.1 1.583e+04 5.660e-09
 34.78971    142.2 1.586e+04 5.698e-09
 34.80291    140.7 1.562e+04 5.324e-09
 34.81350    142.1 1.541e+04 5.141e-09
 34.83208    141.3 1.466e+04 3.904e-09
 34.84931    141.3 1.366e+04 2.673e-09
 34.85990    142.4 1.356e+04 2.474e-09
 34.87445    142.6 1.239e+04 1.598e-09
 34.89581    142.2 1.165e+04 1.089e-09
 34.91709    144.1 1.121e+04 9.083e-10
 34.94880    144.5 1.003e+04 5.286e-10
 34.98871    145.7 9.916e+03 4.620e-10
 35.00990    147.5 9.900e+03 5.014e-10
 35.03355    149.9 9.896e+03 5.036e-10
 35.07592    152.8 9.903e+03 5.134e-10
 35.10270    155.7 9.992e+03 5.454e-10
 35.12389    157.2 1.016e+04 6.654e-10
 35.16067    159.8 1.036e+04 7.508e-10
 35.19551    162.2 1.057e+04 8.350e-10
 35.21670    163.9 1.082e+04 9.774e-10
 35.24541    166.0 1.100e+04 1.091e-09
 35.28779    167.9 1.115e+04 1.159e-09
 35.30950    169.4 1.115e+04 1.135e-09
 35.33069    170.6 1.119e+04 1.108e-09
 35.37253    172.3 1.100e+04 9.932e-10
 35.40221    173.1 1.099e+04 9.874e-10
 35.41271    174.1 1.093e+04 9.105e-10
 35.42530    174.8 1.081e+04 8.835e-10
 35.44649    175.4 1.069e+04 8.474e-10
 35.45911    176.0 1.055e+04 8.084e-10
 35.46970    176.3 1.057e+04 8.090e-10
 35.48886    177.0 1.049e+04 7.868e-10
 35.50551    177.8 1.044e+04 7.760e-10
 35.51611    178.5 1.046e+04 7.564e-10
 35.54193    180.1 1.036e+04 7.195e-10
 35.58440    182.4 1.053e+04 7.797e-10
 35.60901    183.3 1.064e+04 8.311e-10
 35.63020    184.6 1.053e+04 7.441e-10
 35.66914    186.7 1.071e+04 7.951e-10
 35.70083    187.5 1.080e+04 8.230e-10
 35.71231    188.3 1.090e+04 8.539e-10
 35.72300    188.5 1.043e+04 7.033e-10
 35.75389    190.3 1.069e+04 7.855e-10
 35.78557    190.9 1.086e+04 8.485e-10
 35.80512    191.3 1.104e+04 9.138e-10
 35.81581    191.8 1.076e+04 8.291e-10
 35.83864    192.5 1.112e+04 9.752e-10
 35.86221    192.3 1.131e+04 1.072e-09
 35.87270    192.4 1.129e+04 1.062e-09
 35.89141    192.4 1.143e+04 1.130e-09
 35.90851    192.3 1.158e+04 1.209e-09
 35.91911    192.7 1.142e+04 1.139e-09
 35.93378    192.7 1.159e+04 1.229e-09
 35.95492    192.7 1.184e+04 1.360e-09
 35.97610    192.8 1.207e+04 1.464e-09
 35.99734    192.4 1.250e+04 1.729e-09
 36.01191    191.9 1.299e+04 2.116e-09
 36.02251    191.9 1.303e+04 2.149e-09
 36.03971    191.4 1.353e+04 2.685e-09
 36.05832    191.4 1.407e+04 3.387e-09
 36.06891    191.3 1.405e+04 3.401e-09
 36.08209    191.4 1.442e+04 3.841e-09
 36.10327    191.4 1.461e+04 3.905e-09
 36.11531    191.2 1.463e+04 3.824e-09
 36.12591    190.5 1.411e+04 3.129e-09
 36.14565    190.1 1.379e+04 2.564e-09
 36.16172    189.3 1.334e+04 1.960e-09
 36.17231    187.7 1.277e+04 1.476e-09
 36.18802    186.5 1.225e+04 1.223e-09
 36.20812    186.0 1.192e+04 1.122e-09
 36.22940    184.9 1.204e+04 1.156e-09
 36.26237    184.7 1.183e+04 1.114e-09
 36.30112    185.3 1.163e+04 1.074e-09
 36.32231    184.2 1.165e+04 1.152e-09
 36.34711    184.8 1.126e+04 9.902e-10
 36.38949    185.3 1.076e+04 7.947e-10
 36.41511    185.8 1.024e+04 6.062e-10
 36.43630    185.1 9.832e+03 4.424e-10
 36.47423    185.5 9.290e+03 2.969e-10
 36.50792    185.8 8.823e+03 2.063e-10
 36.52910    184.7 8.518e+03 1.578e-10
 36.55898    185.1 8.317e+03 1.499e-10
 36.60072    185.7 8.304e+03 1.499e-10
 36.62191    185.6 8.353e+03 1.684e-10
 36.64372    186.1 8.437e+03 1.910e-10
 36.67289    186.5 8.697e+03 2.387e-10
 36.69407    186.4 9.031e+03 2.904e-10
 36.71471    186.6 9.389e+03 3.696e-10
 36.73590    186.5 9.578e+03 4.231e-10
 36.76015    186.2 9.656e+03 4.550e-10
 36.77152    185.9 9.792e+03 5.011e-10
 36.78211    185.8 9.928e+03 5.207e-10
 36.80243    185.5 1.010e+04 5.816e-10
 36.81792    185.2 1.021e+04 6.288e-10
 36.82851    184.8 1.016e+04 6.198e-10
 36.84480    184.5 1.023e+04 6.388e-10
 36.86432    184.2 1.030e+04 6.491e-10
 36.87491    184.2 1.030e+04 6.205e-10
 36.88717    183.4 1.059e+04 6.740e-10
 36.90836    181.9 1.127e+04 8.205e-10
 36.92132    179.4 1.264e+04 1.225e-09
 36.93191    179.1 1.275e+04 1.363e-09
 36.95073    175.9 1.457e+04 2.470e-09
 36.96772    172.7 1.633e+04 4.804e-09
 36.97831    172.9 1.626e+04 5.065e-09
 36.99311    170.1 1.754e+04 8.651e-09
 37.01412    167.4 1.847e+04 1.175e-08
 37.02472    168.4 1.847e+04 1.194e-08
 37.03548    165.4 1.863e+04 1.179e-08
 37.05667    162.0 1.880e+04 9.726e-09
 37.07112    157.2 1.884e+04 6.178e-09
 37.08171    158.5 1.900e+04 5.884e-09
 37.09904    151.2 1.877e+04 3.693e-09
 37.11752    141.8 1.724e+04 3.834e-09
 37.12812    142.1 1.760e+04 4.043e-09
 37.14141    133.0 1.780e+04 5.550e-09
 37.16260    126.1 1.950e+04 8.928e-09
 37.17452    120.0 2.110e+04 1.413e-08
 37.17977    120.7 2.149e+04 1.458e-08
 37.18898    117.6 2.187e+04 1.703e-08
 37.19762    114.8 2.136e+04 1.981e-08
 37.20292    114.3 2.118e+04 2.280e-08
 37.21017    111.6 2.075e+04 2.381e-08
 37.22076    109.2 2.046e+04 2.315e-08
 37.22612    106.7 2.014e+04 2.167e-08
 37.23142    106.5 2.000e+04 2.150e-08
 37.24730    103.8 1.912e+04 1.762e-08
 37.26732    100.7 1.862e+04 1.579e-08
 37.27792    100.9 1.794e+04 1.278e-08
 37.28972     98.4 1.801e+04 1.328e-08
 37.31090     96.2 1.827e+04 1.488e-08
 37.32432     93.9 1.825e+04 1.509e-08
 37.33491     94.5 1.747e+04 1.077e-08
 37.35328     93.6 1.709e+04 1.024e-08
 37.37072     93.3 1.638e+04 8.250e-09
 37.38132     93.4 1.590e+04 6.313e-09
 37.39565     92.7 1.525e+04 5.260e-09
 37.41684     91.7 1.470e+04 4.389e-09
 37.42772     90.9 1.422e+04 3.790e-09
 37.43831     91.4 1.395e+04 3.499e-09
 37.45921     91.3 1.368e+04 3.263e-09
 37.47412     91.5 1.346e+04 2.936e-09
 37.48471     92.2 1.334e+04 2.750e-09
 37.50158     92.2 1.312e+04 2.442e-09
 37.52062     92.5 1.283e+04 1.837e-09
 37.54191     93.2 1.252e+04 1.704e-09
 37.57593     93.0 1.206e+04 1.270e-09
 37.61353     92.7 1.156e+04 8.017e-10
 37.63471     93.4 1.167e+04 1.050e-09
 37.66068     93.2 1.144e+04 7.807e-10
 37.70305     92.7 1.118e+04 6.004e-10
 37.72752     92.1 1.081e+04 4.961e-10
 37.74870     93.5 1.108e+04 5.683e-10
 37.78780     92.9 1.056e+04 3.854e-10
 37.82032     91.9 9.993e+03 2.460e-10
 37.84151     92.9 1.013e+04 2.129e-10
 37.87254     90.8 9.506e+03 1.695e-10
 37.91313     88.4 9.442e+03 1.860e-10
 37.93432     89.3 9.499e+03 2.087e-10
 37.95729     87.3 9.646e+03 2.956e-10
 37.99966     85.9 9.904e+03 3.759e-10
 38.02712     84.6 9.933e+03 3.779e-10
 38.04831     85.1 9.997e+03 3.873e-10
 38.08441     84.0 9.794e+03 3.309e-10
 38.11993     83.3 9.402e+03 2.335e-10
 38.14111     83.6 9.314e+03 2.049e-10
 38.16915     83.1 8.916e+03 1.283e-10
 38.21153     82.7 8.650e+03 8.481e-11
 38.23392     82.5 8.436e+03 7.179e-11
 38.25511     82.5 8.352e+03 6.300e-11
 38.29627     83.1 8.323e+03 6.272e-11
 38.32672     84.1 8.316e+03 6.349e-11
 38.34791     84.5 8.296e+03 6.171e-11
 38.38102     85.7 8.296e+03 6.161e-11
 38.41953     86.9 8.303e+03 6.099e-11
 38.44072     87.5 8.296e+03 5.902e-11
 38.46576     88.8 8.289e+03 5.359e-11
 38.50814     90.0 8.268e+03 4.905e-11
 38.53352     91.4 8.240e+03 4.797e-11
 38.55471     91.9 8.208e+03 4.735e-11
 38.59288     93.5 8.216e+03 4.799e-11
 38.62633     94.9 8.250e+03 5.121e-11
 38.64751     95.3 8.352e+03 5.761e-11
 38.67763     96.8 8.424e+03 7.648e-11
 38.71913     97.9 8.867e+03 1.312e-10
 38.74032     98.6 9.267e+03 1.892e-10
 38.76238     97.9 1.062e+04 4.159e-10
 38.78663     97.4 1.098e+04 5.551e-10
 38.79712     96.5 1.176e+04 7.360e-10
 38.81515     95.5 1.263e+04 1.193e-09
 38.83293     94.8 1.322e+04 1.756e-09
 38.84352     93.7 1.490e+04 3.472e-09
 38.85752     93.6 1.477e+04 3.384e-09
 38.87871     93.8 1.433e+04 2.927e-09
 38.88993     93.8 1.375e+04 2.212e-09
 38.90052     93.1 1.575e+04 3.082e-09
 38.92108     91.6 1.550e+04 2.061e-09
 38.93633     89.5 1.505e+04 1.557e-09
 38.94692     86.7 1.573e+04 2.581e-09
 38.96345     86.1 1.494e+04 2.412e-09
 38.98273     86.1 1.445e+04 2.327e-09
 38.99333     85.7 1.441e+04 3.558e-09
 39.00582     86.2 1.417e+04 3.262e-09
 39.02701     86.2 1.422e+04 3.241e-09
 39.03973     85.5 1.461e+04 3.560e-09
 39.05032     85.8 1.472e+04 3.963e-09
 39.06938     84.5 1.556e+04 4.935e-09
 39.08613     83.8 1.657e+04 7.220e-09
 39.09668     83.8 1.658e+04 6.181e-09
 39.11171     83.2 1.769e+04 9.425e-09
 39.13253     82.7 1.794e+04 1.008e-08
 39.14313     81.2 1.834e+04 9.724e-09
 39.15413     80.2 1.822e+04 9.318e-09
 39.17532     79.1 1.767e+04 7.703e-09
 39.18953     77.7 1.671e+04 5.485e-09
 39.20012     76.4 1.614e+04 5.588e-09
 39.21769     75.2 1.508e+04 3.896e-09
 39.23593     73.9 1.409e+04 2.662e-09
 39.24653     73.7 1.371e+04 2.721e-09
 39.26006     72.7 1.295e+04 1.907e-09
 39.28125     72.3 1.222e+04 1.369e-09
 39.29293     72.2 1.156e+04 9.485e-10
 39.30352     71.9 1.117e+04 8.453e-10
 39.32362     72.0 1.096e+04 7.207e-10
 39.33943     71.8 1.065e+04 4.721e-10
 39.36071     70.9 1.011e+04 4.064e-10
 39.39797     71.4 9.730e+03 3.056e-10
 39.43233     72.3 9.495e+03 2.489e-10
 39.45352     72.8 9.514e+03 2.972e-10
 39.48272     73.8 9.379e+03 2.470e-10
 39.52509     74.7 9.327e+03 1.985e-10
 39.56746     75.6 9.509e+03 2.237e-10
 39.60984     75.3 9.919e+03 2.934e-10
 39.63913     75.2 1.051e+04 4.888e-10
 39.65574     75.7 1.081e+04 5.940e-10
 39.66882     78.1 9.556e+03 2.185e-10
 39.69458     78.3 1.015e+04 3.837e-10
 39.73194     79.1 1.063e+04 6.461e-10
 39.75312     79.8 1.083e+04 6.627e-10
 39.77933     80.9 1.097e+04 8.088e-10
 39.82170     82.0 1.094e+04 8.082e-10
 39.84593     83.0 1.074e+04 7.304e-10
 39.86712     83.2 1.086e+04 7.779e-10
 39.90645     84.1 1.062e+04 6.649e-10
 39.93873     85.0 1.037e+04 5.688e-10
 39.95992     85.4 1.048e+04 6.888e-10
 39.99119     86.7 1.044e+04 6.807e-10
 40.03154     88.0 1.045e+04 6.895e-10
 40.05273     88.6 1.047e+04 6.970e-10
 40.07594     89.7 1.046e+04 6.920e-10
 40.11831     90.8 1.036e+04 6.603e-10
 40.14553     92.0 1.016e+04 5.721e-10
 40.16672     92.3 9.830e+03 4.414e-10
 40.20306     93.3 9.648e+03 3.845e-10
 40.23834     94.2 9.594e+03 3.591e-10
 40.25952     94.7 9.357e+03 3.280e-10
 40.28780     95.9 9.437e+03 3.625e-10
 40.33018     96.4 9.768e+03 4.442e-10
 40.35233     96.4 1.031e+04 6.082e-10
 40.37352     97.3 1.013e+04 5.375e-10
 40.41492     96.7 1.099e+04 8.441e-10
 40.44514     95.4 1.187e+04 1.201e-09
 40.46632     95.3 1.183e+04 1.208e-09
 40.49967     93.2 1.204e+04 1.246e-09
 40.53794     91.1 1.185e+04 1.001e-09
 40.55913     92.1 1.208e+04 1.224e-09
 40.58442     90.5 1.149e+04 5.795e-10
 40.62679     87.9 1.044e+04 1.594e-10
 40.65193     83.9 8.994e+03 6.576e-11
 40.67312     84.7 9.082e+03 1.011e-10
 40.71153     82.6 8.928e+03 1.008e-10
 40.74474     81.6 8.973e+03 1.146e-10
 40.76593     82.1 9.240e+03 2.085e-10
 40.79628     81.2 9.715e+03 3.533e-10
 40.83754     80.4 1.025e+04 5.689e-10
 40.85873     81.3 1.072e+04 7.583e-10
 40.88103     79.8 1.085e+04 7.659e-10
 40.92340     77.6 1.076e+04 6.797e-10
 40.95154     74.8 1.043e+04 5.170e-10
 40.97272     73.9 1.056e+04 4.754e-10
 41.00815     70.5 1.003e+04 3.980e-10
 41.04434     68.4 9.624e+03 3.637e-10
 41.06553     67.9 1.012e+04 5.171e-10
 41.09289     67.3 9.981e+03 5.149e-10
 41.13527     67.0 9.875e+03 4.936e-10
 41.15833     66.4 9.904e+03 4.930e-10
 41.17952     66.1 1.007e+04 5.868e-10
 41.22001     64.9 1.011e+04 5.967e-10
 41.25114     63.5 1.041e+04 7.082e-10
 41.27233     63.8 1.006e+04 6.227e-10
 41.30476     63.0 1.049e+04 8.355e-10
 41.34395     62.5 1.068e+04 9.812e-10
 41.36513     62.6 1.002e+04 6.201e-10
 41.38950     62.4 9.949e+03 6.044e-10
 41.43188     62.3 9.683e+03 5.320e-10
 41.45794     62.5 9.315e+03 4.288e-10
 41.47912     62.4 8.928e+03 2.986e-10
 41.51662     62.7 8.696e+03 2.584e-10
 41.55074     63.3 8.551e+03 2.392e-10
 41.57193     63.3 8.562e+03 2.412e-10
 41.60137     64.3 8.538e+03 2.401e-10
 41.64355     65.4 8.548e+03 2.428e-10
 41.68592     66.8 8.868e+03 2.933e-10
 41.72849     68.0 8.999e+03 3.059e-10
 41.75754     68.8 9.186e+03 3.348e-10
 41.76804     68.5 9.205e+03 3.499e-10
 41.78126     69.1 9.256e+03 3.598e-10
 41.80245     69.6 9.456e+03 4.066e-10
 41.81434     70.1 9.794e+03 5.003e-10
 41.82494     70.1 1.016e+04 6.102e-10
 41.84482     70.5 1.079e+04 8.130e-10
 41.86075     70.6 1.119e+04 1.060e-09
 41.87134     69.8 1.191e+04 1.403e-09
 41.88719     68.6 1.360e+04 2.303e-09
 41.89964     66.9 1.472e+04 3.166e-09
 41.90489     68.3 1.425e+04 2.864e-09
 41.91235     67.0 1.534e+04 3.643e-09
 41.91764     65.5 1.673e+04 4.937e-09
 41.92417     61.7 1.875e+04 7.712e-09
 41.93476     54.6 2.346e+04 1.422e-08
 41.94085     45.1 2.830e+04 3.016e-08
 41.94614     38.4 2.781e+04 6.922e-08
 41.95595     32.3 2.619e+04 1.023e-07
 41.96405     26.8 2.529e+04 9.982e-08
 41.96934     23.1 2.451e+04 8.539e-08
 41.97714     17.6 2.421e+04 6.001e-08
 41.98725     12.7 2.385e+04 4.167e-08
 41.99254     10.7 2.404e+04 2.786e-08
 41.99832      8.5 2.383e+04 2.142e-08
 42.00892      6.1 2.366e+04 1.717e-08
 42.01575      4.6 2.291e+04 1.451e-08
 42.02109      2.8 2.122e+04 9.666e-09
 42.03550     -1.8 1.792e+04 6.247e-09
 42.05668     -3.6 1.563e+04 4.908e-09
 42.06754     -3.8 1.502e+04 4.631e-09
 42.07814     -4.3 1.477e+04 3.694e-09
 42.09906     -4.2 1.480e+04 3.798e-09
 42.11395     -4.5 1.496e+04 4.196e-09
 42.12454     -5.5 1.416e+04 2.914e-09
 42.14143     -6.9 1.425e+04 3.176e-09
 42.16035     -8.5 1.433e+04 3.663e-09
 42.17094    -10.9 1.442e+04 3.507e-09
 42.18380    -11.9 1.504e+04 5.039e-09
 42.20499    -11.8 1.566e+04 7.107e-09
 42.21735    -11.6 1.668e+04 9.744e-09
 42.22794    -12.2 1.661e+04 9.727e-09
 42.24736    -12.7 1.753e+04 1.113e-08
 42.26375    -13.4 1.796e+04 1.190e-08
 42.27434    -13.7 1.743e+04 8.671e-09
 42.28973    -14.6 1.718e+04 6.696e-09
 42.31015    -16.0 1.608e+04 4.129e-09
 42.32074    -18.2 1.424e+04 2.595e-09
 42.33211    -20.1 1.245e+04 1.405e-09
 42.35329    -22.3 1.053e+04 7.103e-10
 42.36715    -24.2 9.527e+03 3.942e-10
 42.37774    -24.0 9.340e+03 3.621e-10
 42.39567    -25.6 8.795e+03 2.484e-10
 42.41355    -26.1 8.440e+03 2.168e-10
 42.42414    -25.9 8.365e+03 2.073e-10
 42.44873    -26.7 8.255e+03 2.007e-10
 42.47074    -26.3 8.103e+03 2.098e-10
 42.49193    -26.1 8.091e+03 2.110e-10
 42.53358    -25.5 8.132e+03 2.249e-10
 42.56355    -25.2 8.229e+03 2.209e-10
 42.58473    -24.7 8.426e+03 2.624e-10
 42.61832    -25.1 8.483e+03 2.547e-10
 42.64357    -26.0 8.645e+03 3.060e-10
 42.66041    -24.2 9.132e+03 3.708e-10
 42.67754    -23.5 9.131e+03 3.919e-10
 42.69238    -24.6 9.079e+03 4.438e-10
 42.71315    -24.6 9.105e+03 4.531e-10
 42.72375    -24.3 9.044e+03 4.333e-10
 42.73465    -24.2 9.144e+03 4.625e-10
 42.75584    -24.2 9.154e+03 4.653e-10
 42.77015    -24.6 9.044e+03 4.392e-10
 42.78074    -24.6 9.020e+03 4.268e-10
 42.79821    -24.8 8.987e+03 4.195e-10
 42.81655    -25.6 9.118e+03 4.203e-10
 42.82715    -25.7 9.114e+03 4.297e-10
 42.84058    -26.5 9.365e+03 4.520e-10
 42.86177    -28.4 9.547e+03 4.882e-10
 42.87355    -30.0 9.559e+03 5.419e-10
 42.88414    -29.5 9.550e+03 5.642e-10
 42.90414    -30.6 9.623e+03 6.460e-10
 42.91995    -31.6 1.013e+04 7.818e-10
 42.93054    -31.1 9.992e+03 7.115e-10
 42.94652    -33.0 1.079e+04 8.764e-10
 42.96635    -35.8 1.140e+04 1.097e-09
 42.97695    -36.1 1.135e+04 9.909e-10
 42.98889    -38.5 1.140e+04 1.194e-09
 43.01008    -39.5 1.131e+04 1.283e-09
 43.02335    -39.9 1.117e+04 1.267e-09
 43.03394    -39.8 1.097e+04 1.171e-09
 43.05245    -39.6 1.078e+04 9.440e-10
 43.06975    -40.5 1.050e+04 6.010e-10
 43.08035    -40.4 1.051e+04 5.754e-10
 43.09482    -43.0 1.000e+04 3.707e-10
 43.12670    -45.2 9.273e+03 2.711e-10
 43.16275    -45.6 9.011e+03 2.174e-10
 43.18394    -45.3 9.054e+03 2.155e-10
 43.21154    -44.9 8.848e+03 1.606e-10
 43.25392    -44.4 8.723e+03 1.238e-10
 43.27675    -43.5 8.648e+03 1.034e-10
 43.29793    -43.0 8.647e+03 1.017e-10
 43.33866    -41.7 8.566e+03 8.926e-11
 43.36955    -40.2 8.507e+03 7.982e-11
 43.39074    -39.8 8.575e+03 8.400e-11
 43.42341    -38.4 8.631e+03 7.649e-11
 43.46236    -37.2 8.672e+03 7.516e-11
 43.48354    -37.0 8.786e+03 9.715e-11
 43.50816    -35.9 8.871e+03 1.135e-10
 43.55053    -34.4 8.920e+03 1.403e-10
 43.57635    -32.5 9.001e+03 1.632e-10
 43.59754    -31.7 9.112e+03 1.978e-10
 43.63527    -30.1 9.185e+03 1.928e-10
 43.66916    -29.0 9.213e+03 1.881e-10
 43.69034    -28.5 9.207e+03 1.840e-10
 43.72002    -27.6 9.193e+03 1.826e-10
 43.76196    -26.6 9.212e+03 2.047e-10
 43.78315    -26.1 9.197e+03 1.892e-10
 43.80477    -25.2 9.350e+03 2.117e-10
 43.84714    -25.1 9.624e+03 2.389e-10
 43.87595    -28.0 1.075e+04 3.443e-10
 43.88645    -29.0 9.914e+03 3.368e-10
 43.89991    -37.7 1.316e+04 5.589e-10
 43.92110    -38.0 1.561e+04 6.890e-10
 43.93275    -56.7 2.438e+04 4.258e-09
 43.93800    -58.2 2.385e+04 5.172e-09
 43.94748    -63.3 2.374e+04 1.454e-08
 43.95586    -67.0 2.295e+04 3.673e-08
 43.96115    -67.7 2.277e+04 4.756e-08
 43.96867    -69.4 2.289e+04 7.896e-08
 43.97906    -71.7 2.338e+04 9.010e-08
 43.98436    -73.1 2.363e+04 8.324e-08
 43.98986    -77.1 2.476e+04 5.788e-08
 44.00045    -84.4 2.509e+04 2.407e-08
 44.00756    -96.1 2.150e+04 8.772e-09
 44.01285    -99.9 1.932e+04 7.079e-09
 44.02164   -107.7 1.718e+04 5.313e-09
 44.03076   -111.8 1.698e+04 4.936e-09
 44.03606   -113.0 1.769e+04 5.519e-09
 44.04282   -116.9 1.811e+04 5.670e-09
 44.05341   -120.4 1.819e+04 5.768e-09
 44.05926   -123.4 1.808e+04 5.746e-09
 44.06455   -124.9 1.848e+04 6.871e-09
 44.07460   -126.8 1.787e+04 6.387e-09
 44.08251   -128.9 1.691e+04 5.346e-09
 44.09315   -130.2 1.734e+04 7.301e-09
 44.11178   -132.5 1.515e+04 3.780e-09
 44.12896   -134.1 1.325e+04 1.797e-09
 44.13734   -134.9 1.317e+04 1.632e-09
 44.14134   -133.4 1.418e+04 2.357e-09
 44.15415   -135.8 1.199e+04 1.073e-09
 44.17534   -137.1 1.046e+04 5.840e-10
 44.19652   -138.0 9.614e+03 3.395e-10
 44.22840   -136.9 9.428e+03 2.948e-10
 44.26836   -136.1 9.348e+03 2.707e-10
 44.28955   -136.7 9.110e+03 2.263e-10
 44.31324   -135.0 8.882e+03 1.921e-10
 44.35562   -133.4 8.789e+03 1.768e-10
 44.38235   -131.8 8.765e+03 1.727e-10
 44.40354   -132.4 8.778e+03 1.726e-10
 44.44036   -130.8 8.835e+03 1.753e-10
 44.47516   -129.3 8.947e+03 1.902e-10
 44.49635   -130.1 9.162e+03 2.314e-10
 44.52511   -128.4 9.170e+03 2.421e-10
 44.56748   -126.6 9.150e+03 2.427e-10
 44.58915   -124.8 9.102e+03 2.359e-10
 44.61034   -125.4 9.103e+03 2.320e-10
 44.65223   -123.6 8.993e+03 2.079e-10
 44.68196   -121.6 8.919e+03 1.911e-10
 44.70314   -122.1 8.778e+03 1.597e-10
 44.73697   -120.1 8.738e+03 1.495e-10
 44.77476   -118.0 8.731e+03 1.472e-10
 44.79595   -118.4 8.601e+03 1.229e-10
 44.82172   -116.6 8.610e+03 1.230e-10
 44.86409   -115.2 8.820e+03 1.361e-10
 44.88876   -114.0 9.101e+03 1.899e-10
 44.90994   -115.1 9.099e+03 1.867e-10
 44.94884   -114.4 9.545e+03 2.874e-10
 44.98156   -113.9 1.019e+04 4.553e-10
 45.00275   -116.1 1.068e+04 5.619e-10
 45.03358   -115.5 1.117e+04 8.195e-10
 45.07437   -114.9 1.163e+04 1.093e-09
 45.09555   -116.6 1.179e+04 1.180e-09
 45.11833   -115.7 1.207e+04 1.372e-09
 45.16070   -114.8 1.220e+04 1.494e-09
 45.18836   -113.7 1.219e+04 1.516e-09
 45.20955   -114.4 1.197e+04 1.384e-09
 45.24545   -112.6 1.164e+04 1.198e-09
 45.28117   -110.6 1.115e+04 9.395e-10
 45.30235   -110.8 1.065e+04 6.645e-10
 45.31950   -109.2 1.053e+04 6.397e-10
 45.33797   -108.4 1.035e+04 5.962e-10
 45.34856   -108.3 1.022e+04 5.095e-10
 45.36178   -106.9 1.005e+04 4.682e-10
 45.38297   -105.5 9.947e+03 4.417e-10
 45.39496   -104.2 9.925e+03 4.331e-10
 45.41625   -103.8 9.831e+03 3.704e-10
 45.45731   -101.5 9.690e+03 3.459e-10
 45.48796    -99.1 9.525e+03 3.298e-10
 45.50915    -98.5 9.586e+03 3.114e-10
 45.54206    -96.2 9.433e+03 2.995e-10
 45.58077    -94.1 9.310e+03 2.958e-10
 45.60196    -94.7 1.023e+04 3.331e-10
 45.61832    -92.9 1.029e+04 3.454e-10
 45.63950    -93.3 9.517e+03 2.461e-10
 45.66918    -91.7 9.596e+03 2.503e-10
 45.69476    -90.2 9.674e+03 2.909e-10
 45.71595    -91.6 1.097e+04 5.296e-10
 45.75393    -90.3 1.098e+04 6.009e-10
 45.78757    -89.3 1.133e+04 7.729e-10
 45.80875    -91.3 1.213e+04 1.094e-09
 45.82798    -90.6 1.262e+04 1.386e-09
 45.84437    -90.2 1.302e+04 1.653e-09
 45.85496    -91.1 1.318e+04 1.712e-09
 45.87026    -91.1 1.388e+04 2.211e-09
 45.89077    -91.1 1.470e+04 3.093e-09
 45.90136    -92.0 1.440e+04 3.028e-09
 45.91263    -91.9 1.519e+04 4.379e-09
 45.93382    -91.7 1.612e+04 6.414e-09
 45.94777    -91.6 1.698e+04 8.971e-09
 45.95836    -92.1 1.671e+04 8.583e-09
 45.97619    -91.5 1.747e+04 1.119e-08
 45.99417    -91.0 1.777e+04 1.271e-08
 46.00476    -91.1 1.736e+04 1.139e-08
 46.01856    -90.8 1.725e+04 1.112e-08
 46.03975    -90.1 1.638e+04 8.265e-09
 46.05117    -89.7 1.517e+04 5.348e-09
 46.06176    -89.7 1.467e+04 4.413e-09
 46.08212    -89.9 1.348e+04 2.805e-09
 46.09757    -89.9 1.237e+04 1.872e-09
 46.10816    -89.4 1.231e+04 1.696e-09
 46.12449    -89.3 1.150e+04 1.223e-09
 46.14397    -88.4 1.083e+04 9.235e-10
 46.15456    -88.0 1.088e+04 8.495e-10
 46.16687    -86.8 1.040e+04 6.720e-10
 46.18805    -85.5 1.011e+04 5.322e-10
 46.20097    -84.4 9.873e+03 4.168e-10
 46.21156    -84.1 9.936e+03 4.151e-10
 46.23043    -83.1 9.775e+03 3.486e-10
 46.26230    -82.2 9.587e+03 2.878e-10
 46.29397    -80.0 9.157e+03 2.093e-10
 46.31515    -79.3 9.295e+03 2.359e-10
 46.34715    -77.2 8.927e+03 1.787e-10
 46.38677    -75.2 8.775e+03 1.505e-10
 46.40796    -74.6 8.977e+03 1.906e-10
 46.43189    -72.7 8.811e+03 1.620e-10
 46.47427    -70.8 8.695e+03 1.470e-10
 46.50077    -68.8 8.588e+03 1.369e-10
 46.52195    -68.2 8.591e+03 1.468e-10
 46.55901    -66.2 8.476e+03 1.317e-10
 46.59357    -64.3 8.383e+03 1.252e-10
 46.61476    -63.7 8.382e+03 1.240e-10
 46.64376    -62.1 8.361e+03 1.218e-10
 46.68613    -60.9 8.492e+03 1.343e-10
 46.70756    -60.0 8.634e+03 1.845e-10
 46.72875    -59.7 8.626e+03 1.818e-10
 46.77088    -58.1 8.722e+03 2.352e-10
 46.80037    -56.1 8.767e+03 2.538e-10
 46.82156    -55.7 8.755e+03 2.372e-10
 46.85562    -54.0 8.607e+03 1.988e-10
 46.89317    -52.4 8.448e+03 1.599e-10
 46.91436    -52.0 8.450e+03 1.550e-10
 46.94037    -50.5 8.276e+03 1.397e-10
 46.98274    -48.8 8.208e+03 1.387e-10
 47.00717    -46.9 8.244e+03 1.550e-10
 47.02835    -46.5 8.485e+03 1.907e-10
 47.06749    -44.6 8.595e+03 2.201e-10
 47.09997    -42.7 8.761e+03 2.506e-10
 47.12116    -42.3 9.082e+03 3.515e-10
 47.15224    -40.4 9.290e+03 3.927e-10
 47.19278    -39.0 9.365e+03 4.071e-10
 47.21396    -38.5 9.657e+03 5.044e-10
 47.23698    -37.2 9.580e+03 4.868e-10
 47.27936    -35.7 9.427e+03 4.642e-10
 47.30677    -33.7 9.186e+03 3.906e-10
 47.32796    -33.5 9.235e+03 3.954e-10
 47.36410    -31.5 8.908e+03 2.697e-10
 47.39958    -30.4 8.692e+03 1.618e-10
 47.42076    -30.3 8.735e+03 1.596e-10
 47.44885    -30.0 8.428e+03 1.132e-10
 47.49122    -29.5 8.242e+03 1.196e-10
 47.51357    -28.3 8.289e+03 1.380e-10
 47.53476    -28.3 8.307e+03 1.371e-10
 47.57597    -26.8 8.444e+03 1.482e-10
 47.60637    -25.6 8.658e+03 1.690e-10
 47.62756    -26.1 8.676e+03 1.686e-10
 47.66071    -25.8 9.099e+03 2.218e-10
 47.69918    -25.5 9.514e+03 3.538e-10
 47.72037    -26.0 9.657e+03 4.261e-10
 47.74546    -24.9 1.002e+04 5.859e-10
 47.78783    -24.0 1.017e+04 6.181e-10
 47.81317    -23.1 1.002e+04 5.635e-10
 47.83436    -22.9 9.760e+03 4.867e-10
 47.87258    -22.0 9.459e+03 3.640e-10
 47.90598    -21.2 9.224e+03 2.738e-10
 47.92716    -20.7 8.969e+03 1.943e-10
 47.95732    -19.9 8.836e+03 1.605e-10
 47.99878    -18.8 8.832e+03 1.621e-10
 48.01997    -17.8 8.687e+03 1.254e-10
 48.04207    -16.9 8.809e+03 1.459e-10
 48.08444    -16.1 9.108e+03 2.086e-10
 48.11278    -15.3 9.474e+03 3.064e-10
 48.13396    -14.4 9.481e+03 3.076e-10
 48.16919    -13.7 9.975e+03 4.430e-10
 48.20558    -13.2 1.008e+04 4.536e-10
 48.22677    -12.1 1.036e+04 5.761e-10
 48.25393    -11.2 1.020e+04 4.527e-10
 48.29631    -11.3 9.962e+03 3.083e-10
 48.31957    -11.8 1.000e+04 3.055e-10
 48.34076    -11.3 1.028e+04 3.237e-10
 48.36588    -12.4 1.045e+04 3.758e-10
 48.37637    -12.5 1.067e+04 4.165e-10
 48.39145    -12.3 1.072e+04 4.468e-10
 48.41218    -15.5 1.221e+04 6.974e-10
 48.42278    -16.6 1.253e+04 8.391e-10
 48.43382    -22.6 1.493e+04 2.534e-09
 48.45501    -24.8 1.640e+04 6.572e-09
 48.46918    -25.4 1.696e+04 9.557e-09
 48.47977    -25.3 1.688e+04 7.828e-09
 48.49738    -25.9 1.606e+04 5.662e-09
 48.51558    -28.2 1.424e+04 2.960e-09
 48.52618    -28.7 1.354e+04 2.421e-09
 48.55045    -31.6 1.235e+04 8.322e-10
 48.59292    -33.9 1.011e+04 2.618e-10
 48.61918    -33.9 9.541e+03 1.053e-10
 48.64036    -32.8 9.366e+03 8.409e-11
 48.67767    -32.1 9.155e+03 6.719e-11
 48.71198    -31.2 9.262e+03 5.936e-11
 48.73317    -30.1 9.199e+03 4.607e-11
 48.76241    -30.5 9.620e+03 5.365e-11
 48.80478    -34.4 1.034e+04 1.409e-10
 48.84716    -34.0 1.037e+04 5.882e-10
 48.88953    -32.8 1.073e+04 8.423e-10
 48.91878    -33.1 1.118e+04 3.735e-10
 48.93997    -33.7 1.107e+04 3.517e-10
 48.97428    -36.3 1.042e+04 2.288e-10
 49.01159    -37.6 1.010e+04 1.848e-10
 49.03277    -37.6 1.008e+04 1.825e-10
 49.05902    -37.9 1.000e+04 1.708e-10
 49.10140    -37.5 9.844e+03 1.797e-10
 49.12558    -37.1 9.979e+03 1.968e-10
 49.14676    -37.5 9.954e+03 1.852e-10
 49.18614    -37.8 1.040e+04 2.457e-10
 49.21838    -38.1 1.074e+04 4.391e-10
 49.23957    -38.4 1.070e+04 4.376e-10
 49.27089    -37.2 1.106e+04 7.245e-10
 49.31119    -35.8 1.135e+04 8.229e-10
 49.33238    -36.2 1.119e+04 6.970e-10
 49.35563    -35.5 1.142e+04 5.156e-10
 49.39801    -35.6 1.124e+04 3.507e-10
 49.42518    -35.6 1.087e+04 2.869e-10
 49.44637    -35.8 1.079e+04 2.665e-10
 49.48275    -35.1 1.054e+04 2.307e-10
 49.51799    -34.1 1.045e+04 2.178e-10
 49.53917    -34.8 1.044e+04 2.110e-10
 49.56750    -33.7 1.045e+04 2.272e-10
 49.60987    -33.2 1.106e+04 2.746e-10
 49.63188    -37.7 1.258e+04 4.574e-10
 49.64238    -37.9 1.272e+04 5.682e-10
 49.66264    -43.8 1.505e+04 1.494e-09
 49.67819    -46.6 1.627e+04 3.680e-09
 49.68878    -48.3 1.607e+04 5.509e-09
 49.70502    -48.4 1.611e+04 9.325e-09
 49.72459    -47.2 1.622e+04 1.009e-08
 49.73518    -48.4 1.615e+04 9.766e-09
 49.74739    -47.9 1.579e+04 4.714e-09
 49.76858    -55.4 1.407e+04 1.658e-09
 49.78159    -62.2 1.126e+04 9.473e-10
 49.79218    -62.3 1.114e+04 9.261e-10
 49.81095    -63.8 1.092e+04 8.796e-10
 49.82799    -64.7 1.078e+04 8.908e-10
 49.83858    -64.8 1.083e+04 8.895e-10
 49.85332    -65.1 1.074e+04 1.019e-09
 49.87439    -64.9 1.077e+04 1.085e-09
 49.88499    -65.0 1.084e+04 1.086e-09
 49.89569    -64.7 1.080e+04 1.086e-09
 49.91688    -64.2 1.064e+04 9.931e-10
 49.93139    -64.1 1.046e+04 8.465e-10
 49.94198    -64.3 1.059e+04 8.866e-10
 49.95925    -64.4 1.044e+04 7.924e-10
 49.97779    -64.6 1.036e+04 7.463e-10
 49.98838    -64.9 1.064e+04 8.786e-10
 50.00163    -65.0 1.063e+04 8.909e-10
 50.02281    -64.9 1.072e+04 9.600e-10
 50.03479    -64.8 1.086e+04 1.053e-09
 50.04538    -64.8 1.130e+04 1.349e-09
 50.06519    -64.5 1.142e+04 1.454e-09
 50.08119    -64.2 1.147e+04 1.504e-09
 50.09178    -64.2 1.191e+04 1.839e-09
 50.10143    -63.8 1.189e+04 1.802e-09
 50.11202    -63.7 1.219e+04 2.001e-09
 50.12759    -63.4 1.199e+04 1.756e-09
 50.13819    -63.6 1.213e+04 1.844e-09
 50.16062    -63.9 1.169e+04 1.492e-09
 50.20309    -64.0 1.120e+04 1.103e-09
 50.23119    -64.6 1.108e+04 9.884e-10
 50.25237    -65.2 1.075e+04 7.334e-10
 50.28784    -66.0 1.071e+04 7.228e-10
 50.32399    -66.8 1.079e+04 8.314e-10
 50.34518    -67.5 1.020e+04 6.367e-10
 50.37259    -67.8 1.021e+04 6.778e-10
 50.41496    -68.0 9.945e+03 5.971e-10
 50.43798    -68.3 9.420e+03 4.236e-10
 50.45917    -68.2 9.155e+03 3.560e-10
 50.49971    -68.6 8.918e+03 2.970e-10
 50.53079    -68.8 8.892e+03 2.895e-10
 50.55198    -69.6 9.045e+03 3.120e-10
 50.58445    -70.5 9.720e+03 4.896e-10
 50.62360    -71.2 1.039e+04 7.512e-10
 50.64478    -71.8 1.095e+04 1.145e-09
 50.66920    -72.6 1.128e+04 1.337e-09
 50.71157    -73.9 1.120e+04 1.253e-09
 50.73759    -75.3 1.087e+04 1.018e-09
 50.75877    -76.7 1.066e+04 9.135e-10
 50.79632    -78.4 1.017e+04 6.951e-10
 50.83039    -79.5 9.765e+03 5.524e-10
 50.85158    -80.7 9.286e+03 4.093e-10
 50.88106    -81.1 8.981e+03 3.269e-10
 50.92320    -81.1 8.703e+03 2.519e-10
 50.94439    -81.6 8.424e+03 1.986e-10
 50.96581    -81.3 8.291e+03 1.667e-10
 51.00818    -80.8 8.175e+03 1.433e-10
 51.03719    -80.1 8.069e+03 1.269e-10
 51.05838    -80.0 7.998e+03 1.233e-10
 51.09293    -79.0 7.960e+03 1.137e-10
 51.13000    -77.9 7.916e+03 9.954e-11
 51.15118    -77.7 7.916e+03 9.947e-11
 51.17767    -76.7 7.893e+03 8.415e-11
 51.22005    -75.8 7.910e+03 7.294e-11
 51.24399    -75.0 7.940e+03 6.945e-11
 51.26518    -74.7 7.949e+03 6.938e-11
 51.30479    -73.8 7.976e+03 6.899e-11
 51.33680    -72.7 8.041e+03 6.992e-11
 51.35798    -72.6 8.130e+03 7.110e-11
 51.38954    -71.3 8.162e+03 7.139e-11
 51.42960    -70.0 8.215e+03 6.893e-11
 51.45079    -70.0 8.512e+03 8.517e-11
 51.47429    -68.8 8.550e+03 8.287e-11
 51.51666    -67.6 8.671e+03 8.349e-11
 51.54359    -66.7 8.779e+03 9.282e-11
 51.56478    -66.5 8.907e+03 1.240e-10
 51.58900    -65.5 8.995e+03 1.406e-10
 51.61019    -65.7 9.014e+03 1.654e-10
 51.63640    -64.6 9.143e+03 1.847e-10
 51.65759    -64.5 9.236e+03 2.210e-10
 51.68615    -63.5 9.310e+03 2.297e-10
 51.72852    -62.5 9.299e+03 2.261e-10
 51.75039    -61.4 9.212e+03 1.897e-10
 51.77158    -61.2 9.222e+03 2.144e-10
 51.81327    -60.0 8.977e+03 1.598e-10
 51.84320    -58.9 8.721e+03 1.138e-10
 51.86438    -58.6 8.675e+03 1.143e-10
 51.89802    -57.4 8.455e+03 8.194e-11
 51.93600    -56.2 8.339e+03 6.523e-11
 51.95719    -55.9 8.256e+03 6.127e-11
 51.98276    -54.7 8.188e+03 5.577e-11
 52.02513    -53.5 8.241e+03 5.652e-11
 52.04999    -52.6 8.280e+03 6.784e-11
 52.07118    -52.3 8.241e+03 6.602e-11
 52.10988    -51.0 8.247e+03 8.669e-11
 52.14280    -49.4 8.251e+03 9.654e-11
 52.16399    -48.9 8.227e+03 1.012e-10
 52.19463    -47.2 8.039e+03 9.013e-11
 52.23561    -45.5 8.049e+03 5.465e-11
 52.25679    -44.9 8.002e+03 5.811e-11
 52.27937    -43.9 7.965e+03 3.531e-11
 52.32175    -43.1 7.822e+03 2.641e-11
 52.34960    -42.2 7.716e+03 2.291e-11
 52.37078    -41.7 7.752e+03 2.301e-11
 52.40649    -40.4 7.808e+03 2.294e-11
 52.44240    -39.2 7.854e+03 2.551e-11
 52.46359    -38.8 7.841e+03 3.210e-11
 52.49124    -37.1 7.799e+03 3.588e-11
 52.53361    -35.4 7.839e+03 3.590e-11
 52.55640    -33.8 7.892e+03 3.446e-11
 52.57758    -33.2 7.892e+03 3.958e-11
 52.61836    -31.7 7.957e+03 3.554e-11
 52.64920    -30.4 8.000e+03 3.406e-11
 52.67039    -29.9 7.998e+03 3.355e-11
 52.70310    -28.6 8.021e+03 3.371e-11
 52.74201    -27.4 8.129e+03 3.672e-11
 52.76319    -27.1 8.139e+03 3.589e-11
 52.78785    -26.2 8.251e+03 4.624e-11
 52.83022    -24.9 8.248e+03 6.505e-11
 52.85600    -23.3 8.380e+03 8.390e-11
 52.87719    -22.9 8.385e+03 8.685e-11
 52.91497    -21.5 8.562e+03 8.812e-11
 52.94881    -20.2 8.618e+03 8.348e-11
 52.96999    -19.9 8.667e+03 8.619e-11
 52.99971    -18.9 8.752e+03 7.890e-11
 53.04161    -18.0 8.820e+03 7.332e-11
 53.06280    -17.8 8.822e+03 9.251e-11
 53.08446    -16.7 8.885e+03 9.685e-11
 53.12683    -15.5 8.965e+03 1.008e-10
 53.15560    -14.4 9.069e+03 1.060e-10
 53.17679    -14.1 9.170e+03 1.327e-10
 53.21158    -13.1 9.273e+03 1.394e-10
 53.24841    -12.0 9.385e+03 1.537e-10
 53.26960    -12.0 9.457e+03 1.624e-10
 53.29633    -11.0 9.581e+03 1.758e-10
 53.33870    -10.1 9.762e+03 1.999e-10
 53.36240     -9.6 1.014e+04 2.443e-10
 53.38359    -10.6 1.041e+04 2.690e-10
 53.42344    -11.3 1.106e+04 4.338e-10
 53.45511    -12.3 1.149e+04 6.035e-10
 53.47620    -14.6 1.220e+04 1.065e-09
 53.49740    -15.8 1.277e+04 1.636e-09
 53.51201    -16.6 1.323e+04 2.190e-09
 53.52260    -17.4 1.342e+04 2.239e-09
 53.53978    -18.5 1.374e+04 2.213e-09
 53.55841    -19.9 1.384e+04 1.849e-09
 53.56900    -21.4 1.373e+04 1.501e-09
 53.58215    -24.2 1.366e+04 1.025e-09
 53.60334    -26.8 1.304e+04 6.914e-10
 53.61541    -30.4 1.295e+04 6.468e-10
 53.62600    -31.9 1.280e+04 5.652e-10
 53.64571    -32.6 1.253e+04 5.414e-10
 53.66191    -33.8 1.255e+04 5.960e-10
 53.68319    -36.4 1.213e+04 4.518e-10
 53.72006    -37.6 1.180e+04 3.756e-10
 53.75481    -38.3 1.162e+04 2.974e-10
 53.77600    -39.1 1.143e+04 2.331e-10
 53.80480    -39.0 1.127e+04 1.912e-10
 53.84718    -38.5 1.121e+04 1.819e-10
 53.86880    -37.7 1.120e+04 1.965e-10
 53.88999    -38.0 1.120e+04 1.585e-10
 53.93192    -37.0 1.123e+04 1.853e-10
 53.96161    -36.1 1.137e+04 2.260e-10
 53.98279    -36.1 1.139e+04 1.933e-10
 54.01667    -35.9 1.182e+04 2.816e-10
 54.05441    -36.4 1.227e+04 5.566e-10
 54.07560    -36.9 1.225e+04 5.024e-10
 54.10141    -36.4 1.262e+04 1.035e-09
 54.14379    -35.6 1.290e+04 1.410e-09
 54.16841    -34.7 1.275e+04 1.226e-09
 54.18959    -34.3 1.249e+04 9.983e-10
 54.22853    -34.3 1.237e+04 7.593e-10
 54.26121    -34.3 1.219e+04 6.276e-10
 54.28240    -33.9 1.210e+04 5.597e-10
 54.31328    -33.1 1.185e+04 4.856e-10
 54.35402    -31.8 1.161e+04 3.557e-10
 54.37520    -31.3 1.171e+04 3.623e-10
 54.39802    -30.5 1.162e+04 2.821e-10
 54.44040    -30.2 1.153e+04 2.229e-10
 54.46801    -29.9 1.132e+04 1.851e-10
 54.48920    -29.3 1.145e+04 3.080e-10
 54.52514    -28.4 1.120e+04 2.626e-10
 54.56081    -27.6 1.102e+04 1.973e-10
 54.57823    -27.0 1.120e+04 2.989e-10
 54.58494    -27.6 1.106e+04 2.556e-10
 54.60989    -27.3 1.090e+04 1.938e-10
 54.65226    -26.9 1.064e+04 1.636e-10
 54.67481    -25.9 1.038e+04 1.464e-10
 54.69599    -25.5 1.038e+04 1.580e-10
 54.73701    -24.1 1.020e+04 1.255e-10
 54.76761    -23.0 1.014e+04 9.745e-11
 54.78880    -22.7 1.013e+04 8.865e-11
 54.82176    -21.8 9.943e+03 8.104e-11
 54.86042    -20.6 9.899e+03 8.204e-11
 54.88160    -20.1 9.794e+03 7.767e-11
 54.90650    -18.7 9.699e+03 8.277e-11
 54.94887    -17.2 9.653e+03 8.812e-11
 54.97441    -15.9 9.684e+03 9.385e-11
 54.99560    -15.2 9.648e+03 8.419e-11
 55.03362    -14.3 9.717e+03 9.794e-11
 55.06722    -13.6 9.786e+03 1.316e-10
 55.08840    -13.1 9.742e+03 1.294e-10
 55.11837    -12.2 9.837e+03 1.909e-10
 55.16002    -11.3 9.983e+03 2.386e-10
 55.18121    -10.8 9.983e+03 2.534e-10
 55.20311    -10.2 1.003e+04 2.536e-10
 55.24549     -9.8 9.982e+03 2.320e-10
 55.27401     -9.4 9.902e+03 2.095e-10
 55.29520     -9.2 9.952e+03 2.273e-10
 55.33023     -9.5 1.001e+04 2.373e-10
 55.36682    -10.1 1.019e+04 3.083e-10
 55.38801    -10.0 1.015e+04 3.447e-10
 55.41498    -10.2 1.030e+04 4.871e-10
 55.45735    -10.0 1.051e+04 6.404e-10
 55.48081     -9.7 1.064e+04 7.027e-10
 55.50200     -9.2 1.007e+04 4.308e-10
 55.54210     -9.1 1.004e+04 4.115e-10
 55.57362     -9.0 9.946e+03 3.740e-10
 55.59480     -8.4 9.544e+03 2.513e-10
 55.62684     -8.0 9.528e+03 2.556e-10
 55.66642     -7.2 9.484e+03 2.523e-10
 55.68761     -6.3 9.281e+03 2.092e-10
 55.71159     -5.0 9.280e+03 2.135e-10
 55.75396     -3.6 9.248e+03 1.976e-10
 55.78042     -2.3 9.204e+03 1.781e-10
 55.80160     -1.4 9.181e+03 1.900e-10
 55.83871     -0.1 9.160e+03 1.882e-10
 55.87322      1.2 9.163e+03 1.909e-10
 55.89441      2.2 9.149e+03 2.015e-10
 55.92345      3.6 9.172e+03 2.129e-10
 55.96583      5.2 9.211e+03 2.310e-10
 55.98721      6.7 9.233e+03 2.400e-10
 56.00840      7.7 9.186e+03 2.371e-10
 56.05057      9.2 9.174e+03 2.338e-10
 56.08002     10.9 9.111e+03 2.175e-10
 56.10121     11.9 8.975e+03 1.917e-10
 56.13532     13.5 8.923e+03 1.706e-10
 56.17282     15.0 8.841e+03 1.478e-10
 56.19401     16.0 8.795e+03 1.442e-10
 56.22007     17.5 8.764e+03 1.350e-10
 56.26244     19.0 8.771e+03 1.353e-10
 56.28682     20.4 8.819e+03 1.418e-10
 56.30800     21.6 8.819e+03 1.419e-10
 56.34718     22.7 8.974e+03 1.652e-10
 56.37962     23.5 9.243e+03 2.191e-10
 56.40081     24.4 9.377e+03 2.358e-10
 56.43193     24.7 9.752e+03 3.490e-10
 56.47243     24.7 1.015e+04 5.068e-10
 56.49361     25.3 1.027e+04 5.424e-10
 56.51668     25.2 1.060e+04 6.823e-10
 56.55905     24.8 1.071e+04 7.017e-10
 56.58642     24.5 1.063e+04 6.555e-10
 56.60761     25.2 1.043e+04 5.670e-10
 56.64380     25.3 1.017e+04 4.427e-10
 56.67923     25.7 9.823e+03 3.001e-10
 56.70041     26.4 9.627e+03 2.538e-10
 56.72854     27.0 9.391e+03 1.681e-10
 56.77091     27.5 9.223e+03 1.203e-10
 56.79322     28.2 9.132e+03 1.126e-10
 56.81440     29.3 9.171e+03 1.144e-10
 56.85566     30.3 9.177e+03 1.156e-10
 56.88602     31.0 9.259e+03 1.263e-10
 56.90721     31.8 9.375e+03 1.423e-10
 56.94041     31.6 9.533e+03 1.721e-10
 56.97883     31.5 9.734e+03 2.672e-10
 57.00002     32.0 9.891e+03 3.435e-10
 57.01446     31.8 9.921e+03 3.644e-10
 57.03555     31.4 1.002e+04 4.104e-10
 57.05674     30.9 1.031e+04 5.624e-10
 57.07792     30.6 1.047e+04 6.605e-10
 57.09263     30.4 1.056e+04 7.051e-10
 57.10322     30.3 1.061e+04 7.413e-10
 57.12030     30.0 1.060e+04 7.296e-10
 57.13903     29.5 1.053e+04 6.882e-10
 57.14962     29.2 1.054e+04 7.162e-10
 57.16267     28.6 1.050e+04 7.029e-10
 57.18386     28.2 1.051e+04 7.139e-10
 57.19603     27.7 1.063e+04 7.692e-10
 57.20662     27.3 1.081e+04 8.725e-10
 57.22623     27.1 1.113e+04 1.041e-09
 57.24243     27.1 1.149e+04 1.257e-09
 57.25302     26.5 1.173e+04 1.429e-09
 57.26860     26.7 1.208e+04 1.661e-09
 57.28883     26.8 1.243e+04 1.862e-09
 57.29942     26.1 1.251e+04 1.902e-09
 57.31098     25.7 1.290e+04 2.090e-09
 57.33216     24.4 1.379e+04 2.532e-09
 57.34583     21.6 1.568e+04 3.997e-09
 57.35642     20.1 1.519e+04 3.739e-09
 57.36898     19.3 1.615e+04 4.971e-09
 57.37423     19.0 1.566e+04 4.372e-09
 57.37973     18.0 1.633e+04 5.189e-09
 57.39033     16.7 1.746e+04 7.355e-09
 57.39743     15.6 1.833e+04 1.086e-08
 57.40273     16.0 1.706e+04 6.783e-09
 57.41151     15.6 1.803e+04 9.663e-09
 57.42063     15.5 1.866e+04 1.311e-08
 57.42593     14.8 1.775e+04 7.602e-09
 57.43270     14.3 1.877e+04 9.972e-09
 57.44329     13.7 1.946e+04 1.225e-08
 57.44913     12.6 1.984e+04 1.401e-08
 57.45443     11.5 1.885e+04 9.992e-09
 57.46448     11.0 1.922e+04 1.144e-08
 57.47233      9.3 1.989e+04 1.430e-08
 57.47763      8.7 1.962e+04 1.189e-08
 57.48567      7.2 2.053e+04 1.602e-08
 57.49553      5.5 2.090e+04 2.201e-08
 57.50083      4.8 2.112e+04 2.010e-08
 57.50685      3.9 2.086e+04 2.968e-08
 57.51745      3.7 2.060e+04 4.182e-08
 57.52403      4.0 2.064e+04 5.714e-08
 57.52933      4.0 2.078e+04 5.641e-08
 57.53863      4.0 2.109e+04 7.459e-08
 57.54723      3.6 2.157e+04 8.552e-08
 57.55253      3.1 2.175e+04 7.991e-08
 57.55939      2.3 2.179e+04 8.713e-08
 57.56469      3.1 2.230e+04 7.498e-08
 57.57041      2.1 2.225e+04 7.562e-08
 57.58101      0.8 2.197e+04 7.313e-08
 57.59160      0.2 2.168e+04 7.191e-08
 57.59893     -0.7 2.126e+04 6.585e-08
 57.60423     -1.1 2.124e+04 6.798e-08
 57.61279     -1.2 2.052e+04 5.586e-08
 57.62213     -1.2 1.991e+04 4.422e-08
 57.62743     -1.2 1.993e+04 4.542e-08
 57.63397     -1.5 1.945e+04 3.679e-08
 57.64457     -2.0 1.913e+04 3.001e-08
 57.65063     -2.6 1.885e+04 2.300e-08
 57.65593     -2.9 1.896e+04 2.630e-08
 57.66575     -3.5 1.894e+04 2.242e-08
 57.67383     -4.3 1.881e+04 1.702e-08
 57.67913     -4.4 1.898e+04 2.183e-08
 57.69178     -5.4 1.889e+04 1.625e-08
 57.70238     -5.5 1.886e+04 1.649e-08
 57.71347     -5.9 1.876e+04 1.418e-08
 57.73471     -7.7 1.705e+04 6.077e-09
 57.74883    -10.4 1.416e+04 2.752e-09
 57.75942     -9.2 1.547e+04 3.711e-09
 57.77708    -11.8 1.255e+04 1.801e-09
 57.79523    -13.0 1.113e+04 1.131e-09
 57.80583    -13.6 1.145e+04 1.186e-09
 57.81945    -13.9 1.074e+04 8.177e-10
 57.84064    -13.8 1.042e+04 6.091e-10
 57.85223    -13.7 1.014e+04 4.459e-10
 57.86282    -14.5 1.035e+04 4.820e-10
 57.88301    -14.9 1.012e+04 3.930e-10
 57.89873    -14.8 9.728e+03 3.193e-10
 57.92001    -15.8 1.005e+04 4.061e-10
 57.95736    -16.3 9.717e+03 3.754e-10
 57.99163    -16.5 9.656e+03 4.014e-10
 58.01282    -17.6 9.632e+03 4.066e-10
 58.04211    -17.7 9.437e+03 3.906e-10
 58.08444    -17.2 9.092e+03 3.297e-10
 58.12681    -17.0 8.397e+03 1.680e-10
 58.16922    -17.2 8.165e+03 1.055e-10
 58.19843    -17.8 8.163e+03 1.001e-10
 58.21962    -19.2 8.218e+03 1.021e-10
 58.25397    -20.2 8.442e+03 1.442e-10
 58.29124    -20.3 8.652e+03 2.290e-10
 58.31242    -21.2 8.764e+03 2.698e-10
 58.33872    -21.2 9.093e+03 3.342e-10
 58.38109    -21.7 9.420e+03 3.894e-10
 58.40513    -22.8 9.513e+03 4.255e-10
 58.42632    -24.4 9.385e+03 4.084e-10
 58.45153    -24.4 9.369e+03 4.454e-10
 58.46203    -25.2 9.330e+03 4.197e-10
 58.47623    -25.6 9.429e+03 4.529e-10
 58.49742    -26.1 9.677e+03 5.139e-10
 58.50843    -26.9 9.994e+03 6.109e-10
 58.51902    -27.6 9.801e+03 5.661e-10
 58.53979    -28.3 1.007e+04 6.968e-10
 58.55483    -28.7 1.027e+04 8.443e-10
 58.56543    -28.8 9.948e+03 7.076e-10
 58.58217    -29.0 1.016e+04 8.216e-10
 58.60124    -29.1 1.030e+04 9.045e-10
 58.61183    -29.3 9.923e+03 6.950e-10
 58.62454    -29.6 1.007e+04 7.494e-10
 58.64573    -29.8 1.009e+04 7.457e-10
 58.65823    -29.8 1.003e+04 6.949e-10
 58.66883    -30.1 9.749e+03 5.526e-10
 58.68810    -30.3 9.743e+03 5.280e-10
 58.70464    -30.4 9.604e+03 4.314e-10
 58.72592    -30.6 9.354e+03 3.532e-10
 58.76245    -30.7 9.164e+03 2.815e-10
 58.79764    -30.5 8.901e+03 2.188e-10
 58.81882    -29.4 8.445e+03 1.506e-10
 58.84719    -28.7 8.199e+03 1.064e-10
 58.88957    -28.1 8.126e+03 8.068e-11
 58.91163    -27.3 8.113e+03 7.449e-11
 58.93282    -26.5 7.967e+03 5.490e-11
 58.97431    -25.5 8.033e+03 5.851e-11
 59.00444    -24.5 8.177e+03 7.321e-11
 59.02562    -23.6 8.104e+03 6.114e-11
 59.05906    -22.5 8.274e+03 8.639e-11
 59.09724    -21.3 8.510e+03 1.329e-10
 59.11843    -20.5 8.462e+03 1.234e-10
 59.14380    -19.2 8.784e+03 1.921e-10
 59.18618    -17.8 9.045e+03 2.574e-10
 59.21123    -16.5 9.308e+03 2.797e-10
 59.23242    -15.6 9.313e+03 2.930e-10
 59.27092    -14.5 9.322e+03 2.708e-10
 59.30404    -13.6 9.353e+03 2.187e-10
 59.32523    -12.7 9.348e+03 2.209e-10
 59.35567    -12.0 9.399e+03 1.890e-10
 59.39684    -11.4 9.434e+03 1.897e-10
 59.41803    -10.3 9.356e+03 1.886e-10
 59.44042     -9.6 9.482e+03 2.007e-10
 59.48279     -8.8 9.615e+03 2.267e-10
 59.51084     -7.9 9.787e+03 2.477e-10
 59.53202     -6.9 9.763e+03 2.488e-10
 59.56753     -6.1 9.943e+03 2.572e-10
 59.60364     -5.3 1.005e+04 2.597e-10
 59.62483     -4.4 9.988e+03 2.579e-10
 59.65228     -4.1 1.019e+04 2.737e-10
 59.69465     -4.2 1.050e+04 3.343e-10
 59.71763     -4.3 1.118e+04 5.838e-10
 59.73882     -3.5 1.097e+04 5.153e-10
 59.76394     -4.0 1.141e+04 6.862e-10
 59.77444     -3.7 1.126e+04 6.306e-10
 59.78980     -4.3 1.171e+04 8.009e-10
 59.81024     -5.4 1.246e+04 1.108e-09
 59.82084     -4.8 1.213e+04 9.378e-10
 59.83217     -6.2 1.281e+04 1.315e-09
 59.85336     -7.0 1.306e+04 1.821e-09
 59.86724     -6.8 1.312e+04 2.316e-09
 59.87783     -6.6 1.273e+04 1.843e-09
 59.89573     -6.4 1.262e+04 1.826e-09
 59.91364     -6.6 1.251e+04 1.737e-09
 59.92424     -6.3 1.226e+04 1.524e-09
 59.94879     -5.6 1.196e+04 1.363e-09
 59.99127     -5.1 1.123e+04 7.954e-10
 60.01724     -5.1 1.053e+04 4.270e-10
 60.02773     -4.2 1.050e+04 4.508e-10
 60.04404     -4.7 1.029e+04 3.833e-10
 60.07591     -4.5 1.000e+04 2.782e-10
 60.11004     -4.7 9.802e+03 2.543e-10
 60.13123     -3.6 9.789e+03 2.469e-10
 60.16076     -3.8 9.848e+03 2.558e-10
 60.20285     -4.4 9.916e+03 2.798e-10
 60.22404     -3.5 9.987e+03 2.812e-10
 60.24550     -4.4 9.832e+03 2.966e-10
 60.28788     -5.2 9.736e+03 3.080e-10
 60.31674     -6.6 9.915e+03 3.437e-10
 60.33793     -6.5 1.006e+04 3.813e-10
 60.37262     -9.3 1.098e+04 7.424e-10
 60.40965    -11.8 1.216e+04 1.602e-09
 60.43074    -12.6 1.273e+04 2.368e-09
 60.44658    -12.5 1.284e+04 2.730e-09
 60.46645    -12.3 1.275e+04 2.574e-09
 60.47704    -11.9 1.291e+04 2.896e-09
 60.48895    -11.8 1.264e+04 2.062e-09
 60.51014    -12.2 1.243e+04 1.557e-09
 60.52344    -14.2 1.193e+04 9.959e-10
 60.53404    -14.6 1.214e+04 1.089e-09
 60.54483    -17.1 1.096e+04 7.240e-10
 60.55542    -18.1 1.002e+04 5.429e-10
 60.58439    -18.3 9.585e+03 5.167e-10
 60.61644    -17.9 9.165e+03 4.204e-10
 60.63763    -17.4 9.176e+03 4.246e-10
 60.66923    -16.6 8.783e+03 3.057e-10
 60.70925    -16.3 8.518e+03 2.351e-10
 60.73044    -16.1 8.514e+03 2.319e-10
 60.75398    -15.5 8.385e+03 2.177e-10
 60.79635    -14.7 8.377e+03 2.221e-10
 60.82324    -13.7 8.418e+03 2.378e-10
 60.84443    -13.3 8.405e+03 2.390e-10
 60.88110    -12.1 8.364e+03 2.334e-10
 60.91605    -10.7 8.287e+03 2.090e-10
 60.93723    -10.5 8.215e+03 1.972e-10
 60.96585     -9.7 8.148e+03 1.591e-10
 61.00822     -9.2 8.064e+03 1.311e-10
 61.03004     -8.7 8.046e+03 1.280e-10
 61.05123     -8.9 8.032e+03 1.261e-10
 61.09296     -8.6 8.111e+03 1.332e-10
 61.12285     -9.0 8.376e+03 1.701e-10
 61.14403     -9.5 8.418e+03 1.872e-10
 61.17771     -9.6 8.707e+03 2.726e-10
 61.21565     -9.5 9.080e+03 3.684e-10
 61.23684     -9.5 8.946e+03 3.153e-10
 61.25177     -9.7 9.213e+03 3.685e-10
 61.27245    -10.3 9.414e+03 4.019e-10
 61.28305    -10.7 9.414e+03 3.938e-10
 61.29404    -12.4 9.825e+03 4.773e-10
 61.31523    -14.0 1.022e+04 5.833e-10
 61.32945    -15.9 1.086e+04 7.983e-10
 61.34004    -17.2 1.135e+04 1.086e-09
 61.35760    -18.4 1.182e+04 1.377e-09
 61.37585    -20.0 1.224e+04 1.632e-09
 61.38644    -20.4 1.236e+04 1.828e-09
 61.39997    -21.3 1.192e+04 1.569e-09
 61.42116    -21.4 1.108e+04 1.118e-09
 61.43285    -22.2 1.049e+04 7.662e-10
 61.44344    -22.7 1.017e+04 5.516e-10
 61.47422    -23.7 9.280e+03 2.411e-10
 61.51526    -25.2 8.731e+03 1.055e-10
 61.53644    -25.4 8.335e+03 6.199e-11
 61.55907    -26.2 7.977e+03 4.818e-11
 61.60144    -26.1 7.994e+03 5.209e-11
 61.62925    -25.8 8.104e+03 6.676e-11
 61.65043    -25.0 8.054e+03 5.262e-11
 61.68619    -24.9 8.226e+03 7.555e-11
 61.72205    -24.8 8.475e+03 1.077e-10
 61.74324    -24.4 8.464e+03 1.069e-10
 61.77093    -24.6 8.754e+03 1.587e-10
 61.81331    -24.9 9.008e+03 2.106e-10
 61.83605    -25.6 9.281e+03 2.496e-10
 61.85723    -25.3 9.471e+03 2.570e-10
 61.89805    -27.0 9.799e+03 3.338e-10
 61.92885    -27.9 9.638e+03 3.705e-10
 61.95004    -27.4 9.733e+03 4.054e-10
 61.98280    -27.0 9.491e+03 3.041e-10
 62.02166    -27.7 9.337e+03 2.111e-10
 62.04284    -27.7 9.346e+03 2.009e-10
 62.06754    -28.0 9.096e+03 1.887e-10
 62.10992    -28.0 9.164e+03 2.197e-10
 62.13565    -27.2 9.289e+03 2.798e-10
 62.15684    -26.8 9.240e+03 2.788e-10
 62.19466    -25.5 9.346e+03 2.848e-10
 62.22845    -24.8 9.504e+03 2.701e-10
 62.24964    -24.2 9.384e+03 2.200e-10
 62.27941    -24.3 9.577e+03 2.282e-10
 62.32126    -25.1 1.005e+04 3.051e-10
 62.34245    -24.8 9.830e+03 2.423e-10
 62.36416    -25.0 1.014e+04 4.034e-10
 62.40653    -24.2 1.040e+04 5.603e-10
 62.43525    -23.8 1.060e+04 5.571e-10
 62.45644    -23.1 1.051e+04 5.137e-10
 62.49127    -23.3 1.065e+04 4.696e-10
 62.52806    -24.0 1.080e+04 4.874e-10
 62.54924    -23.4 1.078e+04 4.802e-10
 62.57602    -23.9 1.092e+04 5.579e-10
 62.61839    -24.1 1.108e+04 5.958e-10
 62.64205    -24.3 1.124e+04 5.839e-10
 62.66324    -23.7 1.108e+04 5.198e-10
 62.70314    -23.9 1.105e+04 4.457e-10
 62.73476    -23.3 1.094e+04 3.770e-10
 62.75585    -23.2 1.097e+04 3.302e-10
 62.77710    -23.4 1.112e+04 3.008e-10
 62.79166    -24.0 1.146e+04 3.086e-10
 62.80225    -23.8 1.135e+04 2.914e-10
 62.81947    -28.1 1.314e+04 4.451e-10
 62.83806    -32.8 1.433e+04 1.006e-09
 62.84865    -31.6 1.394e+04 8.687e-10
 62.86184    -34.1 1.338e+04 1.956e-09
 62.88303    -34.1 1.447e+04 4.374e-09
 62.89506    -35.4 1.746e+04 6.189e-09
 62.90565    -35.7 1.763e+04 6.089e-09
 62.92540    -41.4 1.999e+04 7.157e-09
 62.94146    -48.5 1.759e+04 6.964e-09
 62.95205    -49.7 1.897e+04 1.194e-08
 62.96778    -51.4 1.746e+04 1.261e-08
 62.98786    -50.9 1.694e+04 9.662e-09
 62.99845    -49.2 1.801e+04 1.463e-08
 63.01015    -50.9 1.633e+04 5.077e-09
 63.03134    -56.0 1.326e+04 1.654e-09
 63.04486    -58.2 1.147e+04 1.037e-09
 63.05545    -58.1 1.153e+04 1.075e-09
 63.08440    -58.0 1.095e+04 8.783e-10
 63.12687    -56.8 1.044e+04 6.954e-10
 63.14845    -56.2 1.027e+04 5.918e-10
 63.16964    -54.6 1.020e+04 5.705e-10
 63.21162    -54.3 1.023e+04 5.476e-10
 63.24126    -54.2 1.025e+04 5.453e-10
 63.26244    -52.3 1.023e+04 5.552e-10
 63.29636    -52.1 1.028e+04 5.611e-10
 63.33406    -52.0 1.018e+04 5.071e-10
 63.35525    -50.0 1.022e+04 5.140e-10
 63.38111    -50.0 1.005e+04 4.451e-10
 63.42348    -49.8 9.914e+03 4.057e-10
 63.44806    -49.5 9.805e+03 3.865e-10
 63.46924    -47.8 9.795e+03 3.757e-10
 63.50823    -47.1 9.743e+03 3.703e-10
 63.53037    -46.3 9.693e+03 3.614e-10
 63.54181    -47.2 9.434e+03 2.615e-10
 63.56205    -45.5 9.441e+03 2.441e-10
 63.59297    -44.9 9.434e+03 2.330e-10
 63.63367    -44.5 9.550e+03 2.857e-10
 63.65485    -42.9 9.583e+03 2.554e-10
 63.67772    -42.3 9.802e+03 3.683e-10
 63.72009    -41.6 1.005e+04 4.637e-10
 63.74766    -41.1 1.028e+04 5.177e-10
 63.76885    -39.6 1.012e+04 4.393e-10
 63.80484    -39.0 1.020e+04 4.561e-10
 63.84046    -38.5 1.035e+04 4.967e-10
 63.86165    -37.0 1.005e+04 3.367e-10
 63.88958    -36.3 1.025e+04 3.996e-10
 63.93196    -35.5 1.070e+04 6.184e-10
 63.95446    -34.6 1.170e+04 1.065e-09
 63.97564    -33.3 1.099e+04 7.341e-10
 64.00076    -33.0 1.232e+04 1.299e-09
 64.01126    -32.3 1.165e+04 1.082e-09
 64.02710    -34.3 1.389e+04 1.683e-09
 64.04707    -37.4 1.657e+04 3.854e-09
 64.05766    -36.6 1.686e+04 2.696e-09
 64.06947    -40.3 1.761e+04 8.733e-09
 64.09066    -40.0 1.810e+04 2.352e-08
 64.10401    -38.2 1.824e+04 2.813e-08
 64.11461    -37.6 1.820e+04 2.452e-08
 64.13303    -35.9 1.813e+04 2.194e-08
 64.15047    -35.3 1.776e+04 1.203e-08
 64.16106    -36.2 1.700e+04 9.951e-09
 64.17541    -37.5 1.634e+04 4.208e-09
 64.19659    -46.2 1.457e+04 1.402e-09
 64.20746    -52.6 1.131e+04 7.904e-10
 64.21806    -51.0 1.211e+04 9.400e-10
 64.23897    -54.1 1.080e+04 7.312e-10
 64.25396    -55.5 1.065e+04 6.865e-10
 64.26456    -54.2 1.094e+04 7.861e-10
 64.28134    -54.9 1.068e+04 6.765e-10
 64.30027    -55.5 1.045e+04 5.383e-10
 64.31086    -55.4 1.039e+04 5.173e-10
 64.32371    -56.2 1.013e+04 3.673e-10
 64.34677    -58.4 9.475e+03 2.125e-10
 64.36805    -58.5 9.369e+03 1.810e-10
 64.39806    -59.4 8.870e+03 1.217e-10
 64.43967    -59.3 8.723e+03 9.875e-11
 64.46086    -58.6 8.735e+03 9.838e-11
 64.48281    -57.9 8.729e+03 9.457e-11
 64.52518    -57.5 8.776e+03 9.603e-11
 64.55366    -57.4 9.007e+03 1.246e-10
 64.57485    -56.2 8.970e+03 1.193e-10
 64.60993    -56.4 9.460e+03 1.840e-10
 64.64647    -56.9 1.015e+04 3.318e-10
 64.66766    -55.9 1.018e+04 3.260e-10
 64.68398    -56.9 1.065e+04 5.976e-10
 64.70327    -57.0 1.083e+04 8.114e-10
 64.71386    -56.3 1.072e+04 7.723e-10
 64.72626    -55.8 1.085e+04 9.569e-10
 64.74744    -55.3 1.086e+04 9.916e-10
 64.76027    -54.8 1.079e+04 8.933e-10
 64.77086    -54.0 1.067e+04 7.731e-10
 64.78982    -53.8 1.053e+04 5.453e-10
 64.82169    -54.6 1.033e+04 3.678e-10
 64.85327    -55.7 1.004e+04 3.026e-10
 64.87445    -54.5 1.001e+04 2.740e-10
 64.90654    -54.8 9.909e+03 2.839e-10
 64.94607    -54.8 9.998e+03 3.492e-10
 64.96726    -53.4 1.009e+04 3.725e-10
 64.99128    -53.3 1.019e+04 4.324e-10
 65.01356    -53.8 1.013e+04 4.589e-10
 65.01874    -53.5 1.023e+04 4.818e-10
 65.02814    -53.3 1.014e+04 4.193e-10
 65.04405    -53.4 1.009e+04 4.033e-10
 65.05987    -53.6 9.964e+03 3.616e-10
 65.07046    -53.0 9.952e+03 4.476e-10
 65.08643    -53.3 9.895e+03 3.884e-10
 65.10627    -53.8 9.805e+03 3.417e-10
 65.11687    -53.4 9.990e+03 3.878e-10
 65.12880    -53.9 9.868e+03 3.529e-10
 65.14999    -54.2 9.795e+03 3.385e-10
 65.16327    -54.4 9.785e+03 3.361e-10
 65.17386    -54.2 9.832e+03 4.403e-10
 65.19236    -55.2 1.007e+04 4.478e-10
 65.20967    -64.1 1.566e+04 6.612e-10
 65.22026    -62.3 1.504e+04 6.606e-10
 65.23473    -72.8 1.869e+04 3.416e-09
 65.25592    -76.1 1.900e+04 1.405e-08
 65.26662    -76.4 1.958e+04 2.983e-08
 65.27721    -76.5 1.942e+04 2.503e-08
 65.28982    -77.2 1.949e+04 3.331e-08
 65.29507    -76.7 1.925e+04 2.885e-08
 65.30349    -76.8 1.886e+04 2.846e-08
 65.31297    -76.1 1.804e+04 2.196e-08
 65.32362    -77.0 1.797e+04 1.615e-08
 65.33532    -77.5 1.621e+04 8.881e-09
 65.34147    -77.5 1.550e+04 5.746e-09
 65.34677    -77.4 1.566e+04 5.898e-09
 65.35942    -78.9 1.431e+04 3.166e-09
 65.37007    -78.6 1.406e+04 3.317e-09
 65.38304    -80.0 1.256e+04 1.215e-09
 65.40423    -82.3 1.058e+04 3.894e-10
 65.41647    -83.7 9.220e+03 2.079e-10
 65.42706    -82.9 9.518e+03 2.390e-10
 65.45238    -83.7 8.725e+03 1.681e-10
 65.47356    -81.4 8.751e+03 1.699e-10
 65.49966    -81.0 8.645e+03 1.526e-10
 65.54213    -79.5 8.419e+03 1.209e-10
 65.56647    -78.5 8.385e+03 1.096e-10
 65.58765    -76.7 8.491e+03 1.245e-10
 65.62688    -76.2 8.489e+03 1.232e-10
 65.65927    -76.0 8.561e+03 1.446e-10
 65.68046    -74.3 8.719e+03 1.744e-10
 65.71162    -74.3 8.791e+03 2.200e-10
 65.75208    -74.4 8.800e+03 2.481e-10
 65.77326    -72.6 9.020e+03 2.811e-10
 65.79637    -72.8 8.864e+03 2.739e-10
 65.83874    -73.0 8.682e+03 2.312e-10
 65.86607    -73.1 8.481e+03 1.827e-10
 65.88726    -71.9 8.545e+03 1.845e-10
 65.92349    -72.0 8.387e+03 1.539e-10
 65.95888    -71.9 8.243e+03 1.382e-10
 65.98006    -70.7 8.432e+03 1.618e-10
 66.00824    -70.0 8.252e+03 1.500e-10
 66.05061    -68.9 8.131e+03 1.425e-10
 66.07287    -67.6 8.084e+03 1.401e-10
 66.09405    -66.4 8.248e+03 1.645e-10
 66.13536    -65.1 8.243e+03 1.674e-10
 66.16567    -63.9 8.269e+03 1.722e-10
 66.18686    -62.8 8.429e+03 1.930e-10
 66.22010    -61.7 8.470e+03 1.983e-10
 66.25848    -60.7 8.495e+03 2.002e-10
 66.27967    -59.8 8.652e+03 2.197e-10
 66.30485    -59.0 8.660e+03 2.193e-10
 66.34722    -58.3 8.679e+03 2.179e-10
 66.37247    -57.6 8.707e+03 2.159e-10
 66.39366    -57.0 8.791e+03 2.240e-10
 66.43197    -56.4 8.790e+03 2.203e-10
 66.46528    -55.7 8.796e+03 2.194e-10
 66.48646    -55.3 8.945e+03 2.393e-10
 66.50511    -54.6 8.909e+03 2.307e-10
 66.52630    -54.6 8.903e+03 2.192e-10
 66.55808    -53.8 8.828e+03 1.972e-10
 66.57927    -53.2 8.993e+03 2.301e-10
 66.60146    -52.4 8.857e+03 1.858e-10
 66.64383    -51.5 8.747e+03 1.473e-10
 66.67208    -50.8 8.701e+03 1.227e-10
 66.69326    -50.5 8.792e+03 1.311e-10
 66.72858    -49.7 8.783e+03 1.174e-10
 66.76488    -48.9 8.797e+03 1.134e-10
 66.78607    -48.6 8.862e+03 1.177e-10
 66.81332    -47.6 8.879e+03 1.126e-10
 66.85570    -46.7 8.920e+03 1.113e-10
 66.87887    -45.7 9.032e+03 1.163e-10
 66.90006    -45.2 9.009e+03 1.056e-10
 66.94044    -44.0 9.102e+03 1.089e-10
 66.97168    -42.8 9.216e+03 1.167e-10
 66.99287    -42.3 9.157e+03 1.001e-10
 67.02519    -40.9 9.223e+03 1.017e-10
 67.06448    -39.5 9.241e+03 1.023e-10
 67.08567    -38.8 9.241e+03 9.277e-11
 67.10993    -37.2 9.302e+03 9.076e-11
 67.15231    -35.5 9.330e+03 9.056e-11
 67.17848    -34.0 9.420e+03 9.173e-11
 67.19966    -33.5 9.453e+03 9.201e-11
 67.23705    -32.6 9.837e+03 1.077e-10
 67.27128    -32.1 1.017e+04 1.829e-10
 67.29247    -31.2 1.007e+04 1.645e-10
 67.32180    -30.8 1.044e+04 2.617e-10
 67.36409    -30.6 1.088e+04 4.183e-10
 67.40646    -29.7 1.090e+04 4.149e-10
 67.44892    -29.6 1.105e+04 4.689e-10
 67.47808    -29.6 1.108e+04 4.655e-10
 67.49927    -28.5 1.085e+04 3.502e-10
 67.53367    -28.1 1.088e+04 2.812e-10
 67.57089    -27.7 1.091e+04 2.062e-10
 67.59207    -26.5 1.091e+04 2.132e-10
 67.61841    -26.1 1.096e+04 2.002e-10
 67.66078    -25.7 1.113e+04 2.107e-10
 67.68488    -25.1 1.135e+04 2.469e-10
 67.70606    -24.0 1.136e+04 3.030e-10
 67.74553    -23.1 1.143e+04 3.246e-10
 67.77768    -22.0 1.148e+04 3.087e-10
 67.79887    -21.0 1.140e+04 2.901e-10
 67.83028    -20.3 1.134e+04 2.341e-10
 67.87049    -19.7 1.125e+04 2.042e-10
 67.89168    -19.0 1.115e+04 2.007e-10
 67.91502    -18.3 1.115e+04 2.149e-10
 67.95740    -17.4 1.114e+04 2.752e-10
 67.98448    -16.3 1.110e+04 3.423e-10
 68.00567    -15.3 1.119e+04 4.770e-10
 68.04214    -14.3 1.120e+04 5.069e-10
 68.07729    -13.3 1.105e+04 4.879e-10
 68.09847    -12.7 1.104e+04 4.894e-10
 68.12689    -11.6 1.078e+04 3.893e-10
 68.16926    -10.7 1.056e+04 3.065e-10
 68.19128     -9.7 1.034e+04 2.667e-10
 68.21247     -9.3 1.033e+04 2.704e-10
 68.25401     -8.2 1.027e+04 2.693e-10
 68.28408     -7.1 1.021e+04 3.012e-10
 68.30527     -6.6 1.021e+04 3.540e-10
 68.33875     -5.2 1.019e+04 3.902e-10
 68.37689     -3.7 1.014e+04 4.025e-10
 68.39808     -3.0 1.002e+04 3.913e-10
 68.42350     -1.2 9.770e+03 3.145e-10
 68.46587      0.5 9.544e+03 2.250e-10
 68.49088      2.0 9.307e+03 1.604e-10
 68.51207      2.6 9.122e+03 1.485e-10
 68.55062      4.4 8.967e+03 1.266e-10
 68.58369      6.5 8.852e+03 1.147e-10
 68.60487      7.5 8.844e+03 1.184e-10
 68.63536      9.8 8.777e+03 1.107e-10
 68.67649     12.0 8.757e+03 1.070e-10
 68.69768     12.9 8.837e+03 1.328e-10
 68.72011     14.4 9.017e+03 1.526e-10
 68.76248     15.1 9.407e+03 2.501e-10
 68.79039     16.7 1.000e+04 4.661e-10
 68.81158     16.8 1.072e+04 8.735e-10
 68.83654     19.2 1.098e+04 1.096e-09
 68.84729     19.6 1.109e+04 1.184e-09
 68.85788     20.0 1.121e+04 1.214e-09
 68.87881     21.3 1.145e+04 1.308e-09
 68.89369     21.4 1.151e+04 1.309e-09
 68.90438     21.6 1.165e+04 1.442e-09
 68.93198     21.9 1.157e+04 1.263e-09
 68.97435     21.9 1.200e+04 1.468e-09
 68.99719     21.9 1.303e+04 2.461e-09
 69.00768     22.5 1.261e+04 2.114e-09
 69.02712     22.7 1.344e+04 3.139e-09
 69.04349     23.7 1.431e+04 4.625e-09
 69.05408     24.6 1.357e+04 3.248e-09
 69.06949     25.6 1.436e+04 4.238e-09
 69.08989     26.3 1.496e+04 5.338e-09
 69.10049     26.7 1.375e+04 2.989e-09
 69.11187     26.5 1.422e+04 3.616e-09
 69.13305     26.1 1.467e+04 4.414e-09
 69.14689     25.4 1.511e+04 5.346e-09
 69.15748     25.5 1.375e+04 3.133e-09
 69.17543     25.3 1.431e+04 4.039e-09
 69.19329     25.6 1.483e+04 4.872e-09
 69.20389     26.1 1.380e+04 3.287e-09
 69.21780     26.6 1.442e+04 3.897e-09
 69.23898     26.9 1.471e+04 4.152e-09
 69.25029     27.1 1.447e+04 3.909e-09
 69.26088     27.8 1.416e+04 3.375e-09
 69.28136     28.2 1.371e+04 3.067e-09
 69.29669     28.8 1.302e+04 2.477e-09
 69.30729     29.7 1.295e+04 2.412e-09
 69.32373     30.3 1.241e+04 1.896e-09
 69.34310     30.6 1.191e+04 1.485e-09
 69.35369     31.4 1.189e+04 1.481e-09
 69.36610     31.3 1.150e+04 1.269e-09
 69.38729     31.3 1.143e+04 1.136e-09
 69.40009     31.3 1.144e+04 1.089e-09
 69.41068     32.1 1.147e+04 1.255e-09
 69.42966     32.4 1.173e+04 1.320e-09
 69.44649     32.7 1.188e+04 1.530e-09
 69.45709     33.6 1.178e+04 1.632e-09
 69.47204     34.0 1.211e+04 1.864e-09
 69.49026     34.0 1.265e+04 2.146e-09
 69.50053     34.3 1.217e+04 1.815e-09
 69.50349     35.1 1.208e+04 1.766e-09
 69.51441     34.8 1.256e+04 2.005e-09
 69.53560     34.2 1.286e+04 2.239e-09
 69.54989     34.1 1.297e+04 2.671e-09
 69.56049     34.1 1.293e+04 2.627e-09
 69.57797     34.3 1.324e+04 2.921e-09
 69.59630     34.5 1.370e+04 3.024e-09
 69.60689     34.6 1.356e+04 3.091e-09
 69.62034     34.6 1.374e+04 2.878e-09
 69.64153     34.5 1.333e+04 2.612e-09
 69.65329     34.7 1.291e+04 2.277e-09
 69.66389     34.8 1.295e+04 2.226e-09
 69.68390     34.9 1.263e+04 1.929e-09
 69.69969     35.2 1.250e+04 1.638e-09
 69.71029     35.0 1.224e+04 1.498e-09
 69.73697     35.9 1.193e+04 1.235e-09
 69.77944     36.7 1.200e+04 1.222e-09
 69.80329     37.8 1.239e+04 1.493e-09
 69.82448     38.4 1.186e+04 1.070e-09
 69.86418     39.7 1.230e+04 1.329e-09
 69.89586     40.4 1.181e+04 1.049e-09
 69.90649     40.6 1.197e+04 1.139e-09
 69.91709     41.0 1.160e+04 8.579e-10
 69.93814     41.5 1.166e+04 1.051e-09
 69.95290     41.8 1.190e+04 1.191e-09
 69.96349     42.3 1.167e+04 9.790e-10
 69.98051     43.2 1.184e+04 1.274e-09
 69.99930     43.9 1.212e+04 1.441e-09
 70.00989     44.5 1.196e+04 1.250e-09
 70.03358     46.1 1.222e+04 1.469e-09
 70.07605     48.0 1.210e+04 1.394e-09
 70.10279     49.3 1.210e+04 1.266e-09
 70.11329     49.5 1.220e+04 1.389e-09
 70.12882     50.1 1.229e+04 1.281e-09
 70.14910     50.9 1.235e+04 1.105e-09
 70.15969     51.2 1.246e+04 1.341e-09
 70.17119     51.6 1.255e+04 1.215e-09
 70.19238     51.8 1.248e+04 1.119e-09
 70.20610     51.9 1.243e+04 1.070e-09
 70.21669     52.4 1.268e+04 1.362e-09
 70.23475     52.3 1.278e+04 1.330e-09
 70.25250     51.5 1.308e+04 1.411e-09
 70.26309     52.2 1.332e+04 1.676e-09
 70.27712     50.3 1.381e+04 1.936e-09
 70.29831     48.2 1.436e+04 2.606e-09
 70.30950     47.3 1.456e+04 3.500e-09
 70.32009     47.4 1.440e+04 3.780e-09
 70.34068     47.4 1.450e+04 3.908e-09
 70.35590     47.2 1.469e+04 3.337e-09
 70.36649     47.6 1.472e+04 3.307e-09
 70.38306     46.0 1.478e+04 2.311e-09
 70.40230     43.8 1.364e+04 1.854e-09
 70.41289     43.7 1.367e+04 1.548e-09
 70.42543     42.3 1.259e+04 1.222e-09
 70.44662     42.5 1.229e+04 1.211e-09
 70.45930     43.0 1.220e+04 1.106e-09
 70.46989     42.7 1.190e+04 9.303e-10
 70.48899     43.4 1.204e+04 8.382e-10
 70.50570     43.8 1.197e+04 7.808e-10
 70.51629     44.0 1.172e+04 7.555e-10
 70.53136     44.6 1.160e+04 6.584e-10
 70.55210     45.0 1.145e+04 6.049e-10
 70.56270     45.5 1.138e+04 5.615e-10
 70.57374     46.2 1.116e+04 4.951e-10
 70.59492     47.0 1.090e+04 4.632e-10
 70.60910     48.0 1.101e+04 4.093e-10
 70.61969     48.1 1.092e+04 3.593e-10
 70.63729     48.6 1.068e+04 3.340e-10
 70.66917     50.6 1.086e+04 3.094e-10
 70.70210     51.4 1.076e+04 2.892e-10
 70.72329     51.6 1.066e+04 2.914e-10
 70.75402     51.9 1.048e+04 3.377e-10
 70.79491     52.0 1.019e+04 4.231e-10
 70.81599     52.6 1.016e+04 4.198e-10
 70.82797     53.2 9.910e+03 4.001e-10
 70.84916     52.8 1.021e+04 3.932e-10
 70.86230     51.4 1.083e+04 4.336e-10
 70.87289     52.7 1.039e+04 3.878e-10
 70.89153     51.6 1.064e+04 4.404e-10
 70.90870     51.4 1.028e+04 5.697e-10
 70.91930     52.4 1.017e+04 4.834e-10
 70.93391     52.5 1.008e+04 5.971e-10
 70.95509     50.3 1.217e+04 9.799e-10
 70.97628     47.4 1.438e+04 1.797e-09
 70.98823     44.8 1.524e+04 3.809e-09
 70.99882     44.8 1.470e+04 3.493e-09
 71.01210     45.2 1.529e+04 6.369e-09
 71.02269     46.0 1.488e+04 4.978e-09
 71.03984     46.6 1.585e+04 6.759e-09
 71.05850     46.0 1.633e+04 7.287e-09
 71.06910     46.3 1.558e+04 5.186e-09
 71.08221     44.5 1.508e+04 4.327e-09
 71.10340     42.1 1.411e+04 3.268e-09
 71.11550     39.7 1.326e+04 2.517e-09
 71.12609     39.4 1.270e+04 1.908e-09
 71.14577     36.9 1.224e+04 1.763e-09
 71.16190     34.6 1.209e+04 1.727e-09
 71.17250     34.8 1.201e+04 1.516e-09
 71.18814     33.2 1.213e+04 1.636e-09
 71.20831     32.4 1.218e+04 1.717e-09
 71.21890     32.7 1.218e+04 1.685e-09
 71.23052     32.4 1.216e+04 1.744e-09
 71.25170     32.4 1.201e+04 1.709e-09
 71.26530     32.5 1.181e+04 1.537e-09
 71.27589     33.0 1.191e+04 1.624e-09
 71.29408     33.2 1.163e+04 1.365e-09
 71.31170     33.6 1.142e+04 1.132e-09
 71.32230     33.9 1.139e+04 1.169e-09
 71.33645     34.0 1.095e+04 8.983e-10
 71.35764     34.8 1.084e+04 7.494e-10
 71.36870     34.6 1.043e+04 5.594e-10
 71.37929     34.7 1.034e+04 5.696e-10
 71.40001     35.5 1.028e+04 5.056e-10
 71.41520     36.4 1.036e+04 4.341e-10
 71.43649     36.8 1.015e+04 4.908e-10
 71.47436     39.0 9.945e+03 4.148e-10
 71.50810     41.3 9.948e+03 4.053e-10
 71.52929     40.8 9.971e+03 4.930e-10
 71.55910     43.0 1.021e+04 5.537e-10
 71.60091     45.6 1.055e+04 6.405e-10
 71.62210     44.8 1.108e+04 9.356e-10
 71.63316     46.6 1.099e+04 8.522e-10
 71.65425     47.4 1.116e+04 9.041e-10
 71.66830     48.4 1.134e+04 1.021e-09
 71.67890     48.2 1.165e+04 1.163e-09
 71.69662     49.1 1.187e+04 1.246e-09
 71.71471     50.0 1.196e+04 1.339e-09
 71.72530     49.6 1.228e+04 1.493e-09
 71.73899     50.6 1.239e+04 1.640e-09
 71.76018     51.4 1.272e+04 1.699e-09
 71.77170     52.0 1.281e+04 1.840e-09
 71.78230     50.7 1.383e+04 2.348e-09
 71.80255     50.6 1.449e+04 2.775e-09
 71.81811     50.1 1.522e+04 3.447e-09
 71.82870     47.3 1.713e+04 6.319e-09
 71.84493     47.0 1.763e+04 8.544e-09
 71.86451     47.5 1.788e+04 1.146e-08
 71.87510     46.5 1.878e+04 1.661e-08
 71.88730     47.6 1.894e+04 1.956e-08
 71.90849     48.4 1.931e+04 1.882e-08
 71.92150     49.3 1.970e+04 1.632e-08
 71.93210     48.4 1.946e+04 1.561e-08
 71.95086     47.9 1.970e+04 1.303e-08
 71.96791     46.9 1.979e+04 1.150e-08
 71.97850     45.1 1.915e+04 8.556e-09
 71.99323     43.5 1.988e+04 9.826e-09
 72.01431     41.9 2.145e+04 1.324e-08
 72.02490     37.5 2.090e+04 9.170e-09
 72.03026     36.9 2.322e+04 1.572e-08
 72.04080     35.8 2.397e+04 1.901e-08
 72.04801     35.0 2.522e+04 2.544e-08
 72.05330     33.1 2.326e+04 1.561e-08
 72.06199     32.1 2.340e+04 1.476e-08
 72.07121     30.1 2.332e+04 1.280e-08
 72.08185     23.6 1.856e+04 4.371e-09
 72.09916     19.5 2.212e+04 2.095e-09
 72.11771     17.3 2.281e+04 1.439e-09
 72.12830      9.2 1.275e+04 1.495e-09
 72.14154      8.2 1.230e+04 1.261e-09
 72.16272      8.0 1.196e+04 1.136e-09
 72.17471      8.2 1.181e+04 1.080e-09
 72.18530      9.3 1.181e+04 1.084e-09
 72.20510     10.0 1.172e+04 1.019e-09
 72.22111     10.3 1.154e+04 9.647e-10
 72.23170     11.2 1.146e+04 9.159e-10
 72.24747     11.9 1.125e+04 8.511e-10
 72.26751     13.1 1.116e+04 8.059e-10
 72.27810     14.0 1.092e+04 7.145e-10
 72.28984     15.2 1.079e+04 6.162e-10
 72.31103     16.7 1.096e+04 5.544e-10
 72.32451     17.6 1.107e+04 4.929e-10
 72.33510     18.3 1.068e+04 4.140e-10
 72.35340     19.2 1.086e+04 3.728e-10
 72.37091     19.6 1.083e+04 3.431e-10
 72.38150     20.3 1.059e+04 3.161e-10
 72.40647     21.8 1.054e+04 2.944e-10
 72.42810     24.3 1.054e+04 3.157e-10
 72.44929     25.4 1.049e+04 2.896e-10
 72.47580     27.8 1.068e+04 3.410e-10
 72.48629     27.9 1.132e+04 5.801e-10
 72.50171     28.6 1.127e+04 5.922e-10
 72.52071     30.6 1.119e+04 6.592e-10
 72.53131     31.0 1.089e+04 6.165e-10
 72.54408     32.6 1.118e+04 5.843e-10
 72.56527     34.3 1.122e+04 5.936e-10
 72.57771     35.7 1.166e+04 5.281e-10
 72.58830     35.3 1.171e+04 5.431e-10
 72.60764     35.8 1.209e+04 5.292e-10
 72.62411     36.4 1.215e+04 5.809e-10
 72.63470     34.1 1.300e+04 8.967e-10
 72.65001     34.9 1.358e+04 8.548e-10
 72.67051     35.9 1.359e+04 8.032e-10
 72.68111     32.8 1.585e+04 2.735e-09
 72.69239     33.5 1.460e+04 2.047e-09
 72.71357     34.4 1.384e+04 1.555e-09
 72.72751     35.0 1.396e+04 1.376e-09
 72.73810     32.4 1.620e+04 5.614e-09
 72.75595     33.0 1.592e+04 4.736e-09
 72.77391     34.0 1.568e+04 4.354e-09
 72.78451     32.2 1.723e+04 1.055e-08
 72.79832     32.8 1.700e+04 9.255e-09
 72.81951     33.4 1.708e+04 8.677e-09
 72.83091     33.9 1.732e+04 8.708e-09
 72.84150     32.5 1.733e+04 9.214e-09
 72.86188     32.7 1.713e+04 8.880e-09
 72.87731     32.9 1.702e+04 8.924e-09
 72.88790     32.2 1.649e+04 7.173e-09
 72.90425     32.6 1.627e+04 7.045e-09
 72.92371     33.3 1.562e+04 6.874e-09
 72.93431     33.0 1.480e+04 3.896e-09
 72.94663     34.2 1.441e+04 3.533e-09
 72.96781     35.2 1.412e+04 3.102e-09
 72.98071     36.5 1.375e+04 2.711e-09
 72.99130     36.4 1.297e+04 1.479e-09
 73.01018     37.4 1.293e+04 1.304e-09
 73.02711     38.6 1.258e+04 1.105e-09
 73.03771     38.4 1.165e+04 6.027e-10
 73.05256     39.1 1.154e+04 5.701e-10
 73.07352     40.5 1.130e+04 5.237e-10
 73.08411     40.2 1.053e+04 3.808e-10
 73.09493     41.2 1.064e+04 3.998e-10
 73.11612     42.6 1.059e+04 4.064e-10
 73.13051     44.0 1.060e+04 4.259e-10
 73.14120     43.8 1.030e+04 3.636e-10
 73.16928     46.6 1.040e+04 3.942e-10
 73.21165     49.3 1.050e+04 4.046e-10
 73.23401     51.5 1.052e+04 4.044e-10
 73.25520     52.5 1.033e+04 3.573e-10
 73.29640     54.7 1.050e+04 3.591e-10
 73.32681     56.5 1.050e+04 3.731e-10
 73.34800     57.4 1.021e+04 3.213e-10
 73.38114     59.3 1.026e+04 3.371e-10
 73.41972     61.4 1.039e+04 3.645e-10
 73.44090     62.2 1.023e+04 3.443e-10
 73.46589     64.1 1.039e+04 3.592e-10
 73.50826     65.9 1.052e+04 3.675e-10
 73.53371     67.6 1.067e+04 3.919e-10
 73.55490     68.3 1.061e+04 3.903e-10
 73.59301     69.9 1.075e+04 4.262e-10
 73.62652     71.6 1.091e+04 5.088e-10
 73.64770     72.2 1.080e+04 4.551e-10
 73.67776     73.8 1.092e+04 5.579e-10
 73.71932     75.6 1.105e+04 7.085e-10
 73.74051     76.3 1.083e+04 5.732e-10
 73.76250     78.2 1.094e+04 7.122e-10
 73.80487     79.9 1.096e+04 7.589e-10
 73.83331     81.6 1.086e+04 7.336e-10
 73.85450     82.6 1.056e+04 5.526e-10
 73.88962     84.6 1.025e+04 4.738e-10
 73.92612     86.8 9.864e+03 3.347e-10
 73.94731     87.8 9.675e+03 2.500e-10
 73.97437     89.9 9.399e+03 1.750e-10
 74.01674     91.9 9.185e+03 1.210e-10
 74.04011     93.9 9.008e+03 9.148e-11
 74.06130     95.1 8.998e+03 9.035e-11
 74.10149     97.3 8.902e+03 7.662e-11
 74.13292     99.6 8.820e+03 7.183e-11
 74.15410    100.9 8.823e+03 6.941e-11
 74.18623    103.2 8.779e+03 6.808e-11
 74.22572    105.5 8.781e+03 6.902e-11
 74.24691    106.7 8.779e+03 6.857e-11
 74.27098    109.0 8.797e+03 7.100e-11
 74.31335    111.1 8.834e+03 8.065e-11
 74.33971    113.2 8.986e+03 1.111e-10
 74.36090    114.4 8.993e+03 1.027e-10
 74.39810    116.5 9.438e+03 1.626e-10
 74.43252    118.0 1.004e+04 2.751e-10
 74.45371    119.1 1.007e+04 2.560e-10
 74.48284    119.2 1.045e+04 3.698e-10
 74.51453    119.6 1.092e+04 5.906e-10
 74.53561    120.0 1.123e+04 8.124e-10
 74.54632    120.5 1.156e+04 1.025e-09
 74.55691    120.7 1.154e+04 1.003e-09
 74.57799    121.0 1.174e+04 1.076e-09
 74.59272    121.0 1.172e+04 1.063e-09
 74.60331    121.3 1.169e+04 1.050e-09
 74.62036    121.3 1.157e+04 9.880e-10
 74.63912    121.5 1.131e+04 8.315e-10
 74.64972    121.7 1.135e+04 8.567e-10
 74.66273    121.8 1.103e+04 6.749e-10
 74.68392    121.7 1.073e+04 4.650e-10
 74.69612    121.4 1.058e+04 3.795e-10
 74.70671    121.7 1.063e+04 4.068e-10
 74.73203    121.4 1.043e+04 3.072e-10
 74.75321    121.4 1.050e+04 3.376e-10
 74.76867    121.4 1.042e+04 3.244e-10
 74.78892    121.4 1.041e+04 3.247e-10
 74.79952    121.6 1.056e+04 3.805e-10
 74.81104    121.6 1.059e+04 3.869e-10
 74.83223    121.6 1.071e+04 4.147e-10
 74.84592    121.5 1.093e+04 4.785e-10
 74.85651    121.2 1.135e+04 6.516e-10
 74.87460    121.0 1.164e+04 7.772e-10
 74.89232    120.8 1.192e+04 9.305e-10
 74.90292    120.5 1.235e+04 1.282e-09
 74.91697    120.5 1.259e+04 1.456e-09
 74.93816    120.3 1.285e+04 1.606e-09
 74.94932    119.8 1.324e+04 1.790e-09
 74.95991    118.1 1.446e+04 2.630e-09
 74.98053    116.4 1.540e+04 3.388e-09
 74.99572    114.3 1.662e+04 4.903e-09
 75.00097    112.8 1.763e+04 6.894e-09
 75.00692    112.3 1.793e+04 7.589e-09
 75.01751    111.0 1.862e+04 9.977e-09
 75.02412    110.4 1.904e+04 1.216e-08
 75.02942    109.0 1.999e+04 1.881e-08
 75.03870    108.9 2.023e+04 2.451e-08
 75.04732    109.1 2.039e+04 3.067e-08
 75.05262    108.9 2.093e+04 4.845e-08
 75.05988    109.1 2.092e+04 5.057e-08
 75.07048    109.5 2.079e+04 4.771e-08
 75.07582    110.1 2.037e+04 3.677e-08
 75.08112    109.6 2.042e+04 3.612e-08
 75.09166    109.9 2.008e+04 2.582e-08
 75.09907    109.8 1.952e+04 1.166e-08
 75.10971    106.3 1.974e+04 7.201e-09
 75.12884    101.6 1.902e+04 3.522e-09
 75.14552     95.5 1.698e+04 3.228e-09
 75.15612     91.6 1.570e+04 3.595e-09
 75.17121     89.2 1.537e+04 5.266e-09
 75.19193     88.3 1.556e+04 6.427e-09
 75.20252     88.1 1.574e+04 6.529e-09
 75.21358     87.9 1.553e+04 6.102e-09
 75.23477     88.3 1.480e+04 4.298e-09
 75.24892     88.3 1.388e+04 2.051e-09
 75.25952     87.8 1.347e+04 1.563e-09
 75.27714     84.6 1.258e+04 5.222e-10
 75.29533     80.2 1.121e+04 2.769e-10
 75.30592     79.7 1.098e+04 2.710e-10
 75.33021     79.4 1.022e+04 2.672e-10
 75.35252     79.3 1.012e+04 2.754e-10
 75.37370     79.4 1.018e+04 3.183e-10
 75.41505     79.7 1.022e+04 4.041e-10
 75.44532     80.1 1.027e+04 4.457e-10
 75.45582     79.9 1.040e+04 4.779e-10
 75.46094     79.8 1.039e+04 4.731e-10
 75.47163     79.3 1.033e+04 4.386e-10
 75.49980     79.3 1.010e+04 3.917e-10
 75.53813     79.2 9.846e+03 3.531e-10
 75.55932     79.1 9.794e+03 3.345e-10
 75.58454     79.0 9.588e+03 3.027e-10
 75.62691     79.3 9.393e+03 2.701e-10
 75.65212     79.9 9.192e+03 2.295e-10
 75.67331     79.7 9.152e+03 2.157e-10
 75.71166     80.5 8.968e+03 1.859e-10
 75.74493     81.4 8.782e+03 1.575e-10
 75.76611     81.3 8.790e+03 1.684e-10
 75.79641     82.6 8.625e+03 1.461e-10
 75.83773     84.0 8.466e+03 1.244e-10
 75.85892     84.1 8.522e+03 1.416e-10
 75.88115     85.6 8.389e+03 1.175e-10
 75.92353     87.1 8.271e+03 9.756e-11
 75.95172     88.6 8.174e+03 8.912e-11
 75.97291     88.8 8.229e+03 9.806e-11
 76.00827     90.4 8.212e+03 9.754e-11
 76.04453     92.1 8.230e+03 1.005e-10
 76.06572     92.2 8.353e+03 1.171e-10
 76.09302     93.9 8.487e+03 1.353e-10
 76.13539     95.6 8.921e+03 1.862e-10
 76.15852     96.9 9.560e+03 2.795e-10
 76.17971     95.5 9.782e+03 3.373e-10
 76.20483     95.8 1.018e+04 4.455e-10
 76.21532     95.4 1.026e+04 4.908e-10
 76.23054     95.5 1.054e+04 6.403e-10
 76.25123     96.6 1.115e+04 9.239e-10
 76.27251     95.9 1.084e+04 8.048e-10
 76.30488     96.6 1.100e+04 8.311e-10
 76.34413     97.0 1.084e+04 6.882e-10
 76.36532     95.0 9.198e+03 2.530e-10
 76.38963     93.7 8.227e+03 1.131e-10
 76.43200     92.2 8.261e+03 7.485e-11
 76.45813     91.9 8.249e+03 7.507e-11
 76.47931     92.0 8.038e+03 6.948e-11
 76.51675     92.7 8.100e+03 7.516e-11
 76.55093     93.4 8.209e+03 8.304e-11
 76.57212     94.7 8.194e+03 8.377e-11
 76.60149     95.6 8.283e+03 9.389e-11
 76.64374     96.8 8.343e+03 1.159e-10
 76.68611     99.8 8.559e+03 1.383e-10
 76.72861    101.5 9.072e+03 1.952e-10
 76.75763    102.6 9.292e+03 2.262e-10
 76.76813    103.5 9.094e+03 2.026e-10
 76.78138    103.6 9.369e+03 2.362e-10
 76.80257    103.4 1.010e+04 3.507e-10
 76.81453    101.1 1.173e+04 8.212e-10
 76.82512    101.8 1.143e+04 6.429e-10
 76.84494     98.9 1.377e+04 1.933e-09
 76.86093     98.9 1.592e+04 5.452e-09
 76.87153     99.2 1.536e+04 4.215e-09
 76.88732     99.7 1.671e+04 8.531e-09
 76.90734     99.6 1.733e+04 1.043e-08
 76.91793     99.9 1.654e+04 8.107e-09
 76.92969     99.6 1.647e+04 7.781e-09
 76.94832     99.6 1.585e+04 5.765e-09
 76.95891     99.5 1.532e+04 4.476e-09
 76.96433     98.7 1.421e+04 2.256e-09
 76.97493     98.5 1.384e+04 2.152e-09
 76.99325     96.4 1.234e+04 1.004e-09
 77.01074     93.8 1.044e+04 4.966e-10
 77.02133     94.8 1.079e+04 5.721e-10
 77.03562     93.3 9.552e+03 3.584e-10
 77.05681     93.4 9.321e+03 2.950e-10
 77.06773     93.5 9.329e+03 2.911e-10
 77.07832     94.0 9.329e+03 2.952e-10
 77.10987     95.2 9.252e+03 2.928e-10
 77.15014     96.7 9.046e+03 2.504e-10
 77.17133     96.9 9.188e+03 3.012e-10
 77.19472     98.6 8.943e+03 2.412e-10
 77.23709    100.7 8.709e+03 1.992e-10
 77.26413    103.2 8.687e+03 1.944e-10
 77.28532    102.9 8.789e+03 2.184e-10
 77.32184    106.1 8.890e+03 2.281e-10
 77.35694    109.9 9.331e+03 2.769e-10
 77.37812    108.4 9.544e+03 3.178e-10
 77.39589    110.8 9.654e+03 3.335e-10
 77.41374    112.8 9.765e+03 3.638e-10
 77.42433    112.2 9.907e+03 4.100e-10
 77.43817    114.3 1.029e+04 5.504e-10
 77.45935    116.7 1.127e+04 8.403e-10
 77.47073    119.7 1.254e+04 1.291e-09
 77.47598    116.8 1.290e+04 1.463e-09
 77.48574    118.2 1.323e+04 1.637e-09
 77.49384    118.8 1.450e+04 1.934e-09
 77.49913    114.6 1.762e+04 2.412e-09
 77.50693    100.3 3.396e+04 6.393e-09
 77.51704     83.7 2.994e+04 6.746e-08
 77.52234     83.2 2.959e+04 9.949e-08
 77.52811     81.4 2.458e+04 3.022e-07
 77.53871     80.6 2.372e+04 3.515e-07
 77.54554     79.9 2.381e+04 2.893e-07
 77.55083     78.2 2.420e+04 9.539e-08
 77.55989     76.4 2.858e+04 3.035e-08
 77.56874     72.3 4.626e+04 3.706e-09
 77.57408     67.9 4.104e+04 3.909e-09
 77.58647     40.1 6.455e+04 1.924e-10
 77.60766      7.3 1.700e+04 2.023e-10
 77.62054      0.6 1.024e+04 3.251e-10
 77.63113      0.6 1.004e+04 3.276e-10
 77.65003     -4.2 1.187e+04 6.659e-10
 77.66694     -9.5 1.370e+04 1.591e-09
 77.67753     -8.2 1.343e+04 1.684e-09
 77.69240    -10.8 1.441e+04 3.090e-09
 77.71334    -12.1 1.499e+04 3.902e-09
 77.72393    -10.6 1.466e+04 3.346e-09
 77.73478    -12.8 1.470e+04 2.836e-09
 77.75596    -16.6 1.489e+04 1.607e-09
 77.77043    -26.0 1.274e+04 6.045e-10
 77.79172    -22.2 1.222e+04 6.240e-10
 77.83031    -27.3 1.032e+04 3.634e-10
 77.86334    -28.1 9.976e+03 2.776e-10
 77.88452    -25.0 1.017e+04 3.333e-10
 77.91506    -25.3 9.897e+03 2.529e-10
 77.95614    -26.1 9.727e+03 2.006e-10
 77.97733    -23.8 1.003e+04 2.610e-10
 77.99980    -25.3 1.001e+04 2.432e-10
 78.04218    -26.6 1.016e+04 3.080e-10
 78.07004    -26.3 1.027e+04 4.014e-10
 78.08053    -25.4 1.019e+04 4.199e-10
 78.09495    -25.4 1.017e+04 5.020e-10
 78.11614    -25.3 1.013e+04 5.539e-10
 78.12694    -25.2 1.012e+04 5.731e-10
 78.13753    -24.7 1.021e+04 5.582e-10
 78.15851    -24.8 1.007e+04 5.247e-10
 78.17334    -25.0 9.969e+03 4.773e-10
 78.18393    -24.3 9.601e+03 4.065e-10
 78.20088    -25.0 9.583e+03 3.842e-10
 78.21974    -26.1 9.910e+03 3.985e-10
 78.23034    -25.9 1.000e+04 4.172e-10
 78.24325    -27.1 1.040e+04 5.178e-10
 78.26444    -28.0 1.092e+04 6.597e-10
 78.27674    -29.1 1.151e+04 8.518e-10
 78.28733    -29.6 1.195e+04 1.108e-09
 78.30681    -30.6 1.242e+04 1.702e-09
 78.32314    -29.7 1.253e+04 2.233e-09
 78.33373    -29.0 1.323e+04 2.901e-09
 78.34919    -28.0 1.321e+04 2.968e-09
 78.36954    -26.9 1.284e+04 2.604e-09
 78.38014    -26.1 1.340e+04 2.963e-09
 78.39156    -25.7 1.265e+04 1.974e-09
 78.41275    -26.5 1.189e+04 1.266e-09
 78.42654    -27.6 1.104e+04 8.411e-10
 78.43713    -28.0 1.079e+04 7.776e-10
 78.44638    -28.7 9.984e+03 5.623e-10
 78.45698    -27.1 1.027e+04 5.533e-10
 78.47294    -27.3 9.762e+03 4.452e-10
 78.48363    -27.6 1.002e+04 4.922e-10
 78.50828    -26.6 9.135e+03 3.376e-10
 78.55065    -25.4 8.724e+03 2.768e-10
 78.57654    -24.1 8.637e+03 2.666e-10
 78.59772    -23.9 8.641e+03 2.861e-10
 78.63540    -22.5 8.682e+03 3.074e-10
 78.66934    -21.2 8.936e+03 3.819e-10
 78.69053    -21.0 8.972e+03 3.868e-10
 78.72015    -20.5 9.484e+03 5.188e-10
 78.76215    -20.2 1.011e+04 7.504e-10
 78.78334    -20.5 1.019e+04 7.531e-10
 78.80489    -19.9 1.056e+04 9.024e-10
 78.84727    -19.4 1.060e+04 9.040e-10
 78.87604    -18.9 1.008e+04 6.348e-10
 78.88654    -19.6 1.008e+04 5.598e-10
 78.90004    -20.1 9.861e+03 4.175e-10
 78.92122    -21.5 9.537e+03 3.290e-10
 78.93294    -22.4 9.327e+03 2.958e-10
 78.94353    -23.2 9.271e+03 3.218e-10
 78.96360    -23.0 9.149e+03 3.171e-10
 78.97934    -22.0 9.113e+03 3.297e-10
 78.98994    -22.5 9.511e+03 4.683e-10
 79.01666    -20.7 9.626e+03 5.061e-10
 79.05913    -17.8 9.398e+03 4.448e-10
 79.08294    -15.0 9.330e+03 4.415e-10
 79.10413    -15.2 9.396e+03 4.298e-10
 79.14388    -12.7 9.465e+03 5.386e-10
 79.17556    -11.5 9.189e+03 6.663e-10
 79.19675    -12.0 1.042e+04 6.624e-10
 79.21793     -9.5 8.791e+03 1.023e-09
 79.23255     -8.7 9.321e+03 1.217e-09
 79.24314     -9.0 7.977e+03 9.808e-10
 79.26021     -8.6 1.045e+04 9.340e-10
 79.27895     -7.3 1.093e+04 1.039e-09
 79.28954     -4.9 5.229e+03 5.581e-10
 79.30258     -5.3 7.119e+03 7.743e-10
 79.32377     -4.2 6.876e+03 8.250e-10
 79.33594     -2.6 8.140e+03 8.174e-10
 79.34654     -3.4 7.631e+03 5.100e-10
 79.36614     -1.8 7.591e+03 5.476e-10
 79.38235      0.1 1.007e+04 5.234e-10
 79.39294      0.5 1.725e+04 1.063e-10
 79.40851      1.6 2.728e+04 1.032e-10
 79.42875      6.1 4.826e+04 1.157e-10
 79.43934      6.5 5.068e+04 1.153e-10
 79.45089     10.2 5.557e+04 1.332e-10
 79.47207     11.9 3.775e+04 1.994e-10
 79.48575     14.4 3.752e+04 2.264e-10
 79.49634     11.1 5.126e+04 7.624e-11
 79.51445      2.5 1.108e+05 1.070e-10
 79.53029     15.2 1.125e+05 9.637e-10
 79.53735     15.1 1.184e+05 9.647e-10
 79.54269     -8.1 1.230e+05 3.903e-10
 79.55147    -15.0 1.228e+05 8.414e-10
 79.56055    -13.2 1.081e+05 1.368e-09
 79.56585    -15.3 1.029e+05 1.124e-09
 79.57261    -11.0 8.976e+04 2.015e-09
 79.58320    -10.1 8.606e+04 4.621e-09
 79.58905    -12.7 8.192e+04 1.075e-08
 79.59434     -8.4 7.285e+04 2.070e-09
 79.60439    -14.8 8.526e+04 1.990e-09
 79.61225    -43.5 8.494e+04 2.874e-09
 79.61755    -45.7 5.116e+04 1.324e-09
 79.62558    -54.3 5.420e+04 2.075e-09
 79.63545    -62.2 5.474e+04 4.490e-09
 79.64075    -58.3 4.054e+04 5.028e-09
 79.64676    -59.7 3.997e+04 6.961e-09
 79.65736    -64.7 4.049e+04 1.054e-08
 79.66395    -66.1 4.171e+04 1.384e-08
 79.66924    -61.3 3.461e+04 9.591e-09
 79.67854    -63.4 3.451e+04 1.132e-08
 79.68715    -63.9 3.603e+04 1.247e-08
 79.69249    -58.5 2.943e+04 8.293e-09
 79.70512    -60.5 2.842e+04 8.745e-09
 79.72631    -61.5 2.694e+04 8.165e-09
 79.73895    -61.4 2.520e+04 6.836e-09
 79.74954    -57.3 2.109e+04 5.447e-09
 79.76868    -57.5 1.798e+04 3.993e-09
 79.78535    -56.9 1.544e+04 3.107e-09
 79.79594    -53.9 1.485e+04 2.823e-09
 79.81106    -52.8 1.372e+04 2.353e-09
 79.83175    -51.1 1.312e+04 2.046e-09
 79.84235    -48.7 1.302e+04 1.947e-09
 79.85343    -47.0 1.268e+04 1.739e-09
 79.87462    -45.4 1.237e+04 1.571e-09
 79.88875    -43.9 1.213e+04 1.479e-09
 79.89934    -42.0 1.188e+04 1.314e-09
 79.91699    -40.5 1.156e+04 1.209e-09
 79.93366    -39.0 1.145e+04 1.182e-09
 79.94123    -39.3 1.123e+04 1.167e-09
 79.94574    -38.3 1.100e+04 1.034e-09
 79.95936    -36.7 1.089e+04 1.008e-09
 79.98055    -35.0 1.085e+04 1.002e-09
 79.99215    -33.4 1.089e+04 1.049e-09
 80.00274    -32.7 1.067e+04 9.029e-10
 80.02292    -31.2 1.083e+04 9.760e-10
 80.03855    -29.8 1.112e+04 1.118e-09
 80.04914    -29.1 1.075e+04 9.559e-10
 80.06529    -27.9 1.101e+04 1.101e-09
 80.08495    -26.6 1.119e+04 1.244e-09
 80.09555    -26.0 1.081e+04 1.024e-09
 80.10767    -24.5 1.109e+04 1.189e-09
 80.12885    -23.1 1.152e+04 1.443e-09
 80.14195    -21.9 1.189e+04 1.710e-09
 80.15254    -21.6 1.145e+04 1.416e-09
 80.17123    -20.4 1.169e+04 1.610e-09
 80.18835    -19.1 1.197e+04 1.799e-09
 80.19895    -19.2 1.164e+04 1.484e-09
 80.21360    -18.0 1.183e+04 1.594e-09
 80.23475    -16.8 1.192e+04 1.630e-09
 80.25594    -16.1 1.171e+04 1.320e-09
 80.27716    -15.0 1.166e+04 1.186e-09
 80.29175    -14.3 1.163e+04 1.061e-09
 80.30234    -15.1 1.117e+04 8.749e-10
 80.31953    -14.7 1.095e+04 7.513e-10
 80.33815    -14.6 1.077e+04 6.752e-10
 80.34875    -14.9 1.037e+04 6.257e-10
 80.36191    -14.5 1.032e+04 6.071e-10
 80.38309    -14.3 1.068e+04 6.487e-10
 80.39515    -14.4 1.132e+04 8.237e-10
 80.40574    -13.8 1.138e+04 7.518e-10
 80.42547    -13.8 1.234e+04 1.059e-09
 80.44155    -13.9 1.315e+04 1.647e-09
 80.45215    -14.2 1.380e+04 1.697e-09
 80.46784    -14.2 1.479e+04 2.691e-09
 80.48796    -13.7 1.555e+04 4.210e-09
 80.49855    -14.5 1.706e+04 5.135e-09
 80.51021    -13.9 1.827e+04 7.416e-09
 80.52170    -12.7 1.861e+04 9.415e-09
 80.52695    -13.6 1.959e+04 1.004e-08
 80.53660    -13.5 1.997e+04 1.134e-08
 80.54485    -13.0 1.983e+04 1.281e-08
 80.55550    -12.4 2.049e+04 1.162e-08
 80.57377    -11.6 2.034e+04 1.173e-08
 80.59135    -10.5 1.933e+04 1.107e-08
 80.60195    -11.6 1.913e+04 8.093e-09
 80.61614    -10.5 1.863e+04 6.194e-09
 80.63733     -9.4 1.779e+04 4.195e-09
 80.64835     -8.7 1.675e+04 2.605e-09
 80.65894    -10.5 1.429e+04 2.136e-09
 80.67970     -9.7 1.404e+04 1.449e-09
 80.69475     -9.1 1.362e+04 1.009e-09
 80.70535     -8.3 1.327e+04 1.180e-09
 80.72208     -7.6 1.303e+04 8.679e-10
 80.75395     -5.7 1.252e+04 6.345e-10
 80.78775     -3.9 1.159e+04 5.156e-10
 80.80894     -2.6 1.222e+04 7.190e-10
 80.83880     -1.2 1.159e+04 6.185e-10
 80.88056      1.2 1.110e+04 7.750e-10
 80.90175      2.0 1.198e+04 9.664e-10
 80.92354      4.6 1.122e+04 7.609e-10
 80.94805      6.8 1.098e+04 6.207e-10
 80.95855      6.7 1.112e+04 6.294e-10
 80.97632      7.2 1.112e+04 6.128e-10
 80.99436      8.7 1.118e+04 4.936e-10
 81.01564      7.3 1.178e+04 6.203e-10
 81.05066      9.1 1.164e+04 6.757e-10
 81.08235      9.1 1.197e+04 9.613e-10
 81.09776      9.0 1.230e+04 1.285e-09
 81.10835      8.2 1.260e+04 1.750e-09
 81.12462      6.5 1.371e+04 2.602e-09
 81.14416      4.1 1.544e+04 4.493e-09
 81.15475      4.2 1.502e+04 4.513e-09
 81.16699      4.5 1.531e+04 6.456e-09
 81.17790      4.7 1.557e+04 5.811e-09
 81.18315      5.0 1.509e+04 5.315e-09
 81.19338      4.7 1.516e+04 5.234e-09
 81.20106      3.9 1.624e+04 4.479e-09
 81.21170      4.1 1.510e+04 3.455e-09
 81.23055      1.3 1.567e+04 2.568e-09
 81.24756     -3.0 1.440e+04 1.874e-09
 81.25815     -2.1 1.358e+04 1.186e-09
 81.27293     -4.0 1.286e+04 1.201e-09
 81.29396     -4.2 1.248e+04 1.326e-09
 81.30455     -2.9 1.221e+04 9.802e-10
 81.31530     -2.8 1.250e+04 1.065e-09
 81.33649     -2.5 1.204e+04 1.210e-09
 81.35096     -1.8 1.179e+04 1.324e-09
 81.36155     -1.4 1.184e+04 1.079e-09
 81.37886     -1.0 1.182e+04 1.171e-09
 81.39736     -1.1 1.320e+04 1.400e-09
 81.40795     -0.0 1.167e+04 1.086e-09
 81.42103     -0.6 1.319e+04 1.307e-09
 81.43163     -0.3 1.212e+04 1.179e-09
 81.44242     -1.8 1.569e+04 1.740e-09
 81.45436     -3.8 1.815e+04 3.023e-09
 81.46495     -1.2 1.490e+04 1.622e-09
 81.48479     -2.8 1.676e+04 2.925e-09
 81.50076     -3.2 1.674e+04 4.669e-09
 81.51135     -1.4 1.572e+04 2.742e-09
 81.52716     -1.5 1.654e+04 4.477e-09
 81.54716     -1.6 1.694e+04 6.508e-09
 81.55775     -0.1 1.643e+04 4.425e-09
 81.56954     -0.6 1.757e+04 6.947e-09
 81.59072     -0.9 1.781e+04 9.759e-09
 81.60416     -0.4 1.786e+04 1.227e-08
 81.61475      0.5 1.810e+04 1.099e-08
 81.63310      1.4 1.809e+04 1.295e-08
 81.65056      2.1 1.880e+04 9.784e-09
 81.66115      1.8 1.911e+04 8.876e-09
 81.67547      1.0 1.902e+04 7.446e-09
 81.69666     -0.4 1.861e+04 6.808e-09
 81.70756     -1.0 1.758e+04 6.529e-09
 81.71815     -0.0 1.737e+04 6.923e-09
 81.73903      0.1 1.657e+04 6.179e-09
 81.75396      0.5 1.567e+04 5.768e-09
 81.76455      2.2 1.563e+04 5.444e-09
 81.78140      2.7 1.558e+04 5.811e-09
 81.80036      3.0 1.593e+04 6.414e-09
 81.81095      4.8 1.576e+04 5.470e-09
 81.82378      4.6 1.614e+04 6.707e-09
 81.84496      4.6 1.640e+04 8.822e-09
 81.85736      5.0 1.691e+04 1.202e-08
 81.86795      6.1 1.671e+04 1.018e-08
 81.88734      6.4 1.735e+04 1.476e-08
 81.90376      7.4 1.799e+04 1.900e-08
 81.91435      7.7 1.765e+04 1.577e-08
 81.92971      8.7 1.821e+04 1.972e-08
 81.95016      9.5 1.839e+04 1.906e-08
 81.96076      9.4 1.798e+04 1.624e-08
 81.97208     10.5 1.803e+04 1.618e-08
 81.99327     11.8 1.819e+04 1.574e-08
 82.00716     12.2 1.928e+04 1.534e-08
 82.01775     13.3 1.878e+04 1.676e-08
 82.03030     12.4 1.972e+04 1.641e-08
 82.04084     12.6 2.018e+04 1.930e-08
 82.05143     12.1 2.123e+04 2.197e-08
 82.05876     11.1 2.326e+04 2.393e-08
 82.06406     12.5 2.222e+04 2.624e-08
 82.07262     11.4 2.353e+04 3.247e-08
 82.08196     10.2 2.376e+04 4.213e-08
 82.08726     11.7 2.292e+04 4.680e-08
 82.09381     11.4 2.204e+04 6.790e-08
 82.10440     11.5 2.161e+04 1.004e-07
 82.11046     12.4 2.178e+04 1.517e-07
 82.11576     15.5 2.198e+04 1.484e-07
 82.12559     16.1 2.243e+04 2.495e-07
 82.13366     16.2 2.281e+04 3.881e-07
 82.13896     20.7 2.304e+04 5.235e-07
 82.14677     19.7 2.264e+04 1.070e-06
 82.15686      8.8 2.512e+04 7.117e-07
 82.16214      6.0 2.501e+04 1.007e-06
 82.16526     -6.9 2.656e+04 2.789e-07
 82.17056     -9.9 2.821e+04 2.154e-07
 82.17519    -17.5 2.714e+04 8.259e-08
 82.18051    -18.6 2.525e+04 9.742e-08
 82.18536    -20.0 2.532e+04 4.203e-08
 82.19066    -27.3 2.684e+04 5.227e-08
 82.19974    -24.5 2.478e+04 2.621e-08
 82.20856    -23.7 2.330e+04 1.662e-08
 82.21386    -25.2 2.319e+04 2.101e-08
 82.22093    -23.5 2.205e+04 1.446e-08
 82.23152    -22.2 2.088e+04 1.129e-08
 82.24746    -21.0 1.946e+04 8.331e-09
 82.26036    -19.1 1.564e+04 4.393e-09
 82.27095    -18.0 1.723e+04 5.151e-09
 82.28988    -18.8 1.387e+04 3.075e-09
 82.30676    -17.0 1.287e+04 2.607e-09
 82.31736    -16.8 1.275e+04 2.381e-09
 82.33225    -14.5 1.246e+04 2.221e-09
 82.35317    -12.8 1.232e+04 2.018e-09
 82.36376    -12.3 1.214e+04 1.849e-09
 82.37463    -11.0 1.198e+04 1.677e-09
 82.39581    -10.0 1.174e+04 1.499e-09
 82.41016     -9.1 1.150e+04 1.338e-09
 82.42076     -8.4 1.140e+04 1.297e-09
 82.43818     -7.5 1.129e+04 1.207e-09
 82.45656     -6.7 1.113e+04 1.102e-09
 82.46716     -6.0 1.112e+04 1.136e-09
 82.48056     -4.9 1.112e+04 1.082e-09
 82.50174     -4.1 1.103e+04 9.985e-10
 82.51356     -3.2 1.074e+04 8.676e-10
 82.52415     -2.4 1.105e+04 1.045e-09
 82.54412     -1.6 1.087e+04 9.231e-10
 82.55996     -0.9 1.067e+04 8.016e-10
 82.57056     -0.1 1.098e+04 1.008e-09
 82.58649      0.5 1.086e+04 8.730e-10
 82.60646      1.3 1.050e+04 6.638e-10
 82.62775      3.1 1.111e+04 1.001e-09
 82.66084      4.3 1.057e+04 6.190e-10
 82.69937      4.7 9.920e+03 3.764e-10
 82.72055      6.3 1.027e+04 4.448e-10
 82.74558      5.8 9.669e+03 3.218e-10
 82.78796      5.7 9.779e+03 4.045e-10
 82.81336      6.6 1.026e+04 6.421e-10
 82.83455      6.9 1.047e+04 6.855e-10
 82.85966      7.7 1.100e+04 9.466e-10
 82.87016      7.6 1.115e+04 1.013e-09
 82.88310      7.1 1.130e+04 1.137e-09
 82.90429      8.1 1.182e+04 1.401e-09
 82.91656      8.0 1.178e+04 1.402e-09
 82.92068      7.8 1.222e+04 1.645e-09
 82.92959      8.5 1.238e+04 1.727e-09
 82.94666      8.7 1.246e+04 1.774e-09
 82.96297      8.2 1.247e+04 1.679e-09
 82.97356      7.8 1.274e+04 1.765e-09
 82.98903      7.1 1.254e+04 1.658e-09
 83.00937      6.5 1.244e+04 1.597e-09
 83.01996      6.2 1.249e+04 1.564e-09
 83.03141      5.3 1.222e+04 1.395e-09
 83.05259      5.3 1.221e+04 1.387e-09
 83.06637      4.8 1.196e+04 1.285e-09
 83.07696      4.4 1.182e+04 1.195e-09
 83.09497      4.4 1.179e+04 1.214e-09
 83.11287      4.9 1.174e+04 1.300e-09
 83.13415      4.0 1.111e+04 9.395e-10
 83.16931      4.9 1.063e+04 7.248e-10
 83.20577      5.5 1.017e+04 5.057e-10
 83.22696      4.9 9.605e+03 3.048e-10
 83.25406      4.5 9.369e+03 2.428e-10
 83.29643      4.1 9.372e+03 2.414e-10
 83.31976      3.5 9.559e+03 3.489e-10
 83.34095      3.0 9.574e+03 3.548e-10
 83.38118      2.9 9.903e+03 5.574e-10
 83.41257      3.0 1.023e+04 7.355e-10
 83.43375      2.9 1.059e+04 8.858e-10
 83.46593      2.4 1.069e+04 9.595e-10
 83.49761      1.6 1.058e+04 9.373e-10
 83.51577      1.3 1.052e+04 9.293e-10
 83.52636      1.0 1.075e+04 1.097e-09
 83.53988      0.8 1.045e+04 9.791e-10
 83.56107      0.8 1.014e+04 8.514e-10
 83.57277      0.9 9.793e+03 7.298e-10
 83.58336      0.9 9.915e+03 7.798e-10
 83.60344      1.1 9.559e+03 6.228e-10
 83.61917      1.2 9.236e+03 4.991e-10
 83.62976      1.0 9.252e+03 4.886e-10
 83.64582      0.9 8.981e+03 3.924e-10
 83.67769      0.5 8.734e+03 3.184e-10
 83.71217      0.8 8.495e+03 2.767e-10
 83.73336     -1.8 9.501e+03 3.722e-10
 83.76254     -3.5 1.074e+04 6.224e-10
 83.80491     -4.9 1.204e+04 1.368e-09
 83.83659     -4.8 1.276e+04 3.150e-09
 83.85768     -3.9 1.290e+04 3.375e-09
 83.87237     -2.6 1.288e+04 3.597e-09
 83.88296     -1.8 1.253e+04 2.805e-09
 83.90005     -0.7 1.251e+04 2.244e-09
 83.91877      0.3 1.255e+04 1.705e-09
 83.94006     -1.4 1.220e+04 9.080e-10
 83.97440     -2.5 1.128e+04 5.008e-10
 84.00608     -6.5 8.637e+03 2.383e-10
 84.02217     -6.5 8.612e+03 2.388e-10
 84.03286     -6.6 8.623e+03 2.525e-10
 84.05915     -5.8 8.886e+03 3.013e-10
 84.10152     -5.4 9.135e+03 3.443e-10
 84.12577     -5.4 9.367e+03 3.684e-10
 84.14695     -6.2 9.048e+03 2.881e-10
 84.18627     -7.0 9.068e+03 2.931e-10
 84.21857     -7.6 9.267e+03 3.454e-10
 84.23976     -8.2 9.357e+03 3.679e-10
 84.26032     -8.3 9.632e+03 4.197e-10
 84.27537     -9.1 9.786e+03 4.510e-10
 84.28597     -9.5 9.864e+03 4.790e-10
 84.30260     -9.8 1.018e+04 5.466e-10
 84.32178    -10.9 1.055e+04 6.321e-10
 84.33237    -11.8 1.067e+04 6.870e-10
 84.34497    -13.7 1.133e+04 9.451e-10
 84.36616    -15.5 1.203e+04 1.370e-09
 84.37877    -16.4 1.266e+04 2.156e-09
 84.38936    -16.1 1.229e+04 1.745e-09
 84.40637    -16.3 1.255e+04 1.953e-09
 84.41697    -16.5 1.191e+04 1.382e-09
 84.42517    -16.6 1.201e+04 1.366e-09
 84.43577    -17.1 1.134e+04 9.003e-10
 84.45090    -18.3 1.095e+04 6.117e-10
 84.47158    -20.4 1.037e+04 4.143e-10
 84.48217    -21.1 1.003e+04 3.334e-10
 84.49328    -22.5 9.848e+03 2.944e-10
 84.51808    -23.6 9.794e+03 2.863e-10
 84.53936    -23.5 9.830e+03 2.904e-10
 84.56762    -24.9 1.010e+04 3.907e-10
 84.59931    -25.6 1.037e+04 5.675e-10
 84.62040    -25.8 1.054e+04 6.745e-10
 84.63197    -25.7 1.071e+04 7.640e-10
 84.64257    -25.3 1.077e+04 7.948e-10
 84.66277    -25.2 1.082e+04 8.085e-10
 84.67837    -25.2 1.079e+04 7.718e-10
 84.68897    -25.1 1.068e+04 7.151e-10
 84.70514    -25.4 1.058e+04 6.286e-10
 84.72478    -26.1 1.062e+04 5.801e-10
 84.73537    -26.4 1.056e+04 5.512e-10
 84.74752    -27.7 1.079e+04 5.499e-10
 84.76870    -29.1 1.108e+04 6.286e-10
 84.78177    -30.2 1.120e+04 7.813e-10
 84.79237    -30.4 1.112e+04 8.170e-10
 84.81107    -30.6 1.111e+04 9.790e-10
 84.82818    -30.1 1.113e+04 1.062e-09
 84.83877    -29.7 1.104e+04 1.048e-09
 84.85345    -29.2 1.103e+04 9.211e-10
 84.87458    -29.1 1.099e+04 7.558e-10
 84.89577    -29.8 1.049e+04 4.842e-10
 84.91701    -30.5 1.012e+04 3.798e-10
 84.93167    -30.2 9.985e+03 3.576e-10
 84.95296    -30.1 9.718e+03 3.093e-10
 84.99136    -29.9 9.458e+03 2.891e-10
 85.02458    -29.5 9.264e+03 3.110e-10
 85.04576    -29.6 9.427e+03 3.327e-10
 85.07610    -29.2 9.565e+03 3.981e-10
 85.11738    -28.5 9.771e+03 4.830e-10
 85.13847    -28.6 9.725e+03 4.626e-10
 85.15006    -28.0 9.898e+03 5.286e-10
 85.17125    -28.0 1.007e+04 5.801e-10
 85.18478    -27.6 1.039e+04 6.836e-10
 85.19537    -28.0 1.034e+04 6.722e-10
 85.21362    -27.9 1.064e+04 8.030e-10
 85.23118    -27.9 1.098e+04 9.748e-10
 85.24177    -28.4 1.108e+04 1.033e-09
 85.25599    -28.5 1.147e+04 1.277e-09
 85.27718    -28.4 1.184e+04 1.513e-09
 85.28818    -28.2 1.212e+04 1.638e-09
 85.29877    -29.0 1.241e+04 1.872e-09
 85.31955    -28.7 1.248e+04 1.875e-09
 85.33458    -28.6 1.241e+04 1.608e-09
 85.34517    -29.3 1.248e+04 1.746e-09
 85.36192    -29.5 1.184e+04 1.275e-09
 85.38098    -30.1 1.107e+04 1.009e-09
 85.39157    -30.5 1.102e+04 1.007e-09
 85.41499    -29.9 1.070e+04 8.484e-10
 85.43817    -28.4 1.014e+04 6.391e-10
 85.45936    -28.3 9.610e+03 4.412e-10
 85.49983    -26.6 9.349e+03 3.261e-10
 85.53098    -25.3 9.260e+03 2.861e-10
 85.55216    -25.0 8.818e+03 2.188e-10
 85.58458    -23.5 8.810e+03 2.149e-10
 85.62378    -22.3 9.060e+03 2.562e-10
 85.64497    -21.2 9.034e+03 2.617e-10
 85.66932    -20.0 9.347e+03 3.511e-10
 85.71170    -18.6 9.783e+03 5.081e-10
 85.73778    -16.8 1.022e+04 7.207e-10
 85.75896    -15.7 9.913e+03 5.719e-10
 85.79644    -13.9 1.011e+04 6.637e-10
 85.83058    -12.3 1.020e+04 7.010e-10
 85.85177    -10.9 9.526e+03 4.075e-10
 85.88119     -9.8 9.494e+03 3.924e-10
 85.92339     -9.2 9.623e+03 4.061e-10
 85.96576     -8.1 9.271e+03 2.410e-10
 86.00831     -7.2 9.643e+03 3.406e-10
 86.03738     -5.9 9.966e+03 3.940e-10
 86.05857     -4.8 9.496e+03 2.781e-10
 86.09305     -3.7 9.891e+03 3.123e-10
 86.12474     -3.3 9.909e+03 2.987e-10
 86.14058     -3.4 9.993e+03 3.259e-10
 86.15118     -3.0 1.005e+04 3.340e-10
 86.16701     -3.0 1.022e+04 4.003e-10
 86.18699     -3.0 1.058e+04 5.186e-10
 86.19758     -2.8 1.061e+04 5.380e-10
 86.20938     -2.6 1.103e+04 7.127e-10
 86.23057     -2.2 1.144e+04 9.415e-10
 86.24398     -1.6 1.172e+04 1.184e-09
 86.25458     -1.1 1.154e+04 1.037e-09
 86.27294     -0.1 1.173e+04 1.115e-09
 86.30482      0.7 1.199e+04 1.064e-09
 86.33698      2.0 1.161e+04 8.416e-10
 86.35817      2.2 1.110e+04 5.822e-10
 86.38967      4.4 1.081e+04 4.424e-10
 86.42979      6.3 1.062e+04 3.269e-10
 86.45098      6.8 1.038e+04 2.859e-10
 86.47441      8.8 1.026e+04 2.478e-10
 86.51678     11.1 1.027e+04 2.472e-10
 86.54378     13.4 1.032e+04 3.120e-10
 86.56497     14.5 1.028e+04 3.046e-10
 86.60153     17.5 1.033e+04 3.624e-10
 86.63659     20.5 1.050e+04 4.312e-10
 86.65777     21.6 1.041e+04 3.724e-10
 86.68628     24.4 1.062e+04 4.326e-10
 86.72865     27.2 1.091e+04 5.415e-10
 86.75058     30.1 1.130e+04 7.588e-10
 86.77177     30.8 1.104e+04 5.969e-10
 86.81340     34.6 1.209e+04 9.841e-10
 86.84329     36.2 1.270e+04 1.317e-09
 86.86447     37.7 1.240e+04 1.069e-09
 86.88745     38.7 1.402e+04 2.166e-09
 86.90019     40.1 1.508e+04 3.647e-09
 86.91078     40.7 1.460e+04 2.619e-09
 86.92973     41.7 1.561e+04 4.200e-09
 86.94659     43.0 1.617e+04 6.573e-09
 86.95718     43.2 1.591e+04 4.614e-09
 86.97210     45.1 1.697e+04 8.019e-09
 86.99299     45.5 1.853e+04 1.458e-08
 87.00358     45.4 1.863e+04 1.076e-08
 87.00913     44.1 2.028e+04 1.901e-08
 87.01967     43.4 2.074e+04 3.125e-08
 87.02669     44.0 2.047e+04 5.607e-08
 87.03198     43.1 2.141e+04 4.283e-08
 87.04086     43.5 2.119e+04 6.953e-08
 87.04989     43.9 2.141e+04 9.859e-08
 87.05519     41.8 2.230e+04 7.633e-08
 87.06204     41.2 2.282e+04 1.184e-07
 87.07264     40.1 2.305e+04 1.784e-07
 87.07839     38.9 2.318e+04 2.152e-07
 87.08368     37.6 2.295e+04 1.962e-07
 87.09382     37.7 2.284e+04 1.722e-07
 87.10159     38.6 2.277e+04 1.137e-07
 87.10689     38.6 2.266e+04 8.788e-08
 87.11501     39.2 2.257e+04 4.370e-08
 87.12479     37.7 2.301e+04 2.036e-08
 87.13009     36.7 2.283e+04 1.485e-08
 87.13620     32.7 2.137e+04 5.512e-09
 87.14679     26.7 1.836e+04 2.644e-09
 87.15329     20.5 1.466e+04 1.295e-09
 87.16393     19.4 1.492e+04 1.260e-09
 87.18396     14.7 1.131e+04 6.724e-10
 87.19979     14.6 1.054e+04 6.231e-10
 87.21038     14.7 1.038e+04 5.478e-10
 87.22634     15.5 1.027e+04 5.570e-10
 87.24619     16.4 1.015e+04 5.421e-10
 87.25678     16.5 1.014e+04 5.304e-10
 87.26871     17.2 1.011e+04 4.897e-10
 87.28990     17.6 1.008e+04 4.484e-10
 87.30319     17.3 1.012e+04 3.682e-10
 87.31378     17.5 1.018e+04 4.198e-10
 87.33227     16.8 1.022e+04 3.933e-10
 87.34959     14.8 1.078e+04 4.053e-10
 87.36018     15.7 1.061e+04 4.606e-10
 87.37464     12.8 1.136e+04 5.754e-10
 87.39172     10.0 1.175e+04 8.776e-10
 87.40231     11.5 1.117e+04 6.010e-10
 87.40659      9.4 1.140e+04 9.089e-10
 87.41718     10.4 1.151e+04 8.689e-10
 87.43820      8.4 1.186e+04 1.224e-09
 87.45299      6.9 1.230e+04 1.489e-09
 87.46358      6.8 1.233e+04 1.468e-09
 87.48058      4.8 1.240e+04 1.538e-09
 87.49939      3.2 1.168e+04 1.318e-09
 87.50999      3.5 1.174e+04 1.386e-09
 87.52295      2.2 1.100e+04 9.977e-10
 87.54414      0.8 1.064e+04 7.046e-10
 87.55639     -1.1 1.025e+04 4.983e-10
 87.56698     -1.3 1.024e+04 4.830e-10
 87.58651     -3.3 9.673e+03 3.726e-10
 87.61839     -4.7 9.242e+03 3.171e-10
 87.64939     -5.5 9.115e+03 3.190e-10
 87.67058     -5.1 8.864e+03 2.762e-10
 87.70323     -5.5 8.774e+03 2.774e-10
 87.74219     -5.3 8.786e+03 2.912e-10
 87.76338     -5.1 8.522e+03 2.154e-10
 87.78798     -5.2 8.444e+03 2.193e-10
 87.83035     -5.4 8.468e+03 2.334e-10
 87.85619     -5.1 8.532e+03 2.735e-10
 87.87737     -4.3 8.446e+03 2.571e-10
 87.91509     -3.4 8.513e+03 2.741e-10
 87.94899     -2.4 8.478e+03 2.703e-10
 87.97018     -1.5 8.400e+03 2.347e-10
 87.99984     -0.5 8.264e+03 2.078e-10
 88.04180      0.7 8.145e+03 1.855e-10
 88.06298      1.6 8.184e+03 1.811e-10
 88.08459      3.0 8.148e+03 1.748e-10
 88.12696      4.2 8.256e+03 1.765e-10
 88.15579      5.3 8.476e+03 2.051e-10
 88.17698      6.4 8.646e+03 2.374e-10
 88.21171      7.6 8.957e+03 3.156e-10
 88.24860      9.0 9.292e+03 4.447e-10
 88.26978     10.1 9.425e+03 4.703e-10
 88.29645     11.7 9.765e+03 5.888e-10
 88.33883     13.3 1.011e+04 6.885e-10
 88.36249     13.8 1.031e+04 7.547e-10
 88.37299     13.9 1.032e+04 7.573e-10
 88.39160     14.4 1.036e+04 7.718e-10
 88.40880     14.8 1.037e+04 7.782e-10
 88.41939     14.8 1.037e+04 7.775e-10
 88.43397     15.5 1.030e+04 7.653e-10
 88.45530     16.6 1.030e+04 7.203e-10
 88.47658     16.6 1.045e+04 7.644e-10
 88.50832     17.5 1.025e+04 6.053e-10
 88.54820     17.7 1.016e+04 4.882e-10
 88.56939     16.8 1.050e+04 6.286e-10
 88.59306     16.9 1.055e+04 6.061e-10
 88.63544     17.0 1.056e+04 6.741e-10
 88.66219     17.2 1.076e+04 7.737e-10
 88.68338     16.9 1.065e+04 7.317e-10
 88.72018     17.1 1.076e+04 7.819e-10
 88.75500     17.2 1.078e+04 9.024e-10
 88.77618     16.1 1.046e+04 7.742e-10
 88.80493     17.3 1.045e+04 9.082e-10
 88.84730     18.5 1.039e+04 8.162e-10
 88.86899     19.2 1.024e+04 6.738e-10
 88.89018     19.5 1.017e+04 6.617e-10
 88.93205     19.6 1.010e+04 5.408e-10
 88.96180     19.4 9.960e+03 4.907e-10
 88.98298     19.2 1.001e+04 5.070e-10
 89.01679     19.8 9.682e+03 5.307e-10
 89.05460     21.3 9.434e+03 4.790e-10
 89.07579     21.9 9.712e+03 5.553e-10
 89.10154     23.4 9.286e+03 3.786e-10
 89.14391     24.3 8.817e+03 2.637e-10
 89.16859     25.3 8.495e+03 2.273e-10
 89.18978     25.7 8.490e+03 2.117e-10
 89.22866     27.4 8.341e+03 2.148e-10
 89.26140     29.6 8.201e+03 2.214e-10
 89.28259     30.3 8.155e+03 2.031e-10
 89.31340     33.1 8.011e+03 1.804e-10
 89.35420     35.7 7.833e+03 1.369e-10
 89.37539     36.3 7.833e+03 1.273e-10
 89.39815     38.0 7.679e+03 9.772e-11
 89.44052     39.7 7.523e+03 9.153e-11
 89.46820     41.6 7.513e+03 9.524e-11
 89.48938     42.4 7.466e+03 9.327e-11
 89.52527     44.7 7.497e+03 1.023e-10
 89.56100     46.9 7.542e+03 1.072e-10
 89.58219     47.6 7.470e+03 9.773e-11
 89.61002     49.8 7.475e+03 9.683e-11
 89.65239     51.8 7.464e+03 9.391e-11
 89.67499     53.8 7.457e+03 8.909e-11
 89.69618     54.5 7.464e+03 9.072e-11
 89.73714     56.4 7.456e+03 8.828e-11
 89.76780     58.4 7.454e+03 8.683e-11
 89.78899     59.2 7.505e+03 9.102e-11
 89.82188     61.2 7.507e+03 9.227e-11
 89.86061     63.3 7.511e+03 9.202e-11
 89.88179     64.0 7.558e+03 9.697e-11
 89.90663     66.1 7.590e+03 1.014e-10
 89.94900     68.2 7.631e+03 1.040e-10
 89.97460     70.3 7.691e+03 1.053e-10
 89.99578     71.0 7.841e+03 1.327e-10
 90.03375     73.0 7.988e+03 1.513e-10
 90.06740     74.9 8.188e+03 1.798e-10
 90.08859     75.5 8.551e+03 2.652e-10
 90.11849     77.5 8.962e+03 3.692e-10
 90.16021     79.4 9.451e+03 5.132e-10
 90.18140     79.8 9.992e+03 7.256e-10
 90.20324     81.5 1.057e+04 9.926e-10
 90.24561     83.1 1.097e+04 1.170e-09
 90.27420     84.3 1.098e+04 1.164e-09
 90.29539     84.2 1.120e+04 1.235e-09
 90.33036     85.2 1.114e+04 1.183e-09
 90.36666     86.3 1.088e+04 9.857e-10
 90.38212     85.8 1.069e+04 8.934e-10
 90.38819     85.3 1.048e+04 7.762e-10
 90.41510     86.3 1.007e+04 5.653e-10
 90.45748     87.2 9.613e+03 3.754e-10
 90.48100     88.1 9.188e+03 2.695e-10
 90.50219     87.6 8.816e+03 1.896e-10
 90.54222     88.8 8.747e+03 1.865e-10
 90.57381     90.3 8.777e+03 1.969e-10
 90.59499     90.0 8.387e+03 1.398e-10
 90.62697     91.5 8.517e+03 1.684e-10
 90.66661     93.1 8.822e+03 2.187e-10
 90.68780     93.0 8.288e+03 1.449e-10
 90.71171     94.5 8.567e+03 1.774e-10
 90.75409     95.8 8.907e+03 2.157e-10
 90.78060     96.6 9.450e+03 2.834e-10
 90.80179     96.8 8.832e+03 2.139e-10
 90.83883     97.4 9.364e+03 2.880e-10
 90.87052     97.5 9.548e+03 3.177e-10
 90.88381     97.6 9.868e+03 3.770e-10
 90.89450     98.7 9.404e+03 3.231e-10
 90.91289     98.5 9.840e+03 4.027e-10
 90.93021     98.3 1.020e+04 5.232e-10
 90.94080     99.2 9.902e+03 4.398e-10
 90.95516     99.3 1.022e+04 5.589e-10
 90.97635     99.6 1.046e+04 6.644e-10
 90.98730    100.0 1.054e+04 6.663e-10
 90.99790    100.9 1.035e+04 6.285e-10
 91.01872    101.1 1.035e+04 6.263e-10
 91.05060    102.6 1.020e+04 5.591e-10
 91.08021    103.6 9.962e+03 4.533e-10
 91.10139    105.2 9.815e+03 4.404e-10
 91.13545    106.2 9.680e+03 3.863e-10
 91.17301    107.2 9.761e+03 3.961e-10
 91.19420    108.5 9.643e+03 3.921e-10
 91.22019    108.8 9.985e+03 4.726e-10
 91.26256    108.7 1.074e+04 7.189e-10
 91.28700    108.1 1.173e+04 1.208e-09
 91.29750    108.5 1.154e+04 1.104e-09
 91.31534    108.3 1.185e+04 1.310e-09
 91.34721    107.6 1.248e+04 1.635e-09
 91.37899    106.4 1.261e+04 1.666e-09
 91.39021    105.3 1.259e+04 1.646e-09
 91.40080    105.3 1.259e+04 1.625e-09
 91.43196    103.6 1.240e+04 1.383e-09
 91.47262    101.2 1.193e+04 1.015e-09
 91.49380    100.9 1.171e+04 8.036e-10
 91.51680     98.8 1.110e+04 5.554e-10
 91.55918     97.7 1.068e+04 4.511e-10
 91.58661     97.5 1.050e+04 4.005e-10
 91.60779     97.8 1.045e+04 3.838e-10
 91.64392     98.5 1.031e+04 3.378e-10
 91.67941     99.4 1.036e+04 2.928e-10
 91.70060    100.3 1.038e+04 2.996e-10
 91.72867    101.4 1.056e+04 2.917e-10
 91.76035    101.9 1.065e+04 2.681e-10
 91.78144    102.1 1.072e+04 2.666e-10
 91.79321    102.0 1.093e+04 2.902e-10
 91.80380    102.5 1.092e+04 2.939e-10
 91.82381    102.3 1.118e+04 3.825e-10
 91.83961    102.3 1.152e+04 5.415e-10
 91.85021    102.7 1.159e+04 5.792e-10
 91.86443    102.6 1.227e+04 8.507e-10
 91.87503    102.4 1.283e+04 1.538e-09
 91.88602    101.9 1.384e+04 2.380e-09
 91.89661    102.0 1.403e+04 2.833e-09
 91.90856    101.7 1.486e+04 4.105e-09
 91.92974    101.3 1.518e+04 4.578e-09
 91.94301    100.6 1.512e+04 4.434e-09
 91.95361    101.1 1.522e+04 5.114e-09
 91.97212    100.7 1.478e+04 4.160e-09
 91.98942    100.0 1.408e+04 2.936e-09
 92.00001    100.6 1.420e+04 3.095e-09
 92.01449     99.5 1.347e+04 1.900e-09
 92.03568     98.3 1.287e+04 1.343e-09
 92.06755     97.7 1.201e+04 8.550e-10
 92.09301     97.3 1.131e+04 5.908e-10
 92.11420     98.5 1.096e+04 4.817e-10
 92.15240     99.3 1.092e+04 4.703e-10
 92.18408     99.9 1.097e+04 4.970e-10
 92.19621    100.0 1.114e+04 5.786e-10
 92.20690    102.2 1.077e+04 4.439e-10
 92.22645    101.6 1.118e+04 6.221e-10
 92.24262    101.4 1.144e+04 8.669e-10
 92.25321    102.7 1.132e+04 7.420e-10
 92.26873    102.8 1.160e+04 1.035e-09
 92.28902    103.3 1.190e+04 1.464e-09
 92.29961    104.3 1.182e+04 1.261e-09
 92.31110    105.0 1.213e+04 1.700e-09
 92.33229    105.9 1.260e+04 1.903e-09
 92.34601    106.4 1.272e+04 1.877e-09
 92.35661    107.5 1.266e+04 1.705e-09
 92.37466    107.7 1.276e+04 1.637e-09
 92.39242    107.5 1.299e+04 1.445e-09
 92.40301    108.6 1.279e+04 1.331e-09
 92.41703    107.8 1.282e+04 1.150e-09
 92.43822    106.6 1.263e+04 1.061e-09
 92.44941    105.4 1.265e+04 1.093e-09
 92.46001    106.8 1.217e+04 9.142e-10
 92.48059    105.9 1.228e+04 9.816e-10
 92.49582    105.1 1.262e+04 1.194e-09
 92.50641    106.6 1.204e+04 9.099e-10
 92.52297    106.1 1.240e+04 1.096e-09
 92.54222    105.7 1.256e+04 1.265e-09
 92.55281    107.2 1.217e+04 9.875e-10
 92.56534    107.0 1.222e+04 1.054e-09
 92.58653    107.0 1.210e+04 1.033e-09
 92.59922    107.4 1.178e+04 9.239e-10
 92.60981    108.5 1.175e+04 8.548e-10
 92.62890    108.8 1.148e+04 7.398e-10
 92.64562    109.0 1.113e+04 5.657e-10
 92.65621    110.2 1.120e+04 6.059e-10
 92.67127    109.9 1.086e+04 4.619e-10
 92.69212    110.1 1.041e+04 3.259e-10
 92.70271    111.3 1.062e+04 3.881e-10
 92.71365    111.3 1.040e+04 3.460e-10
 92.74552    112.9 1.001e+04 2.738e-10
 92.78502    114.0 9.385e+03 1.862e-10
 92.80621    116.0 9.843e+03 2.691e-10
 92.83037    117.3 9.325e+03 1.854e-10
 92.87274    118.8 8.927e+03 1.181e-10
 92.89901    120.1 8.654e+03 7.325e-11
 92.92020    121.9 8.991e+03 1.149e-10
 92.95749    123.0 8.654e+03 7.276e-11
 92.99182    124.3 8.578e+03 6.176e-11
 93.01301    125.9 8.721e+03 8.294e-11
 93.04223    127.3 8.677e+03 8.022e-11
 93.08460    128.9 8.710e+03 8.264e-11
 93.12698    131.5 8.961e+03 1.209e-10
 93.16935    132.7 9.274e+03 1.709e-10
 93.19862    133.9 9.805e+03 2.752e-10
 93.21980    134.8 9.977e+03 3.132e-10
 93.25410    135.0 1.042e+04 4.406e-10
 93.28578    135.1 1.065e+04 5.406e-10
 93.30182    135.1 1.080e+04 5.751e-10
 93.31241    135.6 1.079e+04 5.957e-10
 93.32805    135.6 1.080e+04 5.470e-10
 93.34822    135.5 1.079e+04 5.080e-10
 93.35882    135.9 1.080e+04 5.148e-10
 93.36250    136.0 1.058e+04 3.727e-10
 93.38378    135.2 1.047e+04 3.628e-10
 93.40542    135.0 1.010e+04 2.129e-10
 93.42660    135.5 1.033e+04 2.670e-10
 93.46596    135.2 1.001e+04 1.898e-10
 93.49822    135.1 9.849e+03 1.761e-10
 93.51941    135.6 1.017e+04 2.549e-10
 93.55071    135.8 1.011e+04 2.509e-10
 93.59103    136.3 1.005e+04 2.426e-10
 93.61221    136.6 1.035e+04 3.408e-10
 93.63545    137.2 1.019e+04 2.943e-10
 93.67783    137.7 9.944e+03 2.232e-10
 93.70502    138.1 9.633e+03 1.596e-10
 93.72621    138.7 9.765e+03 2.057e-10
 93.76257    139.2 9.412e+03 1.541e-10
 93.79782    139.6 9.209e+03 1.343e-10
 93.81901    140.5 9.354e+03 1.755e-10
 93.84732    140.9 9.251e+03 1.611e-10
 93.88969    141.1 9.305e+03 1.666e-10
 93.91182    140.8 9.533e+03 1.959e-10
 93.93300    141.6 9.499e+03 2.027e-10
 93.97444    140.9 9.929e+03 2.647e-10
 94.00453    140.8 1.015e+04 3.070e-10
 94.01502    141.2 1.003e+04 3.027e-10
 94.02721    140.5 1.044e+04 4.012e-10
 94.04840    139.6 1.083e+04 5.939e-10
 94.06142    139.3 1.118e+04 8.600e-10
 94.07202    139.6 1.114e+04 8.499e-10
 94.09077    139.6 1.150e+04 1.105e-09
 94.10783    139.4 1.179e+04 1.182e-09
 94.11842    139.7 1.178e+04 1.180e-09
 94.13314    139.2 1.180e+04 1.167e-09
 94.15423    138.6 1.172e+04 1.084e-09
 94.16482    138.7 1.172e+04 1.080e-09
 94.17552    137.8 1.147e+04 9.163e-10
 94.19670    136.7 1.112e+04 7.277e-10
 94.21123    135.5 1.072e+04 5.801e-10
 94.22182    135.6 1.073e+04 6.077e-10
 94.23907    134.6 1.044e+04 5.458e-10
 94.25763    134.0 1.040e+04 5.441e-10
 94.26822    134.1 1.042e+04 5.514e-10
 94.28145    133.6 1.044e+04 5.609e-10
 94.30263    133.1 1.054e+04 5.945e-10
 94.31462    132.5 1.066e+04 6.385e-10
 94.32522    132.7 1.061e+04 6.260e-10
 94.34501    132.1 1.064e+04 6.324e-10
 94.36103    131.4 1.062e+04 6.244e-10
 94.37162    131.6 1.050e+04 5.916e-10
 94.38738    131.0 1.044e+04 5.603e-10
 94.40743    130.2 1.044e+04 5.321e-10
 94.41802    130.6 1.027e+04 4.993e-10
 94.42975    129.8 1.029e+04 4.975e-10
 94.45094    128.9 1.036e+04 5.127e-10
 94.46443    127.9 1.049e+04 5.735e-10
 94.47502    128.5 1.041e+04 5.700e-10
 94.49331    127.8 1.063e+04 6.539e-10
 94.51083    127.2 1.091e+04 7.339e-10
 94.52142    127.8 1.091e+04 7.406e-10
 94.53569    127.0 1.125e+04 8.060e-10
 94.55687    125.9 1.160e+04 8.601e-10
 94.56782    124.5 1.182e+04 9.213e-10
 94.57842    124.8 1.202e+04 1.022e-09
 94.59925    123.3 1.194e+04 1.084e-09
 94.61423    121.9 1.182e+04 1.081e-09
 94.62482    122.1 1.211e+04 1.252e-09
 94.64162    120.7 1.186e+04 1.202e-09
 94.66063    119.3 1.158e+04 1.099e-09
 94.67122    119.3 1.195e+04 1.299e-09
 94.68399    117.4 1.167e+04 1.184e-09
 94.70518    115.3 1.141e+04 1.101e-09
 94.71763    113.7 1.107e+04 9.226e-10
 94.72822    113.9 1.137e+04 1.123e-09
 94.74755    112.8 1.094e+04 9.045e-10
 94.77943    112.7 1.064e+04 6.922e-10
 94.81063    111.3 9.529e+03 2.874e-10
 94.83181    111.7 9.647e+03 2.976e-10
 94.86427    109.1 8.278e+03 9.650e-11
 94.90343    107.0 7.987e+03 7.295e-11
 94.92462    107.9 7.977e+03 7.472e-11
 94.94902    107.0 8.047e+03 8.104e-11
 94.99139    105.6 8.560e+03 1.244e-10
 95.01733    106.0 8.837e+03 1.647e-10
 95.03851    106.9 9.015e+03 1.856e-10
 95.06373    106.1 9.715e+03 2.853e-10
 95.07423    107.2 9.318e+03 2.524e-10
 95.08654    105.5 1.069e+04 4.756e-10
 95.10772    103.1 1.238e+04 1.087e-09
 95.12063    101.7 1.334e+04 2.185e-09
 95.13122    102.4 1.332e+04 1.861e-09
 95.15009    101.7 1.405e+04 3.297e-09
 95.16703    101.8 1.459e+04 4.476e-09
 95.17763    102.1 1.461e+04 4.450e-09
 95.19247    102.1 1.523e+04 5.112e-09
 95.21343    101.3 1.553e+04 4.794e-09
 95.22403    102.1 1.560e+04 5.170e-09
 95.23484    100.7 1.568e+04 4.533e-09
 95.25603     98.8 1.518e+04 3.561e-09
 95.27043     97.6 1.388e+04 2.567e-09
 95.28102     98.3 1.449e+04 3.033e-09
 95.29840     97.4 1.349e+04 2.478e-09
 95.31683     97.8 1.271e+04 1.876e-09
 95.32743     97.9 1.328e+04 2.314e-09
 95.34077     98.0 1.286e+04 1.942e-09
 95.36196     98.3 1.237e+04 1.514e-09
 95.37383     98.8 1.184e+04 1.126e-09
 95.38442     98.9 1.246e+04 1.674e-09
 95.40433     99.6 1.202e+04 1.304e-09
 95.42023    100.2 1.168e+04 9.709e-10
 95.43083    100.6 1.221e+04 1.542e-09
 95.44671    101.3 1.198e+04 1.219e-09
 95.46664    101.7 1.175e+04 9.481e-10
 95.47723    102.4 1.239e+04 1.557e-09
 95.48908    102.6 1.228e+04 1.300e-09
 95.51027    102.5 1.229e+04 1.214e-09
 95.52363    102.0 1.222e+04 1.259e-09
 95.53422    102.9 1.334e+04 1.973e-09
 95.55264    102.4 1.329e+04 2.148e-09
 95.57003    102.5 1.314e+04 2.433e-09
 95.58063    103.3 1.438e+04 3.453e-09
 95.59501    103.6 1.402e+04 3.386e-09
 95.61620    104.1 1.356e+04 3.094e-09
 95.62703    104.2 1.324e+04 2.657e-09
 95.63762    104.5 1.383e+04 3.009e-09
 95.65857    104.2 1.320e+04 2.258e-09
 95.67343    103.5 1.271e+04 1.728e-09
 95.68403    103.4 1.287e+04 1.777e-09
 95.70094    102.7 1.226e+04 1.376e-09
 95.71984    102.1 1.186e+04 1.145e-09
 95.73043    102.1 1.190e+04 1.148e-09
 95.74332    101.9 1.161e+04 9.686e-10
 95.76450    101.7 1.130e+04 8.515e-10
 95.77683    101.7 1.104e+04 7.840e-10
 95.78743    101.8 1.098e+04 7.569e-10
 95.80688    102.0 1.073e+04 6.978e-10
 95.82324    102.4 1.059e+04 6.566e-10
 95.83383    102.4 1.058e+04 6.571e-10
 95.84925    103.0 1.047e+04 6.136e-10
 95.86964    103.7 1.035e+04 5.653e-10
 95.88023    103.8 1.051e+04 6.123e-10
 95.89162    104.5 1.040e+04 5.682e-10
 95.91281    104.9 1.033e+04 5.176e-10
 95.92663    105.2 1.023e+04 4.773e-10
 95.93723    105.7 1.056e+04 5.860e-10
 95.95518    106.1 1.046e+04 5.467e-10
 95.97304    106.5 1.029e+04 5.160e-10
 95.98363    107.0 1.082e+04 6.961e-10
 95.99756    107.6 1.068e+04 6.729e-10
 96.01874    108.3 1.049e+04 6.464e-10
 96.03003    109.0 1.030e+04 6.155e-10
 96.04063    109.3 1.102e+04 8.744e-10
 96.06112    110.0 1.081e+04 8.085e-10
 96.07644    110.3 1.072e+04 7.505e-10
 96.08703    110.8 1.152e+04 1.068e-09
 96.10349    111.1 1.131e+04 9.186e-10
 96.12284    111.2 1.122e+04 8.446e-10
 96.13343    112.2 1.201e+04 1.117e-09
 96.14586    112.2 1.173e+04 9.329e-10
 96.16705    112.0 1.141e+04 8.366e-10
 96.17983    112.0 1.116e+04 7.700e-10
 96.19043    112.5 1.181e+04 8.284e-10
 96.20942    112.3 1.132e+04 7.502e-10
 96.22624    112.2 1.106e+04 7.616e-10
 96.23683    112.1 1.161e+04 7.837e-10
 96.25179    112.3 1.119e+04 8.040e-10
 96.27264    112.5 1.111e+04 8.894e-10
 96.28323    112.2 1.146e+04 9.129e-10
 96.29417    112.9 1.118e+04 9.578e-10
 96.31535    113.4 1.114e+04 1.005e-09
 96.32973    115.0 1.087e+04 9.061e-10
 96.34033    114.3 1.109e+04 9.788e-10
 96.34774    114.5 1.109e+04 9.685e-10
 96.35833    115.6 1.140e+04 1.076e-09
 96.37604    116.5 1.128e+04 1.043e-09
 96.38663    116.1 1.151e+04 1.091e-09
 96.40010    116.9 1.128e+04 1.018e-09
 96.42129    117.9 1.096e+04 8.735e-10
 96.43304    118.4 1.073e+04 7.545e-10
 96.44363    118.1 1.083e+04 7.825e-10
 96.46366    119.5 1.063e+04 6.578e-10
 96.47944    119.6 1.065e+04 6.524e-10
 96.49003    119.3 1.092e+04 7.084e-10
 96.51535    121.3 1.035e+04 5.074e-10
 96.53663    120.5 1.177e+04 9.399e-10
 96.55919    122.5 1.100e+04 6.569e-10
 96.60157    124.3 1.045e+04 4.920e-10
 96.62944    126.2 1.009e+04 4.170e-10
 96.65062    126.5 1.125e+04 7.971e-10
 96.68631    128.6 1.108e+04 7.370e-10
 96.72224    130.5 1.110e+04 6.967e-10
 96.74343    131.1 1.203e+04 1.195e-09
 96.76037    132.2 1.183e+04 1.088e-09
 96.77904    133.7 1.162e+04 9.750e-10
 96.78964    133.5 1.229e+04 1.520e-09
 96.80264    135.0 1.219e+04 1.473e-09
 96.82383    136.5 1.211e+04 1.312e-09
 96.83604    137.8 1.204e+04 1.091e-09
 96.84663    137.7 1.293e+04 2.123e-09
 96.86620    139.0 1.297e+04 1.862e-09
 96.88244    139.7 1.297e+04 1.535e-09
 96.89303    140.0 1.390e+04 3.065e-09
 96.90858    140.8 1.400e+04 2.678e-09
 96.92884    141.5 1.396e+04 2.189e-09
 96.93944    141.9 1.497e+04 4.434e-09
 96.95095    142.6 1.502e+04 3.851e-09
 96.97214    143.3 1.483e+04 3.079e-09
 96.98584    144.0 1.437e+04 2.286e-09
 96.99643    144.5 1.577e+04 4.968e-09
 97.01451    145.3 1.534e+04 3.626e-09
 97.03224    146.1 1.457e+04 2.376e-09
 97.04284    146.7 1.601e+04 4.847e-09
 97.05688    147.3 1.522e+04 2.968e-09
 97.07807    147.8 1.400e+04 1.663e-09
 97.08924    147.9 1.246e+04 9.377e-10
 97.09983    148.4 1.449e+04 1.781e-09
 97.12044    148.3 1.287e+04 9.811e-10
 97.13564    148.2 1.121e+04 6.142e-10
 97.14623    148.6 1.323e+04 1.080e-09
 97.16281    148.5 1.146e+04 6.891e-10
 97.18204    148.9 1.041e+04 5.228e-10
 97.19264    148.9 1.181e+04 8.400e-10
 97.20519    149.4 1.066e+04 6.301e-10
 97.22637    150.3 1.029e+04 5.302e-10
 97.23904    151.3 1.030e+04 4.820e-10
 97.24963    151.0 1.061e+04 6.682e-10
 97.26875    152.0 1.050e+04 5.852e-10
 97.28544    153.1 1.045e+04 5.308e-10
 97.29604    152.8 1.082e+04 7.308e-10
 97.31112    154.0 1.065e+04 6.300e-10
 97.33185    155.1 1.052e+04 5.600e-10
 97.34244    155.0 1.090e+04 7.350e-10
 97.35349    156.0 1.065e+04 6.185e-10
 97.37468    156.9 1.050e+04 5.445e-10
 97.38884    158.0 1.034e+04 4.790e-10
 97.39944    157.8 1.049e+04 5.519e-10
 97.41705    158.7 1.032e+04 4.812e-10
 97.43525    160.2 1.013e+04 4.126e-10
 97.44584    159.8 1.019e+04 4.565e-10
 97.45943    160.8 1.012e+04 4.059e-10
 97.48061    162.4 9.935e+03 3.512e-10
 97.49224    162.7 9.911e+03 3.362e-10
 97.50283    162.8 9.941e+03 3.448e-10
 97.52815    164.8 9.743e+03 2.970e-10
 97.54933    164.8 9.786e+03 3.073e-10
 97.57605    166.9 9.659e+03 2.807e-10
 97.61852    169.4 9.432e+03 2.465e-10
 97.64224    172.0 9.254e+03 2.321e-10
 97.66342    171.8 9.478e+03 2.736e-10
 97.70327    174.4 9.366e+03 2.737e-10
 97.73504    176.8 9.331e+03 2.740e-10
 97.75623    176.7 9.555e+03 3.187e-10
 97.78801    178.9 9.507e+03 3.185e-10
 97.82785    181.1 9.438e+03 3.095e-10
 97.84904    181.1 9.676e+03 3.509e-10
 97.87276    183.2 9.545e+03 3.162e-10
 97.91513    185.3 9.347e+03 2.664e-10
 97.94184    187.2 9.154e+03 2.197e-10
 97.96303    187.4 9.409e+03 2.495e-10
 97.99988    189.3 9.139e+03 2.029e-10
 98.03465    191.2 8.992e+03 1.822e-10
 98.05583    191.7 9.283e+03 2.129e-10
 98.08462    193.8 9.077e+03 1.930e-10
 98.12700    195.7 9.018e+03 1.882e-10
 98.14864    197.6 9.050e+03 1.932e-10
 98.16983    198.4 9.078e+03 2.005e-10
 98.21174    200.4 9.123e+03 2.051e-10
 98.24145    202.3 9.248e+03 2.171e-10
 98.26263    203.1 9.218e+03 2.243e-10
 98.29649    204.9 9.396e+03 2.498e-10
 98.33425    206.4 9.666e+03 2.865e-10
 98.35544    206.5 9.651e+03 3.093e-10
 98.37054    207.2 9.805e+03 3.315e-10
 98.39105    207.5 9.873e+03 3.427e-10
 98.40164    207.9 9.874e+03 3.773e-10
 98.41282    208.9 1.011e+04 4.537e-10
 98.43401    209.7 1.047e+04 5.720e-10
 98.44805    210.4 1.090e+04 7.247e-10
 98.45864    210.1 1.132e+04 9.605e-10
 98.47638    210.4 1.179e+04 1.195e-09
 98.49445    210.5 1.224e+04 1.441e-09
 98.50504    209.9 1.268e+04 1.774e-09
 98.51875    209.7 1.304e+04 1.889e-09
 98.53994    209.4 1.328e+04 1.878e-09
 98.55145    208.7 1.341e+04 1.881e-09
 98.56204    207.3 1.339e+04 1.725e-09
 98.58231    206.3 1.340e+04 1.586e-09
 98.59785    205.2 1.336e+04 1.464e-09
 98.60844    203.4 1.290e+04 1.071e-09
 98.62468    202.5 1.267e+04 9.611e-10
 98.64425    201.9 1.246e+04 8.536e-10
 98.65485    200.6 1.182e+04 5.967e-10
 98.66706    200.0 1.158e+04 5.297e-10
 98.68824    199.4 1.147e+04 5.150e-10
 98.70125    198.7 1.153e+04 5.395e-10
 98.71184    198.5 1.148e+04 5.385e-10
 98.73062    198.2 1.162e+04 5.892e-10
 98.74765    197.9 1.175e+04 6.690e-10
 98.75824    198.4 1.176e+04 6.726e-10
 98.77299    198.3 1.191e+04 7.918e-10
 98.79405    198.2 1.207e+04 9.471e-10
 98.80465    198.3 1.242e+04 1.028e-09
 98.81536    198.0 1.268e+04 1.281e-09
 98.83655    197.8 1.286e+04 1.583e-09
 98.85105    197.7 1.300e+04 1.871e-09
 98.86164    197.3 1.360e+04 2.477e-09
 98.87892    197.4 1.377e+04 2.646e-09
 98.89745    197.6 1.380e+04 2.628e-09
 98.90805    197.7 1.449e+04 3.565e-09
 98.92129    198.0 1.437e+04 3.231e-09
 98.94248    198.2 1.413e+04 2.549e-09
 98.95445    198.0 1.374e+04 1.802e-09
 98.96504    198.0 1.404e+04 1.881e-09
 98.98485    197.5 1.316e+04 1.195e-09
 99.00085    196.8 1.218e+04 7.661e-10
 99.01145    196.2 1.207e+04 7.608e-10
 99.02723    195.8 1.125e+04 5.415e-10
 99.04735    196.1 1.069e+04 3.873e-10
 99.05795    195.6 1.065e+04 4.110e-10
 99.06960    195.9 1.056e+04 3.781e-10
 99.10148    197.3 1.020e+04 3.304e-10
 99.14026    199.0 9.928e+03 3.040e-10
 99.16144    199.2 1.009e+04 3.738e-10
 99.18632    201.3 1.007e+04 3.734e-10
 99.22869    203.3 1.008e+04 3.787e-10
 99.25425    204.7 1.008e+04 3.899e-10
 99.26474    204.7 1.009e+04 4.200e-10
 99.28147    205.8 1.014e+04 4.459e-10
 99.30046    207.3 1.028e+04 5.039e-10
 99.31105    208.0 1.039e+04 5.598e-10
 99.32249    208.9 1.060e+04 6.297e-10
 99.33308    209.1 1.060e+04 6.123e-10
 99.34503    210.0 1.086e+04 7.188e-10
 99.35745    210.7 1.112e+04 8.367e-10
 99.36804    210.9 1.113e+04 8.503e-10
 99.38740    211.5 1.138e+04 9.707e-10
 99.40385    212.1 1.161e+04 1.090e-09
 99.41445    212.1 1.160e+04 1.083e-09
 99.42977    212.6 1.175e+04 1.165e-09
 99.45026    212.8 1.183e+04 1.190e-09
 99.46085    212.9 1.174e+04 1.148e-09
 99.47214    213.0 1.174e+04 1.148e-09
 99.49333    213.0 1.174e+04 1.147e-09
 99.50725    213.1 1.176e+04 1.150e-09
 99.51785    213.2 1.166e+04 1.113e-09
 99.53570    213.2 1.170e+04 1.130e-09
 99.55366    213.1 1.174e+04 1.138e-09
 99.56425    213.3 1.165e+04 1.105e-09
 99.57808    213.2 1.165e+04 1.101e-09
 99.59926    213.2 1.162e+04 1.074e-09
 99.61065    213.2 1.152e+04 1.011e-09
 99.62125    213.5 1.138e+04 9.602e-10
 99.64164    213.6 1.123e+04 8.781e-10
 99.65706    213.7 1.104e+04 7.883e-10
 99.66765    213.9 1.092e+04 7.445e-10
 99.68401    214.2 1.076e+04 6.730e-10
 99.70346    214.4 1.059e+04 6.155e-10
 99.71405    214.5 1.049e+04 5.911e-10
 99.72638    215.1 1.041e+04 5.640e-10
 99.74757    215.6 1.039e+04 5.537e-10
 99.76055    216.8 1.030e+04 5.190e-10
 99.78184    216.9 1.025e+04 5.053e-10
 99.82192    218.0 1.010e+04 4.696e-10
 99.85346    219.5 9.907e+03 4.255e-10
 99.87464    219.8 9.889e+03 4.226e-10
 99.90666    221.5 9.714e+03 3.818e-10
 99.94626    223.3 9.539e+03 3.407e-10
 99.96745    223.6 9.631e+03 3.650e-10
 99.99141    225.5 9.550e+03 3.435e-10
