# Columns:
#   distance along LOS (in CHIMPs)
#   peculiar velocity  (in km/s)
#   temperature (K)
#   HI number density
# pos=(177.753,183.421,240.601), angles=(1.14565,0.0239483)
  0.00469    -94.0 1.184e+04 7.861e-10
  0.01523    -93.2 1.173e+04 7.556e-10
  0.03180    -93.7 1.234e+04 8.983e-10
  0.04963    -94.5 1.347e+04 1.269e-09
  0.06035    -93.7 1.307e+04 1.106e-09
  0.07469    -94.8 1.429e+04 1.723e-09
  0.09475    -95.7 1.516e+04 2.816e-09
  0.10547    -95.5 1.504e+04 2.591e-09
  0.11758    -96.0 1.568e+04 4.084e-09
  0.13903    -96.3 1.606e+04 5.696e-09
  0.15059    -96.5 1.629e+04 6.840e-09
  0.15591    -95.8 1.605e+04 5.950e-09
  0.16574    -95.9 1.605e+04 6.076e-09
  0.17306    -96.0 1.606e+04 6.364e-09
  0.17842    -95.7 1.596e+04 5.987e-09
  0.18718    -96.9 1.682e+04 6.182e-09
  0.19562   -101.8 2.145e+04 7.354e-09
  0.20098   -103.7 2.341e+04 7.553e-09
  0.20863   -110.8 2.524e+04 1.478e-08
  0.21818   -115.9 2.331e+04 3.343e-08
  0.22354   -115.6 2.347e+04 3.285e-08
  0.23008   -117.5 2.152e+04 6.148e-08
  0.24074   -118.1 2.079e+04 9.303e-08
  0.24610   -117.6 2.118e+04 6.780e-08
  0.25152   -118.0 2.089e+04 7.698e-08
  0.26225   -118.4 2.084e+04 7.845e-08
  0.26866   -118.5 2.058e+04 7.210e-08
  0.27403   -118.9 2.154e+04 4.960e-08
  0.28369   -119.1 2.133e+04 3.738e-08
  0.29123   -119.8 2.108e+04 2.491e-08
  0.29659   -121.9 2.088e+04 2.082e-08
  0.30514   -123.5 1.998e+04 1.419e-08
  0.31379   -125.3 1.895e+04 9.363e-09
  0.31915   -126.5 1.838e+04 9.886e-09
  0.32658   -127.8 1.737e+04 6.777e-09
  0.33635   -128.9 1.623e+04 4.739e-09
  0.34171   -129.0 1.648e+04 5.898e-09
  0.34803   -129.7 1.556e+04 4.763e-09
  0.35875   -129.9 1.503e+04 4.315e-09
  0.37489   -130.0 1.457e+04 3.820e-09
  0.38693   -129.6 1.372e+04 2.941e-09
  0.39765   -129.4 1.412e+04 3.880e-09
  0.41783   -128.6 1.345e+04 3.128e-09
  0.43205   -127.8 1.306e+04 2.671e-09
  0.44278   -127.7 1.331e+04 3.048e-09
  0.46072   -126.9 1.307e+04 2.712e-09
  0.47718   -126.1 1.279e+04 2.341e-09
  0.48790   -126.2 1.281e+04 2.432e-09
  0.50361   -125.5 1.251e+04 2.104e-09
  0.52230   -124.8 1.218e+04 1.785e-09
  0.53302   -124.9 1.218e+04 1.823e-09
  0.54650   -124.3 1.191e+04 1.592e-09
  0.56282   -123.6 1.165e+04 1.395e-09
  0.57302   -123.7 1.176e+04 1.484e-09
  0.57815   -123.8 1.175e+04 1.470e-09
  0.58940   -123.0 1.155e+04 1.320e-09
  0.61084   -122.2 1.137e+04 1.193e-09
  0.62327   -121.4 1.120e+04 1.082e-09
  0.63399   -121.3 1.117e+04 1.073e-09
  0.65373   -120.5 1.103e+04 9.912e-10
  0.66839   -119.6 1.090e+04 9.177e-10
  0.67911   -119.5 1.086e+04 8.911e-10
  0.69663   -118.7 1.073e+04 8.352e-10
  0.71351   -117.7 1.061e+04 7.883e-10
  0.72424   -117.7 1.061e+04 7.813e-10
  0.73952   -116.7 1.053e+04 7.584e-10
  0.75864   -115.8 1.048e+04 7.439e-10
  0.76936   -115.7 1.053e+04 7.617e-10
  0.78241   -114.7 1.052e+04 7.693e-10
  0.80376   -113.7 1.054e+04 7.871e-10
  0.82521   -112.6 1.067e+04 8.560e-10
  0.84675   -111.7 1.075e+04 8.956e-10
  0.85960   -110.7 1.082e+04 9.345e-10
  0.87033   -110.8 1.090e+04 9.955e-10
  0.88964   -109.8 1.095e+04 1.036e-09
  0.90473   -108.7 1.099e+04 1.065e-09
  0.91545   -108.8 1.107e+04 1.124e-09
  0.93253   -107.8 1.112e+04 1.133e-09
  0.94985   -106.7 1.113e+04 1.133e-09
  0.96057   -106.8 1.120e+04 1.202e-09
  0.97542   -105.7 1.120e+04 1.187e-09
  0.99497   -104.8 1.119e+04 1.164e-09
  1.00570   -104.8 1.129e+04 1.231e-09
  1.01832   -103.9 1.130e+04 1.219e-09
  1.03976   -102.9 1.131e+04 1.208e-09
  1.05082   -101.9 1.130e+04 1.188e-09
  1.06154   -102.3 1.170e+04 1.395e-09
  1.08265   -101.6 1.177e+04 1.412e-09
  1.09594   -100.8 1.184e+04 1.417e-09
  1.10667   -101.4 1.197e+04 1.690e-09
  1.12555   -100.6 1.205e+04 1.755e-09
  1.14106    -99.8 1.208e+04 1.789e-09
  1.15179   -100.2 1.196e+04 1.760e-09
  1.16844    -99.3 1.193e+04 1.764e-09
  1.18619    -98.2 1.184e+04 1.728e-09
  1.19691    -98.1 1.128e+04 1.439e-09
  1.21133    -97.0 1.112e+04 1.331e-09
  1.23131    -95.8 1.094e+04 1.222e-09
  1.24203    -95.7 1.029e+04 7.721e-10
  1.25422    -94.7 1.019e+04 6.684e-10
  1.27567    -93.8 1.010e+04 5.814e-10
  1.28716    -92.8 1.001e+04 5.074e-10
  1.30870    -94.0 9.357e+03 2.306e-10
  1.35092    -92.0 9.196e+03 2.112e-10
  1.37760    -90.6 9.177e+03 2.110e-10
  1.39904    -92.0 8.950e+03 1.933e-10
  1.43671    -90.8 9.420e+03 2.974e-10
  1.46784    -89.4 9.807e+03 4.473e-10
  1.48929    -89.9 9.767e+03 4.997e-10
  1.52249    -88.5 9.829e+03 5.339e-10
  1.55809    -87.2 9.764e+03 5.172e-10
  1.57953    -87.4 9.276e+03 3.875e-10
  1.60828    -85.9 8.849e+03 2.689e-10
  1.64833    -84.8 8.568e+03 1.993e-10
  1.66978    -84.9 8.275e+03 1.654e-10
  1.69406    -83.6 8.221e+03 1.577e-10
  1.73695    -82.0 8.220e+03 1.575e-10
  1.76003    -80.5 8.285e+03 1.633e-10
  1.78147    -79.8 8.297e+03 1.646e-10
  1.82274    -78.2 8.345e+03 1.687e-10
  1.85027    -76.5 8.377e+03 1.703e-10
  1.87172    -76.1 8.475e+03 1.843e-10
  1.90852    -75.0 8.572e+03 1.882e-10
  1.94052    -74.6 9.025e+03 2.295e-10
  1.96196    -76.0 9.898e+03 4.150e-10
  1.99431    -76.2 1.070e+04 7.691e-10
  2.02638    -76.8 1.111e+04 1.298e-09
  2.04129    -77.9 1.212e+04 2.062e-09
  2.05201    -85.1 1.806e+04 4.202e-09
  2.06917    -89.6 2.110e+04 9.094e-09
  2.08641    -92.6 2.208e+04 1.585e-08
  2.09714    -97.8 2.131e+04 2.068e-08
  2.11206    -99.2 1.978e+04 2.001e-08
  2.13154   -100.5 1.802e+04 1.294e-08
  2.14226   -101.7 1.598e+04 6.367e-09
  2.15496   -103.5 1.471e+04 2.801e-09
  2.17640   -106.8 1.336e+04 1.291e-09
  2.18738   -109.9 1.199e+04 7.350e-10
  2.19810   -112.1 1.054e+04 3.713e-10
  2.21929   -112.4 1.031e+04 3.448e-10
  2.23250   -112.1 1.027e+04 3.411e-10
  2.24323   -112.1 9.832e+03 2.420e-10
  2.26219   -112.1 9.954e+03 2.510e-10
  2.27763   -112.2 1.016e+04 2.910e-10
  2.28835   -112.2 9.856e+03 2.368e-10
  2.30508   -112.3 1.018e+04 2.948e-10
  2.32275   -112.8 1.078e+04 4.202e-10
  2.33347   -112.1 1.035e+04 3.142e-10
  2.34797   -112.7 1.083e+04 4.247e-10
  2.35890   -113.4 1.156e+04 7.070e-10
  2.36808   -113.1 1.125e+04 5.350e-10
  2.37860   -112.6 1.082e+04 4.318e-10
  2.39086   -113.0 1.137e+04 6.152e-10
  2.41231   -113.3 1.196e+04 8.988e-10
  2.42372   -113.5 1.239e+04 1.173e-09
  2.43454   -112.9 1.161e+04 7.086e-10
  2.45530   -113.5 1.223e+04 1.093e-09
  2.46884   -114.1 1.237e+04 1.238e-09
  2.47956   -113.8 1.233e+04 1.125e-09
  2.49809   -114.6 1.245e+04 1.245e-09
  2.51396   -115.4 1.246e+04 1.262e-09
  2.52469   -115.4 1.264e+04 1.300e-09
  2.54098   -116.6 1.267e+04 1.361e-09
  2.55909   -117.8 1.266e+04 1.371e-09
  2.56981   -119.1 1.321e+04 1.631e-09
  2.58388   -120.6 1.326e+04 1.684e-09
  2.60421   -121.8 1.325e+04 1.689e-09
  2.61493   -123.6 1.369e+04 2.166e-09
  2.62677   -124.3 1.335e+04 2.030e-09
  2.64821   -125.2 1.312e+04 1.876e-09
  2.66006   -127.3 1.315e+04 1.841e-09
  2.67078   -128.8 1.332e+04 2.212e-09
  2.69111   -134.0 1.481e+04 2.317e-09
  2.70518   -140.3 1.747e+04 4.139e-09
  2.71590   -142.1 1.781e+04 4.932e-09
  2.73400   -146.8 1.885e+04 9.331e-09
  2.75030   -150.4 1.917e+04 1.357e-08
  2.76102   -152.5 1.944e+04 1.185e-08
  2.77689   -155.4 1.921e+04 1.194e-08
  2.79542   -157.7 1.825e+04 9.475e-09
  2.80615   -160.7 1.794e+04 7.594e-09
  2.81978   -163.4 1.651e+04 4.955e-09
  2.84055   -165.9 1.545e+04 3.548e-09
  2.85122   -168.1 1.540e+04 3.616e-09
  2.86263   -169.6 1.566e+04 3.871e-09
  2.88412   -172.3 1.612e+04 4.209e-09
  2.89639   -174.3 1.688e+04 5.875e-09
  2.90171   -174.3 1.700e+04 6.433e-09
  2.91083   -174.9 1.737e+04 7.915e-09
  2.91886   -175.3 1.771e+04 9.498e-09
  2.92422   -175.3 1.793e+04 1.070e-08
  2.93228   -175.6 1.827e+04 1.235e-08
  2.94142   -175.9 1.856e+04 1.374e-08
  2.94678   -175.5 1.915e+04 1.745e-08
  2.95372   -176.1 1.944e+04 1.864e-08
  2.96398   -176.8 1.951e+04 1.887e-08
  2.96934   -177.1 2.000e+04 2.207e-08
  2.97517   -178.0 2.000e+04 2.193e-08
  2.98589   -178.6 1.975e+04 1.971e-08
  2.99190   -178.9 1.937e+04 1.653e-08
  2.99726   -179.5 2.008e+04 1.993e-08
  3.00734   -180.1 1.990e+04 1.665e-08
  3.01446   -180.9 1.967e+04 1.373e-08
  3.01983   -182.4 2.019e+04 1.726e-08
  3.02878   -183.5 1.975e+04 1.414e-08
  3.03703   -184.6 1.909e+04 1.143e-08
  3.04239   -186.0 1.901e+04 1.468e-08
  3.05023   -186.7 1.819e+04 1.164e-08
  3.05959   -187.2 1.738e+04 9.411e-09
  3.06495   -187.6 1.735e+04 1.101e-08
  3.07168   -187.8 1.667e+04 8.849e-09
  3.08215   -187.9 1.611e+04 7.349e-09
  3.08751   -187.9 1.609e+04 7.677e-09
  3.09312   -188.1 1.563e+04 6.526e-09
  3.10384   -188.1 1.530e+04 5.844e-09
  3.11998   -188.3 1.500e+04 5.137e-09
  3.13273   -188.5 1.432e+04 3.700e-09
  3.14345   -188.5 1.373e+04 2.267e-09
  3.16292   -189.3 1.313e+04 1.558e-09
  3.17785   -190.2 1.262e+04 1.192e-09
  3.18858   -191.3 1.161e+04 6.440e-10
  3.20581   -191.6 1.141e+04 5.969e-10
  3.22298   -191.7 1.136e+04 5.860e-10
  3.23370   -191.8 1.072e+04 3.974e-10
  3.24621   -191.6 1.072e+04 4.103e-10
  3.25694   -190.8 1.075e+04 3.982e-10
  3.26810   -190.5 1.082e+04 4.342e-10
  3.27882   -189.9 1.047e+04 3.441e-10
  3.29160   -189.5 1.056e+04 3.781e-10
  3.31304   -189.2 1.065e+04 4.177e-10
  3.32394   -188.8 1.074e+04 4.617e-10
  3.33467   -188.1 1.052e+04 3.735e-10
  3.35593   -187.8 1.060e+04 4.024e-10
  3.36907   -187.6 1.067e+04 4.263e-10
  3.37989   -187.2 1.052e+04 3.418e-10
  3.40974   -186.9 1.063e+04 3.475e-10
  3.44879   -186.6 1.071e+04 3.445e-10
  3.47023   -185.5 1.045e+04 2.830e-10
  3.49553   -185.1 1.037e+04 2.578e-10
  3.53842   -184.6 1.021e+04 2.292e-10
  3.56048   -183.8 9.983e+03 2.032e-10
  3.58192   -182.5 9.649e+03 1.693e-10
  3.62420   -181.3 9.438e+03 1.473e-10
  3.65072   -179.8 9.283e+03 1.291e-10
  3.67217   -178.5 9.151e+03 1.144e-10
  3.70999   -176.8 9.067e+03 1.011e-10
  3.74097   -174.9 9.028e+03 9.149e-11
  3.76241   -173.6 8.934e+03 8.423e-11
  3.79577   -171.6 8.913e+03 7.882e-11
  3.83121   -169.4 8.879e+03 7.506e-11
  3.85266   -168.2 8.774e+03 7.514e-11
  3.88156   -166.0 8.745e+03 7.321e-11
  3.92146   -163.7 8.715e+03 7.270e-11
  3.94291   -162.5 8.663e+03 7.295e-11
  3.96734   -160.2 8.657e+03 7.360e-11
  4.01023   -157.8 8.657e+03 7.455e-11
  4.03315   -155.4 8.636e+03 7.571e-11
  4.05460   -154.3 8.525e+03 7.313e-11
  4.09602   -151.8 8.521e+03 7.330e-11
  4.12340   -149.4 8.496e+03 7.258e-11
  4.13966   -148.3 8.433e+03 6.723e-11
  4.15517   -148.0 8.442e+03 6.556e-11
  4.18180   -145.4 8.394e+03 6.343e-11
  4.21364   -142.8 8.354e+03 6.028e-11
  4.23509   -141.8 8.297e+03 5.688e-11
  4.26758   -139.1 8.248e+03 5.336e-11
  4.30389   -136.4 8.220e+03 5.024e-11
  4.32533   -135.5 8.182e+03 4.906e-11
  4.35337   -132.8 8.168e+03 4.641e-11
  4.39413   -130.1 8.175e+03 4.528e-11
  4.41558   -129.3 8.179e+03 4.718e-11
  4.43915   -126.8 8.190e+03 4.687e-11
  4.48204   -124.2 8.226e+03 4.709e-11
  4.50583   -121.8 8.275e+03 4.961e-11
  4.52727   -121.3 8.247e+03 6.880e-11
  4.56783   -118.8 8.261e+03 7.433e-11
  4.59607   -116.4 8.274e+03 8.132e-11
  4.61752   -115.6 8.261e+03 9.699e-11
  4.65361   -113.1 8.266e+03 1.015e-10
  4.68632   -110.6 8.286e+03 1.083e-10
  4.70776   -109.7 8.178e+03 9.006e-11
  4.73940   -107.2 8.193e+03 9.691e-11
  4.77656   -104.9 8.291e+03 1.114e-10
  4.79801   -104.0 8.122e+03 6.350e-11
  4.82518   -101.8 8.244e+03 7.928e-11
  4.86681    -99.7 8.365e+03 1.114e-10
  4.88825    -99.0 8.205e+03 5.687e-11
  4.91097    -97.0 8.377e+03 8.487e-11
  4.95386    -94.9 8.529e+03 1.263e-10
  4.97850    -92.7 8.676e+03 1.726e-10
  4.99995    -92.5 8.586e+03 1.259e-10
  5.03964    -90.4 8.791e+03 1.767e-10
  5.06874    -88.4 8.960e+03 2.272e-10
  5.09019    -88.2 9.003e+03 2.217e-10
  5.12543    -86.2 9.182e+03 2.716e-10
  5.15899    -84.2 9.300e+03 3.103e-10
  5.18044    -84.6 9.392e+03 2.982e-10
  5.21121    -82.9 9.497e+03 3.225e-10
  5.24924    -81.3 9.575e+03 3.550e-10
  5.27068    -82.0 9.468e+03 3.809e-10
  5.29699    -80.6 9.580e+03 4.069e-10
  5.33948    -79.2 9.671e+03 4.264e-10
  5.36093    -80.4 9.603e+03 4.309e-10
  5.38278    -79.1 9.630e+03 4.411e-10
  5.42567    -77.8 9.618e+03 4.526e-10
  5.45117    -76.3 9.582e+03 4.744e-10
  5.47262    -76.9 9.566e+03 5.654e-10
  5.51145    -75.1 9.681e+03 6.114e-10
  5.54142    -73.3 9.782e+03 6.460e-10
  5.56287    -74.1 9.622e+03 5.567e-10
  5.59724    -72.4 9.623e+03 5.644e-10
  5.63166    -70.6 9.506e+03 5.413e-10
  5.65311    -71.8 8.790e+03 3.464e-10
  5.68302    -69.6 8.660e+03 3.242e-10
  5.72191    -67.2 8.488e+03 2.807e-10
  5.74336    -67.6 8.011e+03 1.720e-10
  5.76881    -65.3 7.854e+03 1.364e-10
  5.81170    -63.0 7.729e+03 1.106e-10
  5.83360    -60.7 7.660e+03 9.725e-11
  5.85505    -61.4 7.390e+03 6.991e-11
  5.89748    -59.0 7.379e+03 7.009e-11
  5.92385    -56.4 7.386e+03 7.498e-11
  5.93472    -56.7 7.228e+03 6.503e-11
  5.95125    -56.7 7.223e+03 6.052e-11
  5.98327    -53.9 7.231e+03 6.145e-11
  6.01409    -51.1 7.253e+03 6.165e-11
  6.03554    -51.5 7.170e+03 5.108e-11
  6.06905    -49.3 7.280e+03 5.170e-11
  6.10434    -47.6 7.486e+03 5.641e-11
  6.12578    -49.3 7.617e+03 6.246e-11
  6.15484    -47.8 7.773e+03 9.172e-11
  6.19458    -45.9 7.933e+03 1.399e-10
  6.21603    -47.2 8.474e+03 2.378e-10
  6.24062    -45.7 8.860e+03 2.935e-10
  6.28351    -45.2 9.449e+03 3.783e-10
  6.30628    -45.9 1.026e+04 5.918e-10
  6.32772    -49.2 1.083e+04 9.512e-10
  6.36930    -49.9 1.167e+04 1.399e-09
  6.39642    -51.9 1.271e+04 2.090e-09
  6.40705    -53.5 1.265e+04 1.960e-09
  6.42272    -54.7 1.272e+04 2.043e-09
  6.44145    -55.8 1.249e+04 2.055e-09
  6.45217    -57.6 1.156e+04 1.454e-09
  6.46561    -57.9 1.126e+04 1.378e-09
  6.48657    -58.0 1.098e+04 1.169e-09
  6.49730    -59.3 1.028e+04 7.495e-10
  6.50850    -59.7 9.879e+03 5.662e-10
  6.52995    -60.2 9.430e+03 4.206e-10
  6.54242    -60.6 9.070e+03 3.337e-10
  6.55314    -61.5 8.888e+03 2.908e-10
  6.57692    -61.0 8.759e+03 2.689e-10
  6.59846    -61.7 8.353e+03 1.956e-10
  6.62665    -60.9 8.096e+03 1.701e-10
  6.66726    -59.9 8.051e+03 1.684e-10
  6.68870    -60.2 8.001e+03 1.470e-10
  6.71243    -58.8 8.078e+03 1.715e-10
  6.75532    -57.1 8.151e+03 1.937e-10
  6.77895    -55.3 8.207e+03 2.079e-10
  6.80040    -55.5 8.328e+03 2.201e-10
  6.84111    -53.8 8.399e+03 2.392e-10
  6.86920    -52.0 8.418e+03 2.477e-10
  6.89064    -52.2 8.512e+03 2.647e-10
  6.92689    -50.2 8.473e+03 2.648e-10
  6.95944    -48.2 8.346e+03 2.492e-10
  6.98089    -48.1 8.265e+03 2.324e-10
  7.01268    -45.9 8.068e+03 1.870e-10
  7.04969    -43.8 7.863e+03 1.461e-10
  7.07113    -43.8 7.728e+03 1.164e-10
  7.09846    -41.9 7.600e+03 9.506e-11
  7.13993    -40.2 7.554e+03 8.740e-11
  7.16138    -40.4 7.578e+03 8.041e-11
  7.18424    -39.3 7.796e+03 9.306e-11
  7.22714    -38.9 8.168e+03 1.532e-10
  7.25162    -37.6 8.734e+03 3.056e-10
  7.27307    -38.0 9.025e+03 3.976e-10
  7.29665    -36.2 9.348e+03 5.189e-10
  7.30728    -36.2 9.357e+03 5.293e-10
  7.32345    -36.0 9.378e+03 5.418e-10
  7.34167    -34.5 9.491e+03 6.090e-10
  7.36322    -34.1 9.424e+03 5.255e-10
  7.39870    -32.6 9.257e+03 3.945e-10
  7.43212    -31.5 8.784e+03 2.503e-10
  7.45356    -31.6 8.342e+03 1.451e-10
  7.48449    -30.7 8.045e+03 1.094e-10
  7.52236    -29.5 7.927e+03 9.609e-11
  7.54381    -29.8 7.885e+03 8.421e-11
  7.57027    -28.3 7.913e+03 8.886e-11
  7.61261    -27.3 8.070e+03 1.044e-10
  7.63405    -27.2 8.097e+03 1.041e-10
  7.65606    -26.3 8.316e+03 1.477e-10
  7.69895    -25.5 8.693e+03 2.109e-10
  7.72430    -24.9 9.137e+03 2.873e-10
  7.72978    -25.1 9.162e+03 3.081e-10
  7.74732    -25.0 9.442e+03 3.959e-10
  7.78473    -23.9 9.582e+03 4.509e-10
  7.81454    -22.2 9.455e+03 3.645e-10
  7.83599    -21.4 9.222e+03 2.832e-10
  7.87052    -20.1 9.156e+03 1.646e-10
  7.90479    -19.6 9.031e+03 1.132e-10
  7.92624    -19.3 8.935e+03 7.425e-11
  7.95630    -18.0 8.754e+03 7.339e-11
  7.99504    -16.1 8.765e+03 7.880e-11
  8.01648    -15.6 8.723e+03 6.601e-11
  8.04209    -13.5 8.819e+03 7.748e-11
  8.08498    -11.5 8.950e+03 9.438e-11
  8.10673     -9.6 9.102e+03 1.208e-10
  8.12817     -9.0 9.094e+03 1.161e-10
  8.17076     -7.0 9.264e+03 1.550e-10
  8.19697     -4.9 9.474e+03 2.049e-10
  8.21842     -4.3 9.424e+03 1.908e-10
  8.25655     -2.2 9.616e+03 2.228e-10
  8.28722     -0.2 9.814e+03 2.350e-10
  8.30866      0.3 9.748e+03 2.039e-10
  8.34233      2.2 9.830e+03 1.963e-10
  8.37746      4.1 9.911e+03 1.719e-10
  8.39891      4.6 9.849e+03 1.640e-10
  8.42811      6.5 9.937e+03 1.383e-10
  8.46771      8.4 1.003e+04 1.175e-10
  8.48916      9.1 1.000e+04 1.224e-10
  8.51390     11.1 1.007e+04 1.102e-10
  8.55679     13.3 1.008e+04 1.099e-10
  8.57940     15.5 1.013e+04 1.130e-10
  8.60085     16.3 1.016e+04 1.184e-10
  8.64257     18.5 1.027e+04 1.275e-10
  8.66965     20.8 1.038e+04 1.495e-10
  8.69109     21.5 1.039e+04 1.499e-10
  8.72836     23.7 1.053e+04 1.845e-10
  8.75989     26.1 1.070e+04 2.298e-10
  8.78134     26.9 1.065e+04 2.003e-10
  8.81414     29.3 1.081e+04 2.363e-10
  8.85014     31.6 1.095e+04 2.687e-10
  8.87158     32.4 1.087e+04 2.059e-10
  8.89993     34.6 1.098e+04 2.279e-10
  8.94038     36.7 1.104e+04 2.564e-10
  8.96183     37.2 1.107e+04 2.139e-10
  8.98571     39.1 1.114e+04 2.699e-10
  9.02860     40.9 1.127e+04 3.676e-10
  9.05208     42.7 1.150e+04 5.314e-10
  9.07352     43.0 1.171e+04 6.059e-10
  9.11439     44.6 1.210e+04 9.622e-10
  9.14232     45.6 1.265e+04 1.478e-09
  9.16377     45.7 1.277e+04 1.655e-09
  9.18735     46.0 1.322e+04 2.331e-09
  9.19797     46.1 1.324e+04 2.384e-09
  9.21070     47.0 1.364e+04 3.189e-09
  9.23214     48.1 1.394e+04 3.569e-09
  9.24309     49.1 1.400e+04 3.382e-09
  9.25382     49.3 1.376e+04 2.501e-09
  9.27504     49.7 1.365e+04 1.819e-09
  9.28822     49.2 1.331e+04 1.154e-09
  9.29894     48.3 1.261e+04 7.245e-10
  9.31793     47.2 1.176e+04 5.331e-10
  9.33334     46.3 1.089e+04 4.751e-10
  9.34416     46.0 1.059e+04 3.444e-10
  9.37174     45.6 1.001e+04 3.344e-10
  9.41306     46.2 9.953e+03 3.800e-10
  9.43450     46.0 9.585e+03 2.514e-10
  9.45752     47.2 9.680e+03 3.162e-10
  9.50042     48.3 9.765e+03 3.643e-10
  9.52475     49.0 1.008e+04 4.930e-10
  9.54620     49.0 9.935e+03 3.876e-10
  9.58620     49.6 1.011e+04 4.527e-10
  9.61500     50.0 1.044e+04 6.059e-10
  9.63644     50.1 1.007e+04 4.528e-10
  9.67198     50.8 1.036e+04 6.264e-10
  9.70524     51.5 1.053e+04 7.795e-10
  9.72669     51.5 9.920e+03 4.896e-10
  9.75777     52.0 9.921e+03 5.303e-10
  9.79549     52.6 9.844e+03 5.191e-10
  9.81693     52.7 9.470e+03 3.970e-10
  9.84355     53.8 9.382e+03 3.846e-10
  9.88573     55.1 9.142e+03 3.397e-10
  9.90718     55.6 9.076e+03 3.157e-10
  9.92934     57.1 8.883e+03 2.703e-10
  9.97223     58.6 8.651e+03 2.111e-10
  9.99742     60.2 8.413e+03 1.560e-10
 10.01887     60.7 8.450e+03 1.598e-10
 10.05801     62.3 8.246e+03 1.134e-10
 10.08767     63.8 8.079e+03 8.089e-11
 10.10912     64.1 8.128e+03 7.904e-11
 10.14380     65.4 8.009e+03 6.122e-11
 10.17792     66.9 8.011e+03 5.850e-11
 10.19936     67.1 8.175e+03 6.598e-11
 10.22958     68.6 8.197e+03 6.786e-11
 10.26816     70.1 8.266e+03 7.494e-11
 10.28961     70.0 8.436e+03 1.034e-10
 10.31536     71.3 8.636e+03 1.275e-10
 10.35826     72.4 8.895e+03 1.584e-10
 10.40115     72.5 9.773e+03 3.263e-10
 10.44404     73.4 9.967e+03 3.502e-10
 10.47010     74.4 1.003e+04 3.512e-10
 10.49154     73.7 1.052e+04 5.388e-10
 10.52982     75.1 1.044e+04 4.915e-10
 10.56034     76.7 1.032e+04 4.396e-10
 10.58179     76.4 1.042e+04 4.696e-10
 10.61561     78.2 1.022e+04 4.114e-10
 10.65059     80.2 1.002e+04 3.644e-10
 10.67204     80.1 9.807e+03 3.028e-10
 10.70139     82.3 9.598e+03 2.531e-10
 10.74083     84.5 9.414e+03 2.133e-10
 10.76228     84.7 9.319e+03 1.798e-10
 10.78718     87.1 9.206e+03 1.618e-10
 10.83007     89.6 9.112e+03 1.544e-10
 10.85253     92.2 9.093e+03 1.546e-10
 10.87397     92.7 9.143e+03 1.566e-10
 10.91585     95.4 9.163e+03 1.639e-10
 10.94277     98.0 9.227e+03 1.788e-10
 10.96422     98.5 9.396e+03 2.328e-10
 11.00164    101.0 9.520e+03 2.712e-10
 11.03302    103.5 9.656e+03 3.173e-10
 11.05446    104.1 9.994e+03 4.541e-10
 11.08742    106.6 1.018e+04 5.337e-10
 11.12326    108.9 1.033e+04 6.045e-10
 11.14471    109.7 1.078e+04 8.005e-10
 11.17321    111.9 1.086e+04 8.190e-10
 11.21351    114.0 1.085e+04 8.114e-10
 11.23496    114.3 1.102e+04 8.548e-10
 11.25899    116.2 1.092e+04 7.952e-10
 11.29658    118.1 1.079e+04 7.114e-10
 11.31803    118.1 1.109e+04 8.678e-10
 11.32520    120.0 1.106e+04 8.471e-10
 11.34665    120.0 1.131e+04 9.632e-10
 11.38767    121.8 1.146e+04 1.036e-09
 11.41545    123.2 1.158e+04 1.091e-09
 11.43689    123.3 1.189e+04 1.337e-09
 11.47345    124.6 1.191e+04 1.357e-09
 11.50569    125.2 1.189e+04 1.378e-09
 11.52704    125.2 1.176e+04 1.336e-09
 11.54832    125.1 1.176e+04 1.342e-09
 11.56134    124.7 1.181e+04 1.382e-09
 11.57207    124.5 1.183e+04 1.424e-09
 11.59121    124.1 1.196e+04 1.511e-09
 11.60647    123.3 1.219e+04 1.669e-09
 11.61719    123.2 1.221e+04 1.692e-09
 11.63410    122.2 1.249e+04 1.911e-09
 11.65159    121.1 1.275e+04 2.112e-09
 11.66231    120.3 1.290e+04 2.142e-09
 11.67699    118.7 1.301e+04 2.160e-09
 11.69671    117.2 1.301e+04 2.125e-09
 11.70743    115.2 1.385e+04 2.470e-09
 11.71988    114.1 1.348e+04 2.193e-09
 11.74133    113.2 1.307e+04 1.915e-09
 11.75256    112.4 1.283e+04 1.740e-09
 11.76328    110.2 1.273e+04 1.960e-09
 11.78422    109.8 1.273e+04 1.965e-09
 11.79768    109.5 1.273e+04 2.015e-09
 11.80840    107.9 1.259e+04 2.082e-09
 11.82711    108.2 1.269e+04 2.237e-09
 11.84280    108.7 1.287e+04 2.454e-09
 11.85353    108.3 1.253e+04 1.771e-09
 11.87001    108.9 1.271e+04 1.814e-09
 11.88793    109.5 1.289e+04 1.828e-09
 11.89865    107.5 1.213e+04 7.692e-10
 11.91290    107.6 1.205e+04 7.390e-10
 11.93305    107.7 1.194e+04 7.145e-10
 11.94377    104.5 1.018e+04 3.367e-10
 11.95579    104.8 1.013e+04 3.706e-10
 11.97724    105.3 1.017e+04 4.310e-10
 11.98889    105.8 1.033e+04 5.246e-10
 11.99962    105.2 9.987e+03 4.420e-10
 12.02013    105.8 1.032e+04 5.686e-10
 12.03402    106.2 1.074e+04 7.345e-10
 12.04474    105.9 1.067e+04 6.419e-10
 12.06302    106.3 1.111e+04 8.399e-10
 12.07914    106.7 1.156e+04 1.089e-09
 12.08986    106.4 1.135e+04 9.220e-10
 12.10591    106.9 1.173e+04 1.165e-09
 12.12426    107.5 1.204e+04 1.399e-09
 12.13499    107.4 1.173e+04 1.156e-09
 12.14880    108.0 1.194e+04 1.286e-09
 12.16939    108.5 1.206e+04 1.340e-09
 12.18011    108.4 1.170e+04 1.073e-09
 12.19170    108.8 1.170e+04 1.068e-09
 12.20515    109.4 1.166e+04 1.039e-09
 12.21587    108.7 1.188e+04 1.147e-09
 12.22523    109.2 1.184e+04 1.117e-09
 12.23595    109.1 1.144e+04 8.831e-10
 12.25603    109.8 1.141e+04 8.553e-10
 12.27035    110.4 1.144e+04 8.637e-10
 12.28108    110.2 1.112e+04 6.990e-10
 12.29893    110.8 1.117e+04 7.195e-10
 12.31548    111.5 1.130e+04 7.732e-10
 12.32620    111.2 1.107e+04 6.662e-10
 12.34182    112.0 1.123e+04 7.370e-10
 12.36060    112.7 1.144e+04 8.430e-10
 12.37132    112.5 1.128e+04 7.682e-10
 12.38471    113.5 1.147e+04 8.591e-10
 12.40572    114.5 1.171e+04 9.843e-10
 12.41645    114.5 1.149e+04 8.620e-10
 12.42760    115.4 1.170e+04 9.798e-10
 12.44905    116.3 1.192e+04 1.146e-09
 12.46157    117.1 1.210e+04 1.343e-09
 12.47229    117.2 1.180e+04 1.135e-09
 12.49194    118.0 1.192e+04 1.299e-09
 12.50669    118.9 1.199e+04 1.434e-09
 12.51741    119.1 1.165e+04 1.141e-09
 12.53483    119.9 1.172e+04 1.226e-09
 12.55181    120.7 1.184e+04 1.324e-09
 12.56254    120.5 1.151e+04 1.054e-09
 12.57772    121.3 1.160e+04 1.121e-09
 12.59694    121.9 1.168e+04 1.174e-09
 12.60766    121.6 1.130e+04 9.119e-10
 12.62062    122.1 1.130e+04 9.451e-10
 12.64206    122.6 1.129e+04 9.871e-10
 12.66351    122.9 1.097e+04 8.850e-10
 12.68496    123.6 1.104e+04 9.607e-10
 12.69791    124.3 1.113e+04 1.041e-09
 12.70863    124.5 1.094e+04 9.484e-10
 12.72785    125.0 1.102e+04 1.010e-09
 12.74313    126.5 1.143e+04 1.265e-09
 12.76467    127.2 1.098e+04 1.047e-09
 12.80310    128.9 1.095e+04 1.041e-09
 12.83347    130.6 1.087e+04 1.006e-09
 12.85491    131.1 1.022e+04 6.765e-10
 12.88889    132.8 1.010e+04 6.176e-10
 12.92371    134.5 9.938e+03 5.549e-10
 12.94516    134.8 9.546e+03 4.085e-10
 12.97467    136.6 9.461e+03 3.833e-10
 13.01396    138.8 9.478e+03 3.735e-10
 13.03541    138.4 9.303e+03 3.251e-10
 13.06046    140.2 9.281e+03 3.226e-10
 13.09266    142.3 9.276e+03 3.235e-10
 13.11410    142.1 8.989e+03 2.654e-10
 13.12565    144.3 9.185e+03 2.918e-10
 13.14710    144.4 9.318e+03 3.059e-10
 13.18913    146.4 9.550e+03 3.477e-10
 13.21590    147.7 9.640e+03 3.806e-10
 13.22652    147.1 9.690e+03 3.904e-10
 13.24255    148.1 9.713e+03 4.137e-10
 13.26082    149.5 9.799e+03 4.641e-10
 13.27155    149.4 9.833e+03 4.786e-10
 13.28544    150.8 1.002e+04 5.459e-10
 13.30595    151.8 1.023e+04 6.154e-10
 13.31667    151.4 1.030e+04 6.277e-10
 13.32834    152.2 1.049e+04 6.921e-10
 13.34978    152.9 1.066e+04 7.643e-10
 13.36179    153.6 1.081e+04 8.451e-10
 13.37252    153.1 1.088e+04 8.988e-10
 13.39267    153.9 1.098e+04 9.664e-10
 13.40692    154.7 1.106e+04 1.019e-09
 13.41764    154.2 1.100e+04 9.911e-10
 13.43557    155.1 1.101e+04 9.812e-10
 13.45204    155.8 1.100e+04 9.584e-10
 13.46276    155.3 1.075e+04 8.165e-10
 13.47846    156.0 1.067e+04 7.654e-10
 13.49716    156.6 1.057e+04 7.196e-10
 13.50789    156.0 1.019e+04 5.723e-10
 13.52135    156.6 1.010e+04 5.451e-10
 13.54228    157.2 1.005e+04 5.430e-10
 13.55301    156.5 9.798e+03 4.567e-10
 13.56424    157.1 9.935e+03 4.883e-10
 13.58569    157.8 1.014e+04 5.394e-10
 13.59813    158.4 1.039e+04 6.087e-10
 13.60885    157.8 1.040e+04 6.006e-10
 13.62858    158.5 1.077e+04 6.988e-10
 13.64325    159.0 1.129e+04 8.569e-10
 13.65398    158.0 1.153e+04 9.826e-10
 13.67147    157.8 1.227e+04 1.393e-09
 13.68838    157.5 1.325e+04 2.127e-09
 13.69910    156.6 1.382e+04 2.764e-09
 13.71436    156.6 1.511e+04 4.521e-09
 13.73350    156.9 1.644e+04 7.222e-09
 13.74422    156.6 1.708e+04 9.217e-09
 13.75726    156.5 1.812e+04 1.209e-08
 13.77862    155.9 1.852e+04 1.255e-08
 13.80007    153.8 1.853e+04 1.202e-08
 13.82159    152.9 1.798e+04 9.321e-09
 13.83447    151.8 1.699e+04 6.099e-09
 13.84519    150.2 1.637e+04 5.276e-09
 13.86449    148.6 1.485e+04 3.259e-09
 13.87959    147.0 1.326e+04 2.111e-09
 13.89031    146.2 1.301e+04 2.056e-09
 13.90738    146.0 1.213e+04 1.517e-09
 13.92471    146.1 1.162e+04 1.213e-09
 13.93544    146.0 1.158e+04 1.148e-09
 13.95027    146.4 1.117e+04 9.061e-10
 13.96984    146.9 1.082e+04 7.530e-10
 13.98056    146.4 1.061e+04 6.920e-10
 13.99050    146.8 1.030e+04 6.240e-10
 14.00122    147.3 1.055e+04 7.314e-10
 14.01461    148.0 1.045e+04 7.075e-10
 14.02568    149.1 1.045e+04 7.057e-10
 14.03641    148.2 1.038e+04 6.952e-10
 14.05750    149.3 1.039e+04 6.997e-10
 14.07080    150.2 1.045e+04 7.397e-10
 14.08153    148.5 1.045e+04 7.485e-10
 14.10039    147.9 1.110e+04 9.570e-10
 14.11593    147.1 1.234e+04 1.325e-09
 14.12665    144.1 1.224e+04 1.301e-09
 14.13787    142.9 1.293e+04 1.575e-09
 14.14375    140.8 1.395e+04 1.924e-09
 14.14911    137.4 1.661e+04 2.048e-09
 14.15927    124.4 2.712e+04 4.849e-09
 14.16631    110.1 3.069e+04 1.910e-08
 14.17168    103.8 2.991e+04 3.230e-08
 14.18072     95.3 2.739e+04 5.865e-08
 14.18888     89.5 2.654e+04 5.977e-08
 14.19424     88.2 2.529e+04 6.655e-08
 14.20216     85.0 2.444e+04 4.971e-08
 14.21144     81.9 2.452e+04 2.771e-08
 14.21680     82.6 2.415e+04 2.569e-08
 14.22902     76.2 2.613e+04 7.067e-09
 14.25052     65.3 2.251e+04 1.564e-09
 14.26202     57.8 1.227e+04 1.186e-09
 14.27274     59.2 1.185e+04 1.177e-09
 14.29341     59.7 1.143e+04 1.092e-09
 14.30714     61.5 1.131e+04 1.036e-09
 14.31786     63.0 1.142e+04 1.077e-09
 14.33630     64.8 1.134e+04 1.004e-09
 14.35226     66.6 1.119e+04 9.183e-10
 14.36299     67.5 1.121e+04 9.285e-10
 14.37919     69.2 1.104e+04 8.386e-10
 14.39739     71.0 1.091e+04 7.660e-10
 14.40811     71.7 1.090e+04 7.637e-10
 14.42208     73.3 1.080e+04 7.032e-10
 14.44251     74.8 1.071e+04 6.534e-10
 14.45323     75.3 1.064e+04 6.046e-10
 14.46498     76.6 1.051e+04 5.525e-10
 14.48642     78.0 1.039e+04 5.200e-10
 14.49836     79.4 1.032e+04 5.124e-10
 14.50908     79.6 1.015e+04 4.231e-10
 14.52931     80.9 1.013e+04 4.254e-10
 14.54348     82.3 1.011e+04 4.360e-10
 14.55420     82.5 9.947e+03 3.614e-10
 14.57221     83.6 9.952e+03 3.669e-10
 14.58860     85.1 9.947e+03 3.853e-10
 14.59932     85.3 9.851e+03 3.367e-10
 14.61510     86.3 9.863e+03 3.426e-10
 14.63372     87.6 9.902e+03 3.635e-10
 14.65527     88.2 9.845e+03 3.209e-10
 14.67895     89.5 1.002e+04 3.926e-10
 14.68957     89.3 9.972e+03 3.617e-10
 14.70088     90.1 1.020e+04 4.500e-10
 14.72233     90.8 1.053e+04 5.998e-10
 14.73469     91.4 1.092e+04 8.136e-10
 14.74542     91.2 1.089e+04 8.033e-10
 14.76522     91.8 1.132e+04 1.065e-09
 14.77982     92.3 1.177e+04 1.373e-09
 14.79054     92.2 1.175e+04 1.321e-09
 14.80811     92.2 1.220e+04 1.550e-09
 14.82494     91.9 1.258e+04 1.621e-09
 14.83566     91.5 1.251e+04 1.515e-09
 14.85100     90.9 1.257e+04 1.492e-09
 14.87006     90.6 1.258e+04 1.469e-09
 14.88078     90.4 1.257e+04 1.436e-09
 14.88863     89.7 1.261e+04 1.404e-09
 14.91002     91.8 1.229e+04 1.249e-09
 14.94755     91.0 1.217e+04 1.045e-09
 14.99060     91.6 1.173e+04 8.336e-10
 15.01635     92.8 1.127e+04 6.365e-10
 15.03779     92.5 1.130e+04 6.515e-10
 15.07638     94.0 1.089e+04 5.192e-10
 15.10659     95.8 1.057e+04 4.314e-10
 15.12804     95.6 1.059e+04 4.268e-10
 15.16217     97.6 1.039e+04 3.682e-10
 15.19684     99.5 1.033e+04 3.489e-10
 15.21829     99.3 1.018e+04 3.001e-10
 15.24795    101.1 1.016e+04 3.001e-10
 15.28709    102.7 1.021e+04 3.165e-10
 15.30853    101.9 9.988e+03 2.820e-10
 15.33373    103.3 1.006e+04 3.113e-10
 15.37663    104.5 1.011e+04 3.453e-10
 15.39878    105.7 1.013e+04 3.763e-10
 15.42022    105.4 9.896e+03 3.010e-10
 15.46241    106.5 9.932e+03 3.242e-10
 15.48902    107.5 9.914e+03 3.456e-10
 15.51047    107.5 9.598e+03 2.648e-10
 15.54820    108.5 9.553e+03 2.761e-10
 15.57927    109.4 9.532e+03 2.759e-10
 15.60071    109.8 9.315e+03 2.270e-10
 15.63398    110.9 9.238e+03 2.233e-10
 15.66951    112.2 9.104e+03 2.093e-10
 15.69096    112.7 8.990e+03 1.836e-10
 15.71976    114.1 8.875e+03 1.674e-10
 15.75976    115.7 8.774e+03 1.516e-10
 15.78121    116.1 8.794e+03 1.470e-10
 15.80555    117.7 8.742e+03 1.415e-10
 15.84844    119.5 8.742e+03 1.415e-10
 15.87145    121.3 8.758e+03 1.425e-10
 15.89290    121.6 8.814e+03 1.427e-10
 15.93422    123.4 8.867e+03 1.480e-10
 15.96170    125.1 8.975e+03 1.615e-10
 15.98314    125.2 9.132e+03 1.876e-10
 16.02001    126.9 9.300e+03 2.257e-10
 16.05194    128.6 9.593e+03 2.927e-10
 16.07339    128.8 9.935e+03 3.916e-10
 16.10579    130.7 1.057e+04 5.703e-10
 16.14219    132.5 1.144e+04 8.763e-10
 16.16363    132.5 1.197e+04 1.129e-09
 16.18076    133.0 1.233e+04 1.387e-09
 16.19784    133.2 1.287e+04 1.801e-09
 16.20856    132.3 1.308e+04 2.080e-09
 16.22355    132.6 1.381e+04 2.909e-09
 16.24296    133.0 1.457e+04 4.004e-09
 16.25368    132.4 1.458e+04 3.767e-09
 16.26644    132.8 1.516e+04 3.988e-09
 16.28789    133.2 1.522e+04 3.781e-09
 16.29881    133.6 1.519e+04 3.154e-09
 16.30953    132.2 1.410e+04 1.668e-09
 16.33078    131.9 1.363e+04 1.241e-09
 16.34393    131.6 1.297e+04 9.071e-10
 16.36547    129.8 1.193e+04 6.537e-10
 16.40604    129.8 1.162e+04 6.302e-10
 16.43437    130.1 1.165e+04 6.610e-10
 16.45582    129.9 1.164e+04 7.035e-10
 16.49182    130.8 1.185e+04 8.373e-10
 16.52462    131.9 1.207e+04 9.876e-10
 16.54606    131.8 1.198e+04 1.067e-09
 16.57760    133.2 1.214e+04 1.189e-09
 16.61486    134.9 1.238e+04 1.330e-09
 16.63621    133.9 1.235e+04 1.336e-09
 16.65247    133.7 1.245e+04 1.401e-09
 16.67051    133.6 1.251e+04 1.474e-09
 16.68121    133.1 1.222e+04 1.285e-09
 16.69534    132.4 1.183e+04 1.028e-09
 16.71564    132.5 1.178e+04 1.025e-09
 16.72636    132.1 1.136e+04 8.379e-10
 16.73825    132.2 1.134e+04 8.416e-10
 16.75970    132.5 1.131e+04 8.559e-10
 16.77148    132.9 1.127e+04 8.771e-10
 16.78220    132.7 1.090e+04 7.338e-10
 16.80259    133.2 1.086e+04 7.449e-10
 16.81660    133.8 1.085e+04 7.461e-10
 16.82733    133.8 1.062e+04 6.446e-10
 16.84548    134.4 1.061e+04 6.442e-10
 16.86173    135.0 1.059e+04 6.413e-10
 16.87245    135.1 1.043e+04 5.623e-10
 16.88838    135.8 1.043e+04 5.629e-10
 16.90685    136.4 1.043e+04 5.665e-10
 16.91757    136.5 1.032e+04 5.169e-10
 16.93127    137.2 1.038e+04 5.406e-10
 16.95197    137.9 1.047e+04 5.719e-10
 16.96270    138.1 1.045e+04 5.576e-10
 16.97416    138.9 1.060e+04 6.092e-10
 16.99561    139.6 1.077e+04 6.743e-10
 17.00782    140.3 1.096e+04 7.612e-10
 17.01854    140.5 1.102e+04 8.043e-10
 17.03850    141.0 1.125e+04 9.413e-10
 17.05294    141.5 1.152e+04 1.116e-09
 17.06366    141.7 1.157e+04 1.174e-09
 17.08139    142.2 1.187e+04 1.399e-09
 17.09806    142.8 1.221e+04 1.674e-09
 17.10879    142.9 1.222e+04 1.684e-09
 17.12428    143.3 1.258e+04 1.990e-09
 17.14319    143.5 1.291e+04 2.277e-09
 17.15391    143.5 1.277e+04 2.097e-09
 17.16717    143.3 1.303e+04 2.280e-09
 17.18831    143.0 1.328e+04 2.421e-09
 17.19903    142.7 1.312e+04 2.223e-09
 17.21007    142.0 1.334e+04 2.351e-09
 17.23151    141.2 1.351e+04 2.463e-09
 17.24416    140.2 1.357e+04 2.535e-09
 17.25488    139.7 1.345e+04 2.433e-09
 17.27440    138.6 1.337e+04 2.404e-09
 17.28928    137.4 1.314e+04 2.266e-09
 17.30000    137.0 1.292e+04 2.030e-09
 17.31730    135.8 1.257e+04 1.768e-09
 17.33440    134.5 1.224e+04 1.483e-09
 17.34512    133.7 1.193e+04 1.247e-09
 17.36019    131.7 1.165e+04 1.025e-09
 17.37952    129.2 1.147e+04 8.552e-10
 17.39025    127.6 1.127e+04 7.496e-10
 17.40308    124.6 1.113e+04 6.596e-10
 17.42453    122.3 1.093e+04 6.102e-10
 17.43537    120.8 1.078e+04 5.864e-10
 17.44609    121.2 1.072e+04 5.688e-10
 17.46742    119.4 1.065e+04 5.531e-10
 17.48049    118.0 1.054e+04 5.390e-10
 17.49131    119.6 1.055e+04 5.344e-10
 17.52123    116.2 1.046e+04 5.062e-10
 17.56021    112.5 1.040e+04 4.723e-10
 17.58166    112.3 1.040e+04 4.635e-10
 17.60701    109.2 1.026e+04 4.307e-10
 17.64991    106.8 1.012e+04 4.031e-10
 17.67190    104.9 1.000e+04 3.768e-10
 17.69335    105.3 9.934e+03 3.526e-10
 17.73569    104.1 9.916e+03 3.414e-10
 17.76215    103.3 9.928e+03 3.438e-10
 17.78359    103.7 9.903e+03 3.233e-10
 17.82147    103.0 1.000e+04 3.520e-10
 17.85239    102.4 1.032e+04 4.455e-10
 17.87384    102.5 1.033e+04 4.431e-10
 17.90726    102.1 1.080e+04 6.017e-10
 17.94264    101.6 1.127e+04 7.818e-10
 17.96409    101.6 1.102e+04 6.076e-10
 17.99304    101.2 1.110e+04 6.108e-10
 18.03288    100.8 1.109e+04 5.907e-10
 18.05433    100.8 1.074e+04 4.366e-10
 18.07883    100.7 1.060e+04 4.174e-10
 18.12172    100.8 1.044e+04 4.108e-10
 18.14458    101.1 1.040e+04 4.153e-10
 18.16602    101.3 1.027e+04 3.815e-10
 18.20750    101.9 1.024e+04 3.996e-10
 18.23482    102.5 1.026e+04 4.256e-10
 18.25627    102.6 9.998e+03 3.710e-10
 18.27985    102.8 1.002e+04 3.914e-10
 18.29047    103.0 9.973e+03 3.781e-10
 18.30381    103.3 9.999e+03 3.909e-10
 18.32487    103.6 1.012e+04 4.303e-10
 18.33560    104.0 1.003e+04 4.072e-10
 18.34671    104.2 1.020e+04 4.644e-10
 18.36815    104.3 1.039e+04 5.355e-10
 18.38072    104.3 1.060e+04 6.197e-10
 18.39144    104.7 1.060e+04 6.309e-10
 18.41104    104.7 1.088e+04 7.573e-10
 18.42584    104.6 1.122e+04 9.237e-10
 18.43656    104.9 1.130e+04 9.725e-10
 18.45394    104.7 1.173e+04 1.219e-09
 18.46997    104.3 1.221e+04 1.534e-09
 18.47627    103.9 1.232e+04 1.634e-09
 18.48169    104.2 1.249e+04 1.773e-09
 18.49683    103.6 1.297e+04 2.211e-09
 18.51609    103.0 1.341e+04 2.672e-09
 18.52681    103.2 1.355e+04 2.855e-09
 18.53972    102.6 1.388e+04 3.303e-09
 18.56117    101.9 1.413e+04 3.620e-09
 18.58261    101.4 1.412e+04 3.629e-09
 18.60406    101.0 1.406e+04 3.558e-09
 18.61706    100.6 1.389e+04 3.378e-09
 18.62778    100.9 1.362e+04 3.038e-09
 18.64695    100.5 1.344e+04 2.834e-09
 18.66218    100.2 1.325e+04 2.594e-09
 18.67290    100.3 1.308e+04 2.439e-09
 18.68984    100.0 1.298e+04 2.322e-09
 18.70730     99.7 1.289e+04 2.244e-09
 18.71802    100.0 1.292e+04 2.296e-09
 18.73273     99.9 1.294e+04 2.311e-09
 18.75242     99.7 1.299e+04 2.347e-09
 18.76315    100.1 1.310e+04 2.433e-09
 18.77563     99.8 1.324e+04 2.519e-09
 18.79707     99.3 1.341e+04 2.636e-09
 18.80827     98.6 1.358e+04 2.744e-09
 18.81899     98.8 1.359e+04 2.751e-09
 18.83996     98.1 1.367e+04 2.842e-09
 18.85339     97.3 1.372e+04 2.899e-09
 18.86412     97.7 1.351e+04 2.744e-09
 18.88286     97.1 1.346e+04 2.711e-09
 18.89852     96.4 1.343e+04 2.672e-09
 18.90924     97.0 1.309e+04 2.361e-09
 18.92575     96.3 1.310e+04 2.353e-09
 18.94364     95.5 1.311e+04 2.357e-09
 18.95436     96.2 1.282e+04 2.123e-09
 18.96864     95.4 1.296e+04 2.241e-09
 18.98876     94.3 1.312e+04 2.359e-09
 18.99948     95.3 1.307e+04 2.356e-09
 19.01153     94.2 1.334e+04 2.516e-09
 19.03298     92.6 1.340e+04 2.504e-09
 19.04461     90.7 1.335e+04 2.376e-09
 19.05533     91.9 1.372e+04 2.732e-09
 19.07587     89.6 1.360e+04 2.506e-09
 19.08973     86.9 1.316e+04 2.086e-09
 19.10045     88.0 1.384e+04 2.640e-09
 19.11876     85.2 1.317e+04 2.065e-09
 19.13485     82.4 1.225e+04 1.423e-09
 19.14558     83.4 1.293e+04 1.771e-09
 19.16166     80.7 1.170e+04 1.062e-09
 19.18007     77.6 1.013e+04 5.191e-10
 19.20162     79.3 1.035e+04 5.650e-10
 19.23691     76.0 8.792e+03 2.750e-10
 19.27042     74.3 8.738e+03 2.702e-10
 19.29186     75.1 8.919e+03 3.049e-10
 19.32270     75.2 8.985e+03 3.185e-10
 19.35477     75.2 9.013e+03 3.298e-10
 19.36800     74.6 9.157e+03 3.720e-10
 19.37380     74.0 9.282e+03 4.179e-10
 19.38191     73.9 9.515e+03 4.928e-10
 19.39756     72.8 1.009e+04 6.382e-10
 19.41631     71.1 1.116e+04 9.496e-10
 19.42704     70.2 1.216e+04 1.324e-09
 19.44045     68.2 1.361e+04 2.230e-09
 19.46143     66.5 1.508e+04 3.845e-09
 19.47216     65.3 1.621e+04 5.397e-09
 19.48335     63.4 1.776e+04 8.561e-09
 19.50479     60.7 1.932e+04 1.211e-08
 19.51723     57.9 2.015e+04 1.322e-08
 19.52254     56.1 2.078e+04 1.453e-08
 19.53150     53.8 2.167e+04 1.625e-08
 19.53974     50.8 2.274e+04 1.973e-08
 19.54511     48.0 2.347e+04 2.384e-08
 19.55295     44.9 2.393e+04 3.072e-08
 19.56231     42.1 2.405e+04 4.133e-08
 19.56767     39.3 2.423e+04 5.442e-08
 19.57439     36.5 2.459e+04 7.944e-08
 19.58487     32.8 2.518e+04 1.254e-07
 19.59023     29.0 2.518e+04 1.540e-07
 19.59584     23.7 2.465e+04 2.366e-07
 19.60149     21.1 2.419e+04 2.716e-07
 19.60414     19.6 2.429e+04 2.742e-07
 19.60919     18.8 2.397e+04 2.815e-07
 19.61274     15.8 2.393e+04 2.832e-07
 19.61813     13.3 2.319e+04 2.761e-07
 19.62801     10.7 2.287e+04 2.350e-07
 19.63535      9.4 2.269e+04 1.555e-07
 19.64071      8.6 2.267e+04 1.090e-07
 19.64945      7.7 2.295e+04 6.148e-08
 19.65791      5.8 2.334e+04 3.264e-08
 19.66327      4.1 2.315e+04 2.376e-08
 19.67631      2.1 2.176e+04 1.372e-08
 19.69777     -0.8 1.959e+04 7.414e-09
 19.71922     -4.7 1.650e+04 4.601e-09
 19.74070     -5.9 1.594e+04 4.178e-09
 19.75362     -6.3 1.602e+04 4.497e-09
 19.76434     -6.4 1.590e+04 4.540e-09
 19.78359     -6.7 1.655e+04 5.775e-09
 19.79874     -6.7 1.728e+04 7.806e-09
 19.80946     -6.6 1.673e+04 6.771e-09
 19.82648     -6.3 1.712e+04 7.871e-09
 19.84386     -6.2 1.713e+04 7.940e-09
 19.85459     -6.1 1.617e+04 5.890e-09
 19.86937     -5.9 1.586e+04 5.406e-09
 19.88899     -5.8 1.521e+04 4.356e-09
 19.89971     -5.7 1.434e+04 3.487e-09
 19.91227     -6.0 1.373e+04 2.742e-09
 19.93371     -6.6 1.310e+04 2.157e-09
 19.94483     -7.2 1.259e+04 1.782e-09
 19.95556     -6.4 1.255e+04 1.765e-09
 19.97660     -6.5 1.228e+04 1.626e-09
 19.98995     -6.4 1.219e+04 1.570e-09
 20.00068     -5.9 1.237e+04 1.739e-09
 20.01950     -5.8 1.242e+04 1.781e-09
 20.03508     -5.7 1.249e+04 1.821e-09
 20.04580     -5.5 1.279e+04 2.169e-09
 20.06239     -5.3 1.286e+04 2.243e-09
 20.08020     -4.9 1.285e+04 2.235e-09
 20.09092     -4.7 1.326e+04 2.741e-09
 20.10528     -4.2 1.322e+04 2.698e-09
 20.12532     -3.6 1.305e+04 2.496e-09
 20.13605     -3.1 1.339e+04 2.916e-09
 20.14817     -2.5 1.307e+04 2.469e-09
 20.16962     -1.9 1.270e+04 2.043e-09
 20.18117     -1.2 1.230e+04 1.706e-09
 20.19189     -0.9 1.233e+04 1.722e-09
 20.21251     -0.2 1.194e+04 1.463e-09
 20.22629      0.8 1.162e+04 1.252e-09
 20.23702      1.0 1.163e+04 1.261e-09
 20.25532      2.2 1.129e+04 1.057e-09
 20.27133      3.2 1.075e+04 7.748e-10
 20.28214      3.5 1.086e+04 8.365e-10
 20.29829      4.9 1.062e+04 6.909e-10
 20.31654      6.0 1.045e+04 5.856e-10
 20.32726      6.5 1.073e+04 7.031e-10
 20.34119      7.7 1.065e+04 6.208e-10
 20.36166      8.8 1.058e+04 5.616e-10
 20.37238      9.3 1.100e+04 7.400e-10
 20.38408     10.3 1.099e+04 7.099e-10
 20.40552     11.1 1.098e+04 6.923e-10
 20.41751     11.8 1.095e+04 6.835e-10
 20.42823     12.0 1.154e+04 9.902e-10
 20.44842     12.7 1.157e+04 1.021e-09
 20.46263     13.3 1.166e+04 1.077e-09
 20.47335     13.5 1.239e+04 1.578e-09
 20.49131     14.1 1.248e+04 1.659e-09
 20.50775     14.7 1.255e+04 1.749e-09
 20.51847     15.1 1.317e+04 2.323e-09
 20.53420     15.8 1.314e+04 2.285e-09
 20.55287     16.5 1.307e+04 2.176e-09
 20.56360     16.9 1.342e+04 2.458e-09
 20.57709     17.5 1.325e+04 2.137e-09
 20.59800     17.7 1.306e+04 1.803e-09
 20.60872     17.8 1.315e+04 1.813e-09
 20.61999     17.6 1.283e+04 1.466e-09
 20.64143     16.9 1.261e+04 1.298e-09
 20.65384     15.7 1.263e+04 1.309e-09
 20.66457     15.6 1.260e+04 1.303e-09
 20.68432     13.3 1.286e+04 1.444e-09
 20.69897     10.4 1.351e+04 1.999e-09
 20.70969     10.5 1.346e+04 1.995e-09
 20.72722      8.0 1.400e+04 2.843e-09
 20.74409      5.7 1.421e+04 3.139e-09
 20.75481      5.6 1.432e+04 3.223e-09
 20.77011      2.6 1.434e+04 3.125e-09
 20.78921     -1.0 1.421e+04 2.584e-09
 20.79993     -1.9 1.442e+04 2.816e-09
 20.81300     -7.0 1.387e+04 1.998e-09
 20.83433    -13.3 1.301e+04 1.534e-09
 20.84506    -14.0 1.314e+04 1.553e-09
 20.85589    -19.9 1.261e+04 1.490e-09
 20.87734    -24.5 1.262e+04 1.606e-09
 20.89018    -27.7 1.275e+04 1.801e-09
 20.90090    -29.4 1.283e+04 1.873e-09
 20.92023    -32.2 1.297e+04 1.999e-09
 20.93530    -33.9 1.279e+04 1.890e-09
 20.94603    -35.2 1.304e+04 2.121e-09
 20.96312    -36.6 1.268e+04 1.779e-09
 20.98052    -38.2 1.190e+04 1.080e-09
 21.00207    -39.4 1.232e+04 1.218e-09
 21.03838    -43.3 1.076e+04 5.942e-10
 21.07087    -46.0 9.985e+03 4.127e-10
 21.09231    -47.5 9.949e+03 4.013e-10
 21.12416    -47.3 9.579e+03 3.441e-10
 21.16111    -46.8 9.569e+03 3.128e-10
 21.18256    -48.0 9.537e+03 3.067e-10
 21.20995    -47.5 9.614e+03 2.903e-10
 21.25136    -47.4 9.725e+03 2.999e-10
 21.27280    -48.2 1.003e+04 3.520e-10
 21.29573    -47.5 1.022e+04 4.196e-10
 21.33862    -46.3 1.039e+04 4.876e-10
 21.36305    -45.3 1.046e+04 5.030e-10
 21.38450    -45.5 1.058e+04 5.469e-10
 21.42441    -44.9 1.061e+04 5.363e-10
 21.45330    -44.7 1.058e+04 5.166e-10
 21.47474    -45.0 1.074e+04 5.891e-10
 21.51019    -44.7 1.065e+04 5.681e-10
 21.54354    -44.3 1.044e+04 4.973e-10
 21.56499    -44.2 1.045e+04 5.225e-10
 21.59597    -43.6 1.017e+04 4.147e-10
 21.63379    -42.9 9.902e+03 3.296e-10
 21.65523    -42.4 9.886e+03 3.098e-10
 21.68176    -41.6 9.700e+03 2.397e-10
 21.72403    -40.6 9.568e+03 1.990e-10
 21.74548    -40.0 9.554e+03 1.779e-10
 21.76754    -38.7 9.447e+03 1.539e-10
 21.81044    -37.2 9.430e+03 1.445e-10
 21.83572    -35.7 9.455e+03 1.447e-10
 21.85717    -35.0 9.455e+03 1.197e-10
 21.89622    -33.4 9.519e+03 1.229e-10
 21.92597    -32.1 9.699e+03 1.374e-10
 21.94742    -31.6 9.718e+03 1.259e-10
 21.98200    -30.4 9.856e+03 1.651e-10
 22.01622    -29.0 1.011e+04 2.438e-10
 22.03766    -28.5 1.014e+04 2.505e-10
 22.05159    -27.1 1.083e+04 4.292e-10
 22.07304    -26.1 1.060e+04 3.030e-10
 22.09986    -26.2 1.093e+04 4.334e-10
 22.11699    -26.3 1.115e+04 6.000e-10
 22.12771    -26.0 1.105e+04 5.796e-10
 22.14265    -25.8 1.125e+04 7.642e-10
 22.16211    -25.9 1.166e+04 9.765e-10
 22.17283    -25.5 1.148e+04 8.728e-10
 22.18555    -26.9 1.257e+04 1.265e-09
 22.20699    -29.9 1.437e+04 2.684e-09
 22.21796    -31.6 1.535e+04 5.139e-09
 22.22868    -31.9 1.536e+04 4.889e-09
 22.24988    -32.0 1.554e+04 5.836e-09
 22.26308    -31.7 1.530e+04 5.197e-09
 22.27380    -32.0 1.530e+04 5.214e-09
 22.29278    -31.8 1.461e+04 3.208e-09
 22.30820    -32.6 1.383e+04 1.514e-09
 22.31893    -33.0 1.376e+04 1.509e-09
 22.33567    -34.7 1.276e+04 7.389e-10
 22.36793    -37.2 1.160e+04 2.712e-10
 22.39864    -38.8 1.019e+04 1.420e-10
 22.42009    -38.3 1.021e+04 1.464e-10
 22.45382    -37.6 9.845e+03 1.333e-10
 22.48889    -36.2 9.811e+03 1.341e-10
 22.51034    -35.6 9.663e+03 1.304e-10
 22.53960    -34.2 9.635e+03 1.328e-10
 22.57914    -33.1 9.606e+03 1.406e-10
 22.60058    -32.4 9.529e+03 1.266e-10
 22.62538    -31.5 9.530e+03 1.428e-10
 22.66828    -30.7 9.617e+03 1.648e-10
 22.69083    -31.0 9.879e+03 2.039e-10
 22.71227    -31.4 1.008e+04 2.360e-10
 22.75406    -33.1 1.092e+04 4.977e-10
 22.78107    -33.9 1.149e+04 9.182e-10
 22.80252    -34.2 1.173e+04 1.155e-09
 22.82610    -34.5 1.181e+04 1.236e-09
 22.83672    -34.7 1.184e+04 1.262e-09
 22.85037    -35.3 1.178e+04 1.234e-09
 22.87122    -34.9 1.145e+04 1.014e-09
 22.89276    -35.1 1.136e+04 8.836e-10
 22.92563    -35.7 1.074e+04 5.469e-10
 22.96156    -36.3 9.737e+03 3.665e-10
 22.98301    -36.4 9.292e+03 2.941e-10
 23.01141    -35.6 8.625e+03 2.338e-10
 23.05181    -33.9 8.441e+03 1.922e-10
 23.07326    -33.6 8.477e+03 1.739e-10
 23.09720    -32.7 8.663e+03 1.608e-10
 23.14009    -32.3 8.810e+03 1.656e-10
 23.16350    -31.9 8.882e+03 1.987e-10
 23.18495    -32.4 8.972e+03 2.529e-10
 23.22587    -31.6 8.824e+03 2.800e-10
 23.25375    -30.7 8.719e+03 2.751e-10
 23.27519    -31.3 8.717e+03 2.800e-10
 23.31166    -30.8 8.636e+03 2.541e-10
 23.34399    -30.6 8.675e+03 2.530e-10
 23.36544    -31.7 8.550e+03 2.302e-10
 23.39744    -31.7 8.650e+03 2.578e-10
 23.43424    -31.4 8.839e+03 3.213e-10
 23.45568    -32.2 8.623e+03 2.986e-10
 23.48323    -31.7 8.822e+03 3.490e-10
 23.52448    -31.3 9.038e+03 3.785e-10
 23.54593    -31.8 8.577e+03 2.766e-10
 23.56901    -31.5 8.545e+03 2.474e-10
 23.61190    -31.4 8.368e+03 2.043e-10
 23.63618    -31.6 8.169e+03 1.744e-10
 23.65762    -31.8 7.700e+03 1.197e-10
 23.69769    -31.7 7.728e+03 1.248e-10
 23.72642    -31.4 7.829e+03 1.449e-10
 23.74787    -31.3 7.642e+03 1.203e-10
 23.78347    -30.8 7.866e+03 1.569e-10
 23.81667    -30.1 8.095e+03 1.971e-10
 23.83797    -29.8 7.973e+03 1.754e-10
 23.86911    -28.7 8.157e+03 2.012e-10
 23.90691    -27.9 8.325e+03 2.148e-10
 23.92836    -27.7 8.365e+03 2.206e-10
 23.95504    -27.0 8.389e+03 2.164e-10
 23.99716    -26.3 8.368e+03 1.923e-10
 24.01860    -26.4 8.403e+03 1.995e-10
 24.04082    -25.8 8.314e+03 1.640e-10
 24.08371    -25.1 8.272e+03 1.508e-10
 24.10885    -24.4 8.285e+03 1.526e-10
 24.13030    -24.6 8.279e+03 1.535e-10
 24.16950    -23.8 8.347e+03 1.656e-10
 24.19909    -23.0 8.498e+03 1.938e-10
 24.22054    -23.2 8.337e+03 1.841e-10
 24.25528    -22.3 8.568e+03 2.201e-10
 24.28934    -21.6 8.896e+03 2.699e-10
 24.31079    -21.9 8.607e+03 2.142e-10
 24.34107    -21.5 8.944e+03 2.684e-10
 24.37959    -21.2 9.322e+03 3.412e-10
 24.40103    -21.5 9.030e+03 2.793e-10
 24.42685    -21.4 9.405e+03 3.497e-10
 24.46974    -21.2 9.676e+03 3.938e-10
 24.51263    -21.0 9.578e+03 3.425e-10
 24.55553    -21.0 9.706e+03 3.442e-10
 24.58152    -20.9 9.877e+03 3.546e-10
 24.60297    -20.7 9.924e+03 3.784e-10
 24.64131    -20.0 1.039e+04 4.689e-10
 24.67167    -20.2 1.087e+04 5.635e-10
 24.68230    -20.5 1.125e+04 7.006e-10
 24.69473    -21.5 1.200e+04 9.761e-10
 24.71618    -22.8 1.283e+04 1.629e-09
 24.72742    -28.9 1.629e+04 4.072e-09
 24.73530    -33.4 1.846e+04 5.615e-09
 24.74551    -35.9 2.098e+04 5.438e-09
 24.74993    -40.9 2.511e+04 9.253e-09
 24.75524    -48.2 2.901e+04 1.792e-08
 24.76433    -56.5 2.680e+04 1.119e-07
 24.77244    -60.3 2.288e+04 2.656e-07
 24.77781    -61.3 2.226e+04 2.953e-07
 24.78578    -63.3 2.183e+04 2.473e-07
 24.79501    -66.8 2.560e+04 9.580e-08
 24.80037    -67.4 2.807e+04 5.263e-08
 24.80722    -79.4 3.518e+04 9.622e-09
 24.81757   -102.1 2.141e+04 3.225e-09
 24.82293   -106.2 1.798e+04 2.074e-09
 24.82867   -110.3 1.602e+04 2.453e-09
 24.83939   -112.7 1.590e+04 3.028e-09
 24.84549   -114.0 1.617e+04 3.653e-09
 24.85085   -114.5 1.607e+04 3.264e-09
 24.86084   -116.6 1.653e+04 5.435e-09
 24.86805   -117.1 1.674e+04 5.789e-09
 24.87346   -117.5 1.664e+04 5.700e-09
 24.88774   -119.2 1.757e+04 7.620e-09
 24.90791   -122.2 1.781e+04 7.906e-09
 24.91863   -122.7 1.790e+04 8.026e-09
 24.93064   -126.7 1.680e+04 5.668e-09
 24.95208   -130.6 1.518e+04 3.889e-09
 24.96376   -132.7 1.443e+04 3.261e-09
 24.97448   -133.2 1.391e+04 2.688e-09
 24.99497   -133.9 1.354e+04 2.325e-09
 25.00888   -134.5 1.315e+04 1.948e-09
 25.01960   -134.7 1.275e+04 1.637e-09
 25.03787   -135.1 1.237e+04 1.364e-09
 25.05400   -135.3 1.196e+04 1.085e-09
 25.06473   -135.2 1.170e+04 9.836e-10
 25.08076   -135.1 1.135e+04 7.734e-10
 25.09913   -135.0 1.103e+04 5.808e-10
 25.10985   -134.6 1.085e+04 5.293e-10
 25.12365   -134.8 1.069e+04 4.155e-10
 25.14435   -135.2 1.058e+04 3.398e-10
 25.16589   -134.6 1.038e+04 3.326e-10
 25.19891   -134.3 9.991e+03 2.491e-10
 25.23469   -133.7 9.663e+03 1.887e-10
 25.25613   -132.6 9.525e+03 1.713e-10
 25.28469   -131.8 9.354e+03 1.318e-10
 25.32493   -131.1 9.260e+03 1.053e-10
 25.34638   -130.0 9.179e+03 9.691e-11
 25.37048   -129.2 9.153e+03 8.607e-11
 25.41337   -128.4 9.154e+03 8.328e-11
 25.43663   -127.6 9.191e+03 8.374e-11
 25.45807   -126.5 9.178e+03 8.398e-11
 25.49915   -125.7 9.258e+03 8.742e-11
 25.52687   -125.0 9.329e+03 8.987e-11
 25.54832   -124.0 9.316e+03 9.516e-11
 25.58494   -123.4 9.388e+03 9.795e-11
 25.61712   -122.8 9.452e+03 9.920e-11
 25.63303   -121.9 9.456e+03 1.123e-10
 25.64374   -122.1 9.626e+03 1.573e-10
 25.67072   -121.7 9.695e+03 1.664e-10
 25.70736   -121.1 9.726e+03 1.776e-10
 25.72881   -120.0 9.701e+03 1.935e-10
 25.75650   -119.1 9.700e+03 1.969e-10
 25.79761   -118.1 9.712e+03 1.877e-10
 25.81905   -116.8 9.687e+03 1.809e-10
 25.84229   -115.6 9.703e+03 1.715e-10
 25.88518   -114.8 9.836e+03 1.734e-10
 25.90930   -114.8 1.035e+04 2.267e-10
 25.93075   -113.1 1.022e+04 1.908e-10
 25.97096   -113.9 1.096e+04 3.658e-10
 25.99945   -114.5 1.171e+04 6.705e-10
 26.01007   -114.1 1.177e+04 6.365e-10
 26.02438   -115.7 1.259e+04 1.265e-09
 26.04447   -116.5 1.340e+04 2.196e-09
 26.05520   -116.3 1.353e+04 2.361e-09
 26.06728   -116.6 1.430e+04 3.461e-09
 26.08872   -117.0 1.466e+04 3.808e-09
 26.10032   -118.0 1.472e+04 3.190e-09
 26.11104   -117.1 1.515e+04 3.937e-09
 26.13161   -118.3 1.431e+04 1.827e-09
 26.14544   -121.0 1.253e+04 7.157e-10
 26.15617   -120.0 1.294e+04 7.829e-10
 26.17451   -122.5 1.153e+04 4.351e-10
 26.19056   -122.8 1.108e+04 3.579e-10
 26.20129   -122.5 1.108e+04 3.577e-10
 26.21740   -122.5 1.097e+04 3.087e-10
 26.23569   -122.2 1.086e+04 2.705e-10
 26.24641   -121.9 1.094e+04 2.800e-10
 26.27019   -121.9 1.078e+04 2.405e-10
 26.29173   -121.3 1.108e+04 2.888e-10
 26.31410   -120.6 1.096e+04 2.612e-10
 26.35699   -119.8 1.086e+04 2.475e-10
 26.38197   -119.1 1.080e+04 2.485e-10
 26.40342   -118.4 1.108e+04 3.317e-10
 26.44278   -117.7 1.099e+04 3.571e-10
 26.47222   -117.0 1.089e+04 3.928e-10
 26.49367   -116.3 1.123e+04 5.337e-10
 26.52856   -115.4 1.117e+04 5.433e-10
 26.56247   -114.2 1.082e+04 5.240e-10
 26.58391   -113.5 1.111e+04 6.846e-10
 26.61435   -112.0 1.069e+04 4.878e-10
 26.65271   -110.4 1.028e+04 3.021e-10
 26.67416   -109.7 1.041e+04 3.468e-10
 26.70013   -108.1 9.996e+03 2.020e-10
 26.74296   -106.7 9.724e+03 1.345e-10
 26.78585   -104.5 9.599e+03 1.185e-10
 26.82881   -102.9 9.537e+03 1.126e-10
 26.85465   -101.4 9.554e+03 1.140e-10
 26.87609   -100.7 9.616e+03 1.260e-10
 26.91459    -99.6 9.690e+03 1.559e-10
 26.94489    -98.5 9.765e+03 1.993e-10
 26.96634    -98.0 9.871e+03 2.326e-10
 27.00037    -96.9 9.954e+03 2.798e-10
 27.03514    -96.0 9.972e+03 2.985e-10
 27.05659    -95.7 1.007e+04 3.308e-10
 27.08616    -95.0 9.954e+03 3.158e-10
 27.12539    -94.1 9.781e+03 2.683e-10
 27.14683    -94.1 9.817e+03 2.755e-10
 27.17194    -93.5 9.726e+03 2.410e-10
 27.21483    -92.7 9.728e+03 2.356e-10
 27.23708    -91.8 9.881e+03 2.825e-10
 27.25852    -92.3 1.009e+04 3.512e-10
 27.30062    -91.5 1.034e+04 4.592e-10
 27.32732    -90.8 1.072e+04 6.397e-10
 27.34877    -92.0 1.089e+04 7.493e-10
 27.38640    -91.5 1.127e+04 1.010e-09
 27.41757    -90.9 1.162e+04 1.253e-09
 27.42809    -92.3 1.142e+04 1.187e-09
 27.43982    -93.6 1.109e+04 9.948e-10
 27.47219    -93.2 1.067e+04 7.614e-10
 27.50781    -92.9 1.016e+04 5.263e-10
 27.52926    -94.0 9.516e+03 3.390e-10
 27.55797    -93.8 9.054e+03 2.402e-10
 27.59806    -93.4 8.792e+03 2.010e-10
 27.61951    -94.0 8.545e+03 1.575e-10
 27.64375    -93.3 8.418e+03 1.407e-10
 27.68665    -92.9 8.381e+03 1.319e-10
 27.70975    -92.7 8.370e+03 1.331e-10
 27.73120    -93.2 8.361e+03 1.287e-10
 27.77243    -92.8 8.358e+03 1.511e-10
 27.80000    -92.1 8.382e+03 1.687e-10
 27.82144    -92.6 8.455e+03 1.738e-10
 27.85821    -92.0 8.507e+03 1.820e-10
 27.89024    -91.8 8.560e+03 1.877e-10
 27.91169    -92.5 8.649e+03 2.033e-10
 27.94400    -92.4 8.727e+03 2.286e-10
 27.98049    -92.0 8.839e+03 2.669e-10
 28.00193    -92.4 8.879e+03 2.724e-10
 28.02978    -91.7 8.970e+03 2.925e-10
 28.07073    -91.4 9.075e+03 3.078e-10
 28.09218    -91.8 9.149e+03 3.140e-10
 28.11557    -91.9 9.415e+03 3.768e-10
 28.15846    -92.0 9.727e+03 5.146e-10
 28.18233    -91.4 1.001e+04 6.860e-10
 28.19295    -91.5 1.014e+04 7.524e-10
 28.21188    -91.2 1.031e+04 8.590e-10
 28.22735    -90.7 1.052e+04 9.392e-10
 28.23808    -90.7 1.053e+04 9.596e-10
 28.25477    -90.4 1.058e+04 9.778e-10
 28.27248    -89.9 1.057e+04 9.394e-10
 28.28320    -89.5 1.052e+04 9.399e-10
 28.29766    -89.0 1.040e+04 8.403e-10
 28.31621    -88.5 1.015e+04 7.006e-10
 28.32543    -89.0 9.726e+03 4.885e-10
 28.32832    -88.5 9.551e+03 4.341e-10
 28.34056    -88.3 9.382e+03 3.675e-10
 28.36282    -88.0 9.451e+03 3.538e-10
 28.38436    -87.5 9.384e+03 3.337e-10
 28.41581    -87.3 9.267e+03 2.982e-10
 28.45316    -87.3 9.385e+03 3.395e-10
 28.47461    -86.5 9.466e+03 3.608e-10
 28.49078    -86.7 9.495e+03 4.053e-10
 28.50881    -86.6 9.568e+03 4.648e-10
 28.51954    -86.2 9.593e+03 4.876e-10
 28.53357    -85.4 9.797e+03 5.411e-10
 28.55394    -84.9 9.907e+03 5.529e-10
 28.56466    -84.6 9.911e+03 5.872e-10
 28.57646    -84.2 9.999e+03 5.759e-10
 28.59791    -84.0 1.005e+04 5.107e-10
 28.60978    -84.4 1.003e+04 4.676e-10
 28.62050    -84.0 1.004e+04 4.963e-10
 28.64080    -84.2 9.936e+03 4.783e-10
 28.65500    -84.6 9.718e+03 4.605e-10
 28.67655    -83.7 9.792e+03 4.902e-10
 28.71606    -83.1 9.565e+03 4.383e-10
 28.74535    -82.2 9.340e+03 3.376e-10
 28.76679    -81.3 9.330e+03 3.437e-10
 28.80184    -80.9 9.079e+03 2.423e-10
 28.83559    -80.5 8.854e+03 1.914e-10
 28.85704    -79.4 8.805e+03 1.774e-10
 28.88762    -78.6 8.686e+03 1.615e-10
 28.92584    -77.3 8.629e+03 1.565e-10
 28.94728    -76.2 8.529e+03 1.333e-10
 28.97341    -74.8 8.489e+03 1.283e-10
 29.01608    -73.3 8.467e+03 1.210e-10
 29.03753    -72.2 8.379e+03 1.050e-10
 29.05919    -70.5 8.362e+03 1.023e-10
 29.10208    -68.6 8.413e+03 9.345e-11
 29.12777    -67.0 8.704e+03 6.919e-11
 29.14922    -65.8 8.628e+03 6.813e-11
 29.18787    -64.7 8.633e+03 5.653e-11
 29.21445    -63.6 8.627e+03 5.299e-11
 29.22315    -63.3 8.834e+03 6.415e-11
 29.23947    -61.9 8.800e+03 6.088e-11
 29.27365    -61.3 8.838e+03 6.770e-11
 29.30827    -60.2 8.721e+03 9.712e-11
 29.32971    -58.9 8.751e+03 8.359e-11
 29.35944    -57.3 8.715e+03 1.207e-10
 29.39851    -55.6 8.900e+03 1.464e-10
 29.41996    -54.6 8.874e+03 1.358e-10
 29.44522    -53.3 9.105e+03 1.452e-10
 29.48811    -52.3 9.227e+03 1.523e-10
 29.51020    -51.7 9.388e+03 1.645e-10
 29.53165    -50.7 9.281e+03 1.585e-10
 29.57390    -50.2 9.305e+03 1.799e-10
 29.60045    -49.2 9.369e+03 2.492e-10
 29.62189    -48.1 9.118e+03 1.766e-10
 29.65968    -47.4 9.510e+03 2.241e-10
 29.69069    -46.8 1.001e+04 2.642e-10
 29.71214    -45.6 9.538e+03 1.852e-10
 29.74547    -45.3 9.980e+03 2.737e-10
 29.78094    -44.4 1.027e+04 4.278e-10
 29.80239    -43.1 9.873e+03 2.691e-10
 29.83125    -41.9 1.015e+04 3.839e-10
 29.86332    -40.9 1.039e+04 4.513e-10
 29.88171    -40.6 1.053e+04 5.026e-10
 29.89253    -39.8 1.029e+04 3.807e-10
 29.91703    -39.5 1.093e+04 5.785e-10
 29.95993    -39.3 1.128e+04 6.780e-10
 29.98288    -38.6 1.116e+04 5.158e-10
 30.00432    -37.0 1.107e+04 5.845e-10
 30.04571    -37.2 1.125e+04 3.904e-10
 30.07312    -38.7 1.154e+04 2.734e-10
 30.09457    -36.8 1.167e+04 3.712e-10
 30.13149    -39.6 1.202e+04 3.951e-10
 30.16337    -41.1 1.148e+04 7.201e-10
 30.18481    -39.5 1.158e+04 7.004e-10
 30.21728    -39.5 1.138e+04 8.559e-10
 30.25361    -39.2 1.123e+04 7.091e-10
 30.27506    -37.9 1.122e+04 7.088e-10
 30.30306    -38.1 1.093e+04 5.465e-10
 30.34386    -37.8 1.048e+04 4.105e-10
 30.36531    -36.3 1.053e+04 4.244e-10
 30.38885    -35.5 1.010e+04 3.009e-10
 30.43174    -34.7 9.860e+03 2.093e-10
 30.45555    -33.8 9.644e+03 1.526e-10
 30.47700    -32.5 9.682e+03 1.639e-10
 30.51752    -31.4 9.476e+03 1.269e-10
 30.54580    -30.1 9.302e+03 1.009e-10
 30.56724    -28.8 9.339e+03 1.036e-10
 30.60331    -27.4 9.199e+03 8.426e-11
 30.63604    -25.8 9.071e+03 6.909e-11
 30.65749    -24.6 9.087e+03 6.986e-11
 30.68909    -23.0 8.971e+03 5.811e-11
 30.72629    -21.3 8.901e+03 4.918e-11
 30.74773    -20.2 8.914e+03 4.925e-11
 30.77487    -18.6 8.875e+03 4.363e-11
 30.81653    -16.8 8.878e+03 4.321e-11
 30.83798    -15.8 8.912e+03 4.389e-11
 30.86066    -14.1 8.941e+03 4.619e-11
 30.90355    -12.4 8.963e+03 5.317e-11
 30.92822    -10.5 8.961e+03 6.501e-11
 30.94967     -9.4 8.969e+03 6.464e-11
 30.98908     -7.5 8.980e+03 7.972e-11
 31.01052     -7.6 8.961e+03 6.819e-11
 31.01847     -5.7 8.969e+03 8.480e-11
 31.03992     -4.5 8.945e+03 7.673e-11
 31.07512     -2.6 8.958e+03 9.309e-11
 31.10872     -0.6 9.018e+03 1.125e-10
 31.13016      0.5 8.937e+03 9.129e-11
 31.16090      2.4 9.003e+03 1.075e-10
 31.19896      4.2 9.103e+03 1.228e-10
 31.22041      5.2 8.966e+03 9.594e-11
 31.24669      6.9 9.043e+03 1.127e-10
 31.28921      8.7 9.123e+03 1.312e-10
 31.31065      9.8 8.986e+03 1.070e-10
 31.33247     11.5 9.076e+03 1.280e-10
 31.37536     13.2 9.200e+03 1.407e-10
 31.40090     14.8 9.316e+03 1.432e-10
 31.42235     16.1 9.156e+03 1.214e-10
 31.46115     17.6 9.214e+03 1.243e-10
 31.49114     19.0 9.274e+03 1.292e-10
 31.51259     20.2 9.177e+03 1.096e-10
 31.54693     21.4 9.255e+03 1.287e-10
 31.58139     22.3 9.400e+03 1.695e-10
 31.60284     23.3 9.354e+03 1.659e-10
 31.63272     24.1 9.587e+03 2.501e-10
 31.67164     24.9 9.899e+03 3.729e-10
 31.69308     25.9 9.837e+03 3.790e-10
 31.71850     26.6 1.012e+04 5.044e-10
 31.76139     26.7 1.043e+04 6.135e-10
 31.78333     26.5 1.086e+04 7.702e-10
 31.80477     27.0 1.062e+04 6.572e-10
 31.84718     26.4 1.131e+04 1.007e-09
 31.87357     25.8 1.179e+04 1.367e-09
 31.89502     26.2 1.161e+04 1.330e-09
 31.93296     25.5 1.161e+04 1.340e-09
 31.96382     25.7 1.124e+04 1.098e-09
 31.98526     26.7 1.116e+04 1.110e-09
 32.01874     27.1 1.062e+04 6.842e-10
 32.05406     26.7 9.959e+03 3.402e-10
 32.07551     27.2 1.038e+04 5.401e-10
 32.10453     25.8 1.032e+04 5.267e-10
 32.14431     24.7 1.044e+04 6.154e-10
 32.16576     25.3 1.132e+04 1.164e-09
 32.19031     24.0 1.137e+04 1.213e-09
 32.22238     22.3 1.162e+04 1.239e-09
 32.24373     21.6 1.159e+04 1.235e-09
 32.25581     20.4 1.163e+04 1.182e-09
 32.26653     19.8 1.178e+04 1.186e-09
 32.28662     18.6 1.154e+04 1.036e-09
 32.30093     16.2 1.159e+04 9.352e-10
 32.31165     14.7 1.160e+04 8.853e-10
 32.32952     13.3 1.136e+04 8.106e-10
 32.34605     11.1 1.141e+04 8.226e-10
 32.35678     10.0 1.149e+04 8.370e-10
 32.37241      7.7 1.145e+04 8.843e-10
 32.39117      5.6 1.129e+04 1.007e-09
 32.40190      5.2 1.120e+04 1.027e-09
 32.41530      5.0 1.097e+04 1.052e-09
 32.43630      5.1 1.087e+04 9.584e-10
 32.44702      5.0 1.061e+04 7.607e-10
 32.45819      4.5 1.039e+04 5.803e-10
 32.49046      3.7 1.014e+04 4.485e-10
 32.52674      3.2 9.646e+03 3.267e-10
 32.54818      2.6 9.341e+03 2.620e-10
 32.57634      3.1 9.315e+03 2.651e-10
 32.61698      4.1 9.295e+03 2.665e-10
 32.63843      4.6 9.177e+03 2.559e-10
 32.66213      5.9 9.110e+03 2.426e-10
 32.70502      7.2 9.145e+03 2.344e-10
 32.72868      8.5 9.266e+03 2.408e-10
 32.75012      8.9 9.228e+03 2.373e-10
 32.78515      9.9 9.609e+03 2.923e-10
 32.80660      8.7 1.003e+04 3.309e-10
 32.81892      9.4 1.041e+04 4.529e-10
 32.84037      9.6 1.060e+04 5.526e-10
 32.87659     10.7 1.099e+04 7.810e-10
 32.90917     11.9 1.106e+04 8.390e-10
 32.93061     12.1 1.110e+04 8.553e-10
 32.96237     13.1 1.093e+04 7.820e-10
 32.99941     13.9 1.062e+04 6.488e-10
 33.02086     14.0 1.040e+04 5.282e-10
 33.04815     14.8 1.015e+04 4.784e-10
 33.08966     15.7 1.018e+04 4.946e-10
 33.11110     16.0 1.009e+04 4.106e-10
 33.13394     16.7 1.043e+04 5.309e-10
 33.17683     17.3 1.102e+04 7.918e-10
 33.20135     17.6 1.153e+04 1.016e-09
 33.22280     17.4 1.185e+04 1.161e-09
 33.26261     17.2 1.199e+04 1.228e-09
 33.29160     16.9 1.189e+04 1.168e-09
 33.31304     16.7 1.209e+04 1.356e-09
 33.34840     16.8 1.164e+04 1.057e-09
 33.38184     17.1 1.112e+04 7.794e-10
 33.40329     17.5 1.082e+04 6.338e-10
 33.43418     18.4 1.016e+04 3.671e-10
 33.47209     19.5 9.683e+03 2.132e-10
 33.49353     19.7 9.392e+03 1.309e-10
 33.51997     20.9 9.167e+03 8.931e-11
 33.56233     22.3 8.975e+03 6.984e-11
 33.58378     22.6 8.888e+03 6.262e-11
 33.60575     24.5 8.755e+03 5.822e-11
 33.64864     26.5 8.697e+03 5.574e-11
 33.67402     28.6 8.697e+03 5.710e-11
 33.69547     29.3 8.752e+03 6.785e-11
 33.73443     31.4 8.754e+03 7.820e-11
 33.76427     33.7 8.826e+03 9.562e-11
 33.78572     34.3 9.118e+03 1.368e-10
 33.82021     36.8 9.576e+03 1.963e-10
 33.85228     37.2 9.854e+03 2.467e-10
 33.86504     37.2 1.020e+04 3.233e-10
 33.87577     36.5 1.049e+04 4.399e-10
 33.89508     36.1 1.100e+04 7.029e-10
 33.91017     35.7 1.169e+04 1.188e-09
 33.92089     35.6 1.206e+04 1.489e-09
 33.93797     35.3 1.304e+04 2.368e-09
 33.95529     34.7 1.422e+04 3.742e-09
 33.96601     34.4 1.406e+04 3.495e-09
 33.98086     33.2 1.475e+04 4.150e-09
 34.00041     31.3 1.481e+04 4.126e-09
 34.01113     30.3 1.419e+04 3.347e-09
 34.02375     28.7 1.390e+04 3.051e-09
 34.04520     27.3 1.320e+04 2.319e-09
 34.05626     26.3 1.232e+04 1.484e-09
 34.06698     26.3 1.225e+04 1.437e-09
 34.08809     25.6 1.165e+04 1.081e-09
 34.10138     25.4 1.089e+04 6.765e-10
 34.11210     25.7 1.085e+04 6.889e-10
 34.13098     25.5 1.059e+04 5.659e-10
 34.14660     25.6 1.008e+04 3.467e-10
 34.16814     26.6 1.026e+04 4.683e-10
 34.20624     27.3 9.860e+03 3.520e-10
 34.23694     28.5 9.572e+03 3.133e-10
 34.25839     29.6 9.912e+03 4.416e-10
 34.29202     31.0 9.803e+03 4.260e-10
 34.32719     32.5 9.799e+03 4.277e-10
 34.34864     33.3 1.011e+04 5.530e-10
 34.37781     34.0 1.020e+04 5.954e-10
 34.41744     34.0 1.046e+04 7.340e-10
 34.43888     34.4 1.083e+04 9.205e-10
 34.46359     34.5 1.119e+04 1.173e-09
 34.50648     34.5 1.153e+04 1.441e-09
 34.52903     34.2 1.152e+04 1.462e-09
 34.53965     33.9 1.144e+04 1.398e-09
 34.55990     33.7 1.149e+04 1.443e-09
 34.57405     33.5 1.144e+04 1.423e-09
 34.58446     33.3 1.127e+04 1.325e-09
 34.59176     33.0 1.102e+04 1.168e-09
 34.60280     32.8 1.081e+04 1.077e-09
 34.61918     32.7 1.057e+04 9.660e-10
 34.62990     32.5 1.038e+04 8.725e-10
 34.64569     32.4 1.013e+04 7.638e-10
 34.66430     32.3 9.892e+03 6.718e-10
 34.67502     31.9 9.732e+03 6.040e-10
 34.68858     31.9 9.529e+03 5.416e-10
 34.70942     32.0 9.341e+03 4.920e-10
 34.73097     31.3 9.054e+03 3.995e-10
 34.76384     31.9 8.878e+03 3.598e-10
 34.79591     32.2 8.753e+03 3.316e-10
 34.81039     32.4 8.814e+03 3.360e-10
 34.82111     31.2 8.787e+03 3.095e-10
 34.83870     29.7 9.359e+03 3.740e-10
 34.85551     25.5 1.102e+04 7.127e-10
 34.86624     23.0 1.138e+04 8.992e-10
 34.88159     19.5 1.276e+04 2.069e-09
 34.90064     17.8 1.397e+04 3.956e-09
 34.91136     17.2 1.400e+04 4.139e-09
 34.92449     15.6 1.515e+04 5.678e-09
 34.94576     13.0 1.603e+04 5.638e-09
 34.95648     11.3 1.529e+04 4.737e-09
 34.96738      7.1 1.484e+04 3.298e-09
 34.98882      1.7 1.302e+04 1.786e-09
 35.00161     -4.1 1.084e+04 9.724e-10
 35.01233     -5.3 1.034e+04 7.661e-10
 35.03172     -8.8 1.012e+04 6.677e-10
 35.04673    -11.4 1.009e+04 6.764e-10
 35.05745    -11.4 9.658e+03 5.656e-10
 35.07461    -12.7 9.540e+03 5.975e-10
 35.09185    -13.2 9.466e+03 5.919e-10
 35.10257    -12.9 9.224e+03 4.870e-10
 35.11750    -13.2 9.148e+03 4.627e-10
 35.13697    -14.5 9.205e+03 3.984e-10
 35.14770    -14.6 9.093e+03 3.569e-10
 35.16039    -15.2 8.970e+03 3.280e-10
 35.18184    -17.8 8.927e+03 2.968e-10
 35.19282    -18.4 8.745e+03 2.802e-10
 35.20364    -17.6 8.793e+03 2.819e-10
 35.23565    -20.2 8.742e+03 2.876e-10
 35.26772    -21.5 8.889e+03 3.194e-10
 35.28307    -22.9 9.055e+03 3.545e-10
 35.29379    -22.7 9.162e+03 3.936e-10
 35.31051    -24.4 9.491e+03 4.473e-10
 35.32819    -27.6 1.039e+04 6.399e-10
 35.33891    -26.0 9.976e+03 5.780e-10
 35.35341    -30.5 1.148e+04 9.353e-10
 35.37331    -33.6 1.211e+04 1.443e-09
 35.38403    -32.6 1.184e+04 1.191e-09
 35.39630    -34.4 1.112e+04 1.459e-09
 35.41774    -33.9 1.107e+04 1.692e-09
 35.42916    -33.6 1.127e+04 1.578e-09
 35.43988    -33.3 1.115e+04 1.501e-09
 35.46064    -33.2 1.100e+04 1.309e-09
 35.47438    -35.6 1.053e+04 7.653e-10
 35.49592    -34.5 1.061e+04 8.465e-10
 35.53589    -38.0 9.688e+03 5.704e-10
 35.56462    -39.6 9.734e+03 6.109e-10
 35.57525    -39.7 9.728e+03 6.145e-10
 35.58931    -40.2 9.715e+03 6.280e-10
 35.60965    -41.6 1.014e+04 7.885e-10
 35.62037    -41.5 9.954e+03 7.276e-10
 35.63220    -43.0 1.044e+04 8.584e-10
 35.65365    -44.7 1.114e+04 1.085e-09
 35.66549    -46.2 1.159e+04 1.303e-09
 35.67622    -46.0 1.103e+04 9.954e-10
 35.69654    -47.4 1.108e+04 1.056e-09
 35.71062    -48.3 1.081e+04 1.028e-09
 35.72134    -48.1 1.050e+04 8.592e-10
 35.73943    -48.7 1.015e+04 7.627e-10
 35.75574    -48.9 9.930e+03 6.182e-10
 35.76646    -48.6 9.829e+03 5.602e-10
 35.79315    -49.4 9.540e+03 4.032e-10
 35.83546    -50.4 9.127e+03 2.848e-10
 35.85690    -49.6 8.919e+03 2.501e-10
 35.87903    -49.9 8.636e+03 1.843e-10
 35.92192    -49.9 8.551e+03 1.596e-10
 35.94715    -49.5 8.500e+03 1.495e-10
 35.96860    -49.0 8.439e+03 1.462e-10
 36.00771    -48.2 8.393e+03 1.356e-10
 36.03740    -47.1 8.326e+03 1.149e-10
 36.05884    -46.4 8.323e+03 1.094e-10
 36.09349    -45.5 8.250e+03 8.635e-11
 36.12764    -44.7 8.202e+03 7.321e-11
 36.14909    -44.0 8.194e+03 7.243e-11
 36.17927    -43.0 8.189e+03 6.807e-11
 36.21789    -41.9 8.210e+03 6.736e-11
 36.23933    -41.0 8.239e+03 6.737e-11
 36.26506    -39.8 8.236e+03 6.895e-11
 36.30795    -38.5 8.160e+03 7.200e-11
 36.35084    -37.2 8.418e+03 7.842e-11
 36.37730    -36.5 8.584e+03 8.981e-11
 36.39875    -36.5 8.453e+03 7.924e-11
 36.41982    -36.1 8.952e+03 1.020e-10
 36.44127    -36.3 9.498e+03 2.727e-10
 36.47952    -35.5 9.662e+03 3.182e-10
 36.51007    -34.7 9.831e+03 3.687e-10
 36.53152    -34.0 9.976e+03 4.027e-10
 36.56530    -33.4 1.002e+04 4.104e-10
 36.60031    -32.4 1.001e+04 3.940e-10
 36.62176    -32.3 9.796e+03 2.524e-10
 36.65109    -31.0 9.781e+03 2.536e-10
 36.69056    -29.4 9.947e+03 2.528e-10
 36.71201    -29.0 9.703e+03 1.891e-10
 36.73687    -27.6 1.018e+04 2.207e-10
 36.77976    -26.9 1.083e+04 3.670e-10
 36.80225    -24.7 1.186e+04 8.552e-10
 36.81288    -24.6 1.115e+04 5.943e-10
 36.83318    -25.1 1.220e+04 8.285e-10
 36.84718    -28.5 1.604e+04 1.940e-09
 36.85790    -30.4 1.599e+04 2.089e-09
 36.87607    -32.1 1.727e+04 4.947e-09
 36.89211    -31.7 1.720e+04 7.136e-09
 36.89757    -31.8 1.775e+04 9.370e-09
 36.90293    -31.3 1.633e+04 6.991e-09
 36.91351    -31.7 1.657e+04 9.082e-09
 36.92013    -31.5 1.725e+04 1.074e-08
 36.92549    -31.5 1.616e+04 6.994e-09
 36.93495    -31.9 1.666e+04 7.312e-09
 36.94269    -31.8 1.711e+04 7.363e-09
 36.94805    -32.6 1.581e+04 4.843e-09
 36.96181    -33.8 1.540e+04 3.605e-09
 36.98255    -35.1 1.421e+04 2.223e-09
 36.99327    -37.0 1.245e+04 1.274e-09
 37.00475    -37.8 1.195e+04 9.970e-10
 37.02620    -38.1 1.164e+04 8.718e-10
 37.03839    -37.9 1.154e+04 8.399e-10
 37.04912    -38.0 1.147e+04 8.179e-10
 37.06909    -37.4 1.139e+04 7.816e-10
 37.08352    -37.2 1.135e+04 7.732e-10
 37.09434    -37.6 1.149e+04 8.296e-10
 37.11208    -36.6 1.137e+04 7.636e-10
 37.12864    -36.5 1.141e+04 7.721e-10
 37.13936    -36.9 1.169e+04 8.899e-10
 37.15487    -36.7 1.199e+04 1.006e-09
 37.17376    -36.7 1.216e+04 1.120e-09
 37.18449    -36.6 1.250e+04 1.290e-09
 37.19776    -36.5 1.266e+04 1.525e-09
 37.21889    -36.6 1.294e+04 1.736e-09
 37.22961    -36.6 1.318e+04 1.926e-09
 37.24066    -35.9 1.373e+04 2.369e-09
 37.26210    -35.4 1.394e+04 2.462e-09
 37.27473    -34.8 1.358e+04 2.289e-09
 37.27705    -35.2 1.385e+04 2.817e-09
 37.28587    -35.9 1.335e+04 2.207e-09
 37.30499    -35.2 1.339e+04 1.685e-09
 37.31985    -35.1 1.343e+04 1.148e-09
 37.33058    -34.6 1.354e+04 1.527e-09
 37.34789    -35.1 1.345e+04 1.017e-09
 37.36498    -36.5 1.270e+04 7.847e-10
 37.37570    -35.5 1.322e+04 9.057e-10
 37.39078    -36.8 1.270e+04 7.801e-10
 37.41010    -37.0 1.254e+04 8.553e-10
 37.42082    -36.5 1.273e+04 8.443e-10
 37.43367    -36.7 1.254e+04 1.072e-09
 37.45512    -36.3 1.281e+04 1.406e-09
 37.46595    -35.7 1.338e+04 1.793e-09
 37.47667    -35.9 1.345e+04 1.778e-09
 37.49801    -35.7 1.398e+04 2.360e-09
 37.51107    -36.0 1.492e+04 3.087e-09
 37.52179    -36.3 1.467e+04 3.023e-09
 37.54090    -36.7 1.620e+04 4.307e-09
 37.55619    -37.5 1.727e+04 6.496e-09
 37.56691    -37.6 1.782e+04 5.424e-09
 37.57838    -38.7 1.807e+04 8.601e-09
 37.58402    -39.6 1.812e+04 9.920e-09
 37.58938    -40.3 1.848e+04 9.548e-09
 37.59978    -40.7 1.846e+04 1.282e-08
 37.60658    -41.4 1.863e+04 1.539e-08
 37.61194    -42.3 1.814e+04 1.405e-08
 37.62123    -42.3 1.850e+04 1.833e-08
 37.62914    -42.2 1.916e+04 2.172e-08
 37.63450    -42.5 1.836e+04 1.811e-08
 37.64267    -42.4 1.881e+04 1.977e-08
 37.65170    -42.5 1.910e+04 2.007e-08
 37.65706    -42.4 1.844e+04 1.527e-08
 37.66412    -42.8 1.852e+04 1.484e-08
 37.67426    -43.5 1.850e+04 1.402e-08
 37.67962    -43.7 1.775e+04 9.689e-09
 37.68556    -44.7 1.744e+04 8.889e-09
 37.69629    -45.3 1.748e+04 8.744e-09
 37.70218    -46.0 1.804e+04 9.018e-09
 37.70755    -46.1 1.654e+04 6.176e-09
 37.71773    -46.5 1.721e+04 6.809e-09
 37.72407    -47.1 1.795e+04 8.066e-09
 37.72572    -47.0 1.814e+04 7.471e-09
 37.73011    -46.5 1.703e+04 5.727e-09
 37.73918    -47.3 1.797e+04 6.868e-09
 37.74736    -47.4 1.901e+04 1.017e-08
 37.75813    -46.4 1.749e+04 5.680e-09
 37.77681    -47.2 1.938e+04 1.036e-08
 37.79253    -47.8 1.988e+04 2.005e-08
 37.80325    -47.1 1.951e+04 9.532e-09
 37.81429    -47.9 2.041e+04 2.144e-08
 37.82035    -48.3 2.023e+04 3.961e-08
 37.82571    -48.2 2.051e+04 2.007e-08
 37.83569    -48.0 2.041e+04 4.195e-08
 37.84291    -48.1 2.004e+04 6.248e-08
 37.84828    -47.9 2.044e+04 2.510e-08
 37.85713    -47.7 2.037e+04 3.481e-08
 37.86548    -47.8 2.024e+04 3.942e-08
 37.87084    -48.2 2.061e+04 1.733e-08
 37.87858    -48.6 2.008e+04 2.096e-08
 37.88804    -48.8 1.988e+04 2.115e-08
 37.89345    -49.9 1.918e+04 9.091e-09
 37.90548    -49.9 1.846e+04 1.165e-08
 37.92693    -49.2 1.828e+04 1.274e-08
 37.93862    -48.4 1.776e+04 1.127e-08
 37.94934    -47.9 1.626e+04 5.366e-09
 37.96982    -47.1 1.638e+04 5.237e-09
 37.98374    -47.0 1.618e+04 4.627e-09
 37.99447    -46.1 1.444e+04 2.147e-09
 38.01271    -46.0 1.461e+04 2.140e-09
 38.02887    -45.8 1.457e+04 2.249e-09
 38.03959    -44.9 1.318e+04 1.143e-09
 38.05561    -44.6 1.335e+04 1.205e-09
 38.07399    -44.2 1.325e+04 1.293e-09
 38.08471    -43.4 1.257e+04 7.856e-10
 38.09850    -43.2 1.254e+04 8.730e-10
 38.11911    -42.9 1.241e+04 9.656e-10
 38.12983    -42.0 1.212e+04 7.211e-10
 38.14139    -41.7 1.204e+04 8.277e-10
 38.16246    -41.2 1.220e+04 9.191e-10
 38.17318    -41.9 1.207e+04 7.723e-10
 38.17496    -41.8 1.223e+04 7.970e-10
 38.18568    -40.6 1.207e+04 7.542e-10
 38.20573    -40.6 1.224e+04 8.035e-10
 38.22008    -40.8 1.222e+04 8.182e-10
 38.23080    -39.6 1.227e+04 8.057e-10
 38.24862    -40.0 1.228e+04 8.189e-10
 38.26520    -40.8 1.206e+04 7.985e-10
 38.27593    -39.9 1.199e+04 7.780e-10
 38.29151    -40.3 1.194e+04 7.633e-10
 38.31033    -40.7 1.207e+04 7.462e-10
 38.32105    -40.0 1.208e+04 7.245e-10
 38.33440    -41.0 1.218e+04 6.980e-10
 38.35545    -42.0 1.214e+04 6.986e-10
 38.36617    -41.7 1.224e+04 6.942e-10
 38.37730    -42.6 1.222e+04 7.824e-10
 38.39874    -43.1 1.231e+04 9.257e-10
 38.41129    -43.5 1.258e+04 1.110e-09
 38.42202    -43.4 1.275e+04 1.164e-09
 38.44163    -44.4 1.330e+04 1.451e-09
 38.45642    -46.0 1.381e+04 1.922e-09
 38.46714    -46.2 1.424e+04 2.188e-09
 38.48453    -47.4 1.429e+04 2.930e-09
 38.50154    -47.8 1.425e+04 3.582e-09
 38.51226    -47.6 1.441e+04 3.824e-09
 38.52742    -47.2 1.431e+04 4.012e-09
 38.54666    -46.6 1.412e+04 3.471e-09
 38.55739    -46.3 1.410e+04 3.170e-09
 38.57031    -46.7 1.377e+04 2.034e-09
 38.59176    -49.0 1.319e+04 1.405e-09
 38.62402    -49.8 1.232e+04 1.081e-09
 38.66701    -49.9 1.215e+04 1.130e-09
 38.69295    -49.5 1.240e+04 1.374e-09
 38.71439    -48.3 1.230e+04 1.375e-09
 38.75280    -47.6 1.253e+04 1.542e-09
 38.78319    -47.6 1.239e+04 1.287e-09
 38.80464    -45.7 1.243e+04 1.371e-09
 38.83858    -46.5 1.177e+04 7.995e-10
 38.87344    -48.0 1.114e+04 5.392e-10
 38.89489    -46.0 1.111e+04 5.200e-10
 38.92437    -46.6 1.076e+04 4.676e-10
 38.96369    -46.4 1.049e+04 4.468e-10
 38.98513    -44.7 1.048e+04 4.199e-10
 39.01015    -44.0 1.020e+04 3.526e-10
 39.05304    -43.2 9.892e+03 2.364e-10
 39.07538    -42.7 9.563e+03 1.639e-10
 39.09682    -40.9 9.629e+03 1.901e-10
 39.13883    -40.3 9.504e+03 1.782e-10
 39.16562    -39.3 9.398e+03 1.895e-10
 39.18707    -37.7 9.680e+03 2.158e-10
 39.22461    -37.0 9.846e+03 3.309e-10
 39.25587    -35.9 1.022e+04 4.862e-10
 39.27731    -34.8 1.062e+04 6.407e-10
 39.29957    -34.5 1.082e+04 7.947e-10
 39.31152    -34.3 1.090e+04 9.062e-10
 39.32224    -33.8 1.113e+04 1.019e-09
 39.34237    -33.1 1.124e+04 1.135e-09
 39.35664    -32.7 1.123e+04 1.143e-09
 39.36737    -31.9 1.153e+04 1.275e-09
 39.38526    -31.3 1.146e+04 1.241e-09
 39.40176    -30.9 1.113e+04 9.974e-10
 39.41249    -30.4 1.126e+04 1.062e-09
 39.42815    -30.0 1.096e+04 7.960e-10
 39.44689    -29.9 1.055e+04 5.387e-10
 39.45761    -29.4 1.073e+04 6.094e-10
 39.47104    -29.2 1.039e+04 4.176e-10
 39.49201    -28.9 1.014e+04 2.911e-10
 39.50273    -28.7 1.017e+04 3.218e-10
 39.52476    -29.4 9.517e+03 2.043e-10
 39.54805    -29.3 9.245e+03 1.654e-10
 39.56950    -28.5 9.700e+03 1.918e-10
 39.61064    -28.2 9.637e+03 2.104e-10
 39.63830    -27.8 9.844e+03 3.378e-10
 39.65974    -27.1 1.034e+04 5.201e-10
 39.69642    -25.5 1.049e+04 6.498e-10
 39.72854    -24.4 1.059e+04 6.730e-10
 39.74999    -23.2 1.106e+04 8.462e-10
 39.78221    -22.9 1.097e+04 7.777e-10
 39.81879    -23.0 1.090e+04 7.902e-10
 39.84023    -22.0 1.106e+04 8.272e-10
 39.86799    -21.6 1.118e+04 9.376e-10
 39.90903    -21.2 1.162e+04 1.287e-09
 39.93048    -19.6 1.120e+04 8.807e-10
 39.94801    -19.4 1.169e+04 1.250e-09
 39.96946    -18.8 1.168e+04 1.186e-09
 39.97551    -18.5 1.217e+04 1.425e-09
 39.98613    -17.8 1.187e+04 1.286e-09
 40.00719    -17.8 1.204e+04 1.278e-09
 40.02053    -18.4 1.259e+04 1.272e-09
 40.03125    -17.2 1.233e+04 1.049e-09
 40.05009    -19.0 1.286e+04 1.158e-09
 40.06565    -21.8 1.313e+04 1.411e-09
 40.07638    -20.2 1.345e+04 1.474e-09
 40.09298    -26.5 1.639e+04 2.239e-09
 40.11078    -34.0 2.056e+04 4.547e-09
 40.12150    -35.9 2.426e+04 6.558e-09
 40.13587    -42.5 2.252e+04 1.216e-08
 40.15590    -46.9 2.029e+04 1.329e-08
 40.16662    -49.0 2.124e+04 1.644e-08
 40.17876    -50.8 1.850e+04 1.171e-08
 40.20021    -51.4 1.669e+04 6.638e-09
 40.21174    -51.8 1.534e+04 3.641e-09
 40.22247    -54.0 1.554e+04 4.014e-09
 40.24310    -54.2 1.430e+04 2.510e-09
 40.25687    -54.2 1.337e+04 1.675e-09
 40.26759    -55.1 1.331e+04 2.372e-09
 40.28599    -54.2 1.294e+04 1.749e-09
 40.30199    -53.3 1.253e+04 1.235e-09
 40.31271    -53.1 1.284e+04 2.004e-09
 40.32888    -52.4 1.253e+04 1.407e-09
 40.34711    -51.5 1.210e+04 9.585e-10
 40.35784    -51.1 1.250e+04 1.649e-09
 40.37178    -50.4 1.211e+04 1.122e-09
 40.39224    -49.7 1.157e+04 7.592e-10
 40.40296    -49.0 1.201e+04 1.264e-09
 40.41467    -48.3 1.159e+04 8.485e-10
 40.43611    -47.7 1.096e+04 5.885e-10
 40.44808    -47.1 1.022e+04 4.371e-10
 40.45880    -46.0 1.098e+04 6.606e-10
 40.47901    -45.5 1.034e+04 4.856e-10
 40.49320    -45.1 9.891e+03 4.095e-10
 40.50393    -44.2 1.070e+04 5.605e-10
 40.52190    -43.9 1.039e+04 5.001e-10
 40.55417    -43.5 1.030e+04 4.816e-10
 40.58365    -42.5 1.011e+04 4.820e-10
 40.59427    -41.4 1.050e+04 5.674e-10
 40.60768    -41.1 1.033e+04 5.462e-10
 40.62857    -40.6 1.027e+04 5.699e-10
 40.63930    -40.6 1.090e+04 7.040e-10
 40.65057    -40.3 1.085e+04 7.029e-10
 40.67202    -39.9 1.083e+04 7.237e-10
 40.68442    -39.5 1.080e+04 7.417e-10
 40.69514    -39.5 1.146e+04 8.610e-10
 40.71491    -39.1 1.129e+04 8.313e-10
 40.72954    -38.7 1.114e+04 8.198e-10
 40.74026    -39.0 1.175e+04 1.020e-09
 40.75781    -38.7 1.165e+04 1.006e-09
 40.77466    -38.3 1.159e+04 1.017e-09
 40.78539    -38.8 1.216e+04 1.370e-09
 40.80070    -38.3 1.207e+04 1.399e-09
 40.81979    -37.8 1.196e+04 1.430e-09
 40.83051    -38.0 1.275e+04 2.033e-09
 40.84359    -37.1 1.247e+04 1.878e-09
 40.85658    -36.5 1.213e+04 1.680e-09
 40.86717    -36.8 1.213e+04 1.668e-09
 40.87563    -37.2 1.306e+04 2.519e-09
 40.88648    -36.6 1.252e+04 2.062e-09
 40.90793    -36.1 1.215e+04 1.831e-09
 40.94019    -35.3 1.194e+04 1.721e-09
 40.96607    -33.8 1.148e+04 1.521e-09
 40.98752    -33.6 1.122e+04 1.205e-09
 41.01110    -31.8 1.073e+04 9.494e-10
 41.02172    -31.8 1.058e+04 8.604e-10
 41.03660    -30.5 1.025e+04 7.008e-10
 41.05612    -28.9 9.935e+03 5.144e-10
 41.06685    -29.2 9.920e+03 4.205e-10
 41.07950    -28.6 9.719e+03 3.262e-10
 41.11176    -27.8 9.527e+03 2.647e-10
 41.14657    -25.5 8.974e+03 1.762e-10
 41.16801    -25.9 9.035e+03 2.275e-10
 41.19764    -23.4 8.730e+03 1.822e-10
 41.23681    -21.0 8.639e+03 1.651e-10
 41.25826    -20.7 8.855e+03 2.655e-10
 41.28343    -18.0 8.832e+03 2.641e-10
 41.32632    -15.4 8.862e+03 2.735e-10
 41.34850    -12.8 8.933e+03 2.959e-10
 41.36995    -12.6 9.267e+03 3.346e-10
 41.41210    -10.1 9.300e+03 3.594e-10
 41.43875     -7.5 9.255e+03 3.631e-10
 41.46019     -7.4 9.188e+03 3.353e-10
 41.49789     -4.8 9.116e+03 3.131e-10
 41.52899     -2.7 9.067e+03 2.985e-10
 41.55044     -2.7 9.088e+03 2.010e-10
 41.58367     -0.7 9.046e+03 2.035e-10
 41.61924      1.6 9.017e+03 2.253e-10
 41.64069      1.4 9.138e+03 1.959e-10
 41.66946      3.6 9.032e+03 2.083e-10
 41.70949      6.0 8.919e+03 2.122e-10
 41.73093      6.1 9.103e+03 2.195e-10
 41.74409      8.4 9.165e+03 2.130e-10
 41.76553      8.4 9.221e+03 2.117e-10
 41.79813     10.5 9.394e+03 2.009e-10
 41.82118     12.3 9.622e+03 1.979e-10
 41.84262     11.8 9.263e+03 3.234e-10
 41.88392     14.3 9.326e+03 3.627e-10
 41.91142     16.8 9.505e+03 3.794e-10
 41.93287     17.3 9.462e+03 2.697e-10
 41.96970     19.4 9.570e+03 2.510e-10
 42.00167     21.4 9.567e+03 2.383e-10
 42.02311     20.5 9.430e+03 1.749e-10
 42.05549     22.4 9.521e+03 1.891e-10
 42.09191     24.2 9.707e+03 2.129e-10
 42.11336     23.8 9.479e+03 2.550e-10
 42.14127     25.7 9.871e+03 3.431e-10
 42.17334     26.4 1.026e+04 4.686e-10
 42.19269     26.9 1.069e+04 6.524e-10
 42.20341     26.8 1.055e+04 6.129e-10
 42.21613     27.3 1.108e+04 8.378e-10
 42.23758     27.8 1.151e+04 1.150e-09
 42.24853     28.5 1.187e+04 1.562e-09
 42.25926     28.9 1.111e+04 1.129e-09
 42.28047     29.8 1.150e+04 1.376e-09
 42.29366     30.6 1.188e+04 1.576e-09
 42.30438     29.9 1.157e+04 8.398e-10
 42.32337     30.3 1.180e+04 8.982e-10
 42.33878     30.5 1.185e+04 9.371e-10
 42.34950     29.3 1.085e+04 5.671e-10
 42.36626     29.5 1.089e+04 5.968e-10
 42.38390     29.9 1.098e+04 6.417e-10
 42.39462     28.9 1.038e+04 4.280e-10
 42.40915     29.3 1.054e+04 4.803e-10
 42.42902     29.8 1.070e+04 5.553e-10
 42.43975     28.7 1.012e+04 4.732e-10
 42.45204     29.3 1.029e+04 5.457e-10
 42.47349     28.9 1.076e+04 6.768e-10
 42.48487     27.6 1.193e+04 1.063e-09
 42.49559     27.8 1.135e+04 9.817e-10
 42.51638     26.3 1.249e+04 1.630e-09
 42.52999     25.0 1.387e+04 3.170e-09
 42.54072     26.0 1.288e+04 2.331e-09
 42.55927     25.1 1.396e+04 3.668e-09
 42.57512     24.5 1.451e+04 4.625e-09
 42.58584     24.8 1.406e+04 3.869e-09
 42.60216     24.0 1.395e+04 3.980e-09
 42.62024     23.9 1.362e+04 3.690e-09
 42.63096     24.1 1.332e+04 3.457e-09
 42.64193     24.3 1.286e+04 3.033e-09
 42.65265     24.1 1.206e+04 2.193e-09
 42.66536     24.0 1.196e+04 1.693e-09
 42.67608     24.8 1.186e+04 1.926e-09
 42.68795     24.4 1.199e+04 1.529e-09
 42.70939     23.1 1.224e+04 1.204e-09
 42.72121     21.1 1.196e+04 1.075e-09
 42.73193     23.0 1.218e+04 1.244e-09
 42.75229     21.7 1.167e+04 1.173e-09
 42.76633     20.5 1.155e+04 1.257e-09
 42.77705     23.4 1.173e+04 1.120e-09
 42.79518     23.3 1.137e+04 1.090e-09
 42.82744     23.1 1.130e+04 1.104e-09
 42.85677     22.5 1.122e+04 1.267e-09
 42.87822     25.1 1.089e+04 7.521e-10
 42.91333     24.8 1.067e+04 9.140e-10
 42.94702     25.5 1.056e+04 1.009e-09
 42.96846     27.0 1.037e+04 7.943e-10
 42.99911     28.4 1.035e+04 8.802e-10
 43.03118     30.4 1.004e+04 7.510e-10
 43.04779     31.5 9.942e+03 6.045e-10
 43.05851     32.3 9.932e+03 6.353e-10
 43.07398     32.4 9.896e+03 5.040e-10
 43.09291     32.0 9.632e+03 3.919e-10
 43.10364     33.3 9.779e+03 4.146e-10
 43.11687     32.7 9.350e+03 3.556e-10
 43.13804     32.4 9.085e+03 3.457e-10
 43.14876     33.6 9.233e+03 3.483e-10
 43.15976     33.6 9.173e+03 3.607e-10
 43.18121     33.9 9.171e+03 4.010e-10
 43.19388     34.6 9.301e+03 4.715e-10
 43.20460     34.9 9.440e+03 4.914e-10
 43.22410     35.4 9.714e+03 6.009e-10
 43.23910     35.8 9.741e+03 6.131e-10
 43.26065     36.3 1.040e+04 8.560e-10
 43.29935     36.4 1.042e+04 8.713e-10
 43.32944     35.3 1.059e+04 9.096e-10
 43.35089     36.3 1.103e+04 1.160e-09
 43.38514     34.6 1.116e+04 1.078e-09
 43.41969     32.3 1.133e+04 1.058e-09
 43.44114     33.3 1.102e+04 8.823e-10
 43.47092     30.9 1.109e+04 9.199e-10
 43.50994     29.1 1.109e+04 9.555e-10
 43.53138     30.5 1.092e+04 8.333e-10
 43.54016     30.0 1.072e+04 7.593e-10
 43.56161     30.0 1.051e+04 6.817e-10
 43.58878     30.6 1.010e+04 4.634e-10
 43.61013     30.2 1.004e+04 4.173e-10
 43.62153     30.0 9.620e+03 2.754e-10
 43.64307     31.0 9.647e+03 2.664e-10
 43.68538     30.5 9.223e+03 2.106e-10
 43.71187     30.6 8.994e+03 2.056e-10
 43.73332     31.8 9.007e+03 1.965e-10
 43.77117     32.2 8.965e+03 2.021e-10
 43.80212     32.2 9.011e+03 2.211e-10
 43.82357     33.2 9.102e+03 2.294e-10
 43.85695     33.2 9.121e+03 2.691e-10
 43.89236     33.5 9.013e+03 2.558e-10
 43.91381     34.7 9.058e+03 2.571e-10
 43.94274     34.6 8.860e+03 2.075e-10
 43.98261     33.7 8.860e+03 1.856e-10
 44.00406     34.5 8.909e+03 1.846e-10
 44.02852     32.1 9.107e+03 2.307e-10
 44.07141     31.3 9.209e+03 3.302e-10
 44.09430     31.3 9.163e+03 3.220e-10
 44.11575     32.2 9.192e+03 3.152e-10
 44.15720     31.3 9.174e+03 2.672e-10
 44.18455     29.8 9.096e+03 2.645e-10
 44.20599     30.3 9.121e+03 2.494e-10
 44.24298     29.7 9.117e+03 2.886e-10
 44.27479     30.0 9.157e+03 3.469e-10
 44.29624     30.5 9.173e+03 3.462e-10
 44.32876     30.6 9.426e+03 4.039e-10
 44.36084     30.8 9.743e+03 5.103e-10
 44.37557     30.9 9.876e+03 5.751e-10
 44.38629     31.2 9.974e+03 6.090e-10
 44.40363     31.5 1.018e+04 6.703e-10
 44.42069     31.6 1.043e+04 7.298e-10
 44.43141     31.9 1.046e+04 7.300e-10
 44.43800     32.0 1.057e+04 7.635e-10
 44.44873     31.3 1.030e+04 6.802e-10
 44.46581     31.6 1.032e+04 7.258e-10
 44.47654     31.8 1.033e+04 7.101e-10
 44.48941     32.5 1.023e+04 6.949e-10
 44.51086     33.2 1.018e+04 6.704e-10
 44.53231     34.8 9.955e+03 5.720e-10
 44.55375     35.5 1.001e+04 5.238e-10
 44.56678     36.4 9.986e+03 4.731e-10
 44.57750     36.9 9.909e+03 4.225e-10
 44.59664     37.7 9.955e+03 3.913e-10
 44.61190     38.7 1.010e+04 4.003e-10
 44.62263     39.2 1.002e+04 3.676e-10
 44.63954     39.5 1.027e+04 3.890e-10
 44.65703     38.1 1.190e+04 4.550e-10
 44.66775     37.9 1.234e+04 4.708e-10
 44.68243     34.7 1.495e+04 9.935e-10
 44.70215     33.1 1.552e+04 2.547e-09
 44.71287     32.8 1.615e+04 3.411e-09
 44.72532     33.9 1.652e+04 7.360e-09
 44.74136     33.8 1.723e+04 9.946e-09
 44.75203     33.8 1.746e+04 1.283e-08
 44.75790     33.8 1.770e+04 1.559e-08
 44.76326     33.8 1.799e+04 1.759e-08
 44.77348     32.8 1.882e+04 2.311e-08
 44.78046     31.3 2.022e+04 2.787e-08
 44.78582     31.0 2.059e+04 3.011e-08
 44.79492     30.0 2.189e+04 3.033e-08
 44.80302     28.9 2.220e+04 2.635e-08
 44.80838     28.4 2.220e+04 2.609e-08
 44.81637     25.9 2.140e+04 1.789e-08
 44.82558     21.5 1.885e+04 1.030e-08
 44.83094     20.8 1.848e+04 9.902e-09
 44.83781     17.9 1.627e+04 7.118e-09
 44.84819     17.1 1.528e+04 4.054e-09
 44.85896     17.2 1.603e+04 3.895e-09
 44.87544     12.9 1.394e+04 1.668e-09
 44.89336      9.6 1.197e+04 9.582e-10
 44.90409      8.2 1.186e+04 9.366e-10
 44.91833      7.4 1.122e+04 7.420e-10
 44.93849      7.8 1.082e+04 6.641e-10
 44.94921      7.0 1.107e+04 7.720e-10
 44.96123      8.0 1.108e+04 7.888e-10
 44.98267      8.9 1.122e+04 8.508e-10
 44.99433      9.6 1.144e+04 9.265e-10
 45.00506      8.1 1.245e+04 1.375e-09
 45.02556      8.8 1.276e+04 1.585e-09
 45.03946      9.4 1.299e+04 1.844e-09
 45.05018      8.4 1.370e+04 2.696e-09
 45.06846      9.4 1.375e+04 2.885e-09
 45.08458     10.4 1.392e+04 3.197e-09
 45.09530      9.7 1.453e+04 3.745e-09
 45.11135     10.8 1.459e+04 3.824e-09
 45.12970     12.0 1.471e+04 4.024e-09
 45.14042     10.9 1.489e+04 3.941e-09
 45.15424     11.5 1.482e+04 3.991e-09
 45.17482     12.4 1.482e+04 3.998e-09
 45.18555     11.2 1.471e+04 3.682e-09
 45.19713     12.0 1.494e+04 4.053e-09
 45.21858     12.7 1.531e+04 4.593e-09
 45.23067     13.1 1.578e+04 5.322e-09
 45.24139     11.2 1.609e+04 5.793e-09
 45.26147     12.0 1.681e+04 7.098e-09
 45.27579     12.8 1.766e+04 8.732e-09
 45.28652     11.3 1.744e+04 7.869e-09
 45.30436     11.8 1.834e+04 9.732e-09
 45.32091     12.2 1.933e+04 1.208e-08
 45.33115      9.8 1.863e+04 7.875e-09
 45.33599      8.7 2.023e+04 1.910e-08
 45.34180      9.0 2.034e+04 2.176e-08
 45.34874      9.5 2.045e+04 2.323e-08
 45.35410      8.8 2.008e+04 1.679e-08
 45.36324      9.5 2.012e+04 1.615e-08
 45.37130     10.2 2.023e+04 1.595e-08
 45.37671      7.9 2.000e+04 8.255e-09
 45.39015      8.4 1.989e+04 5.713e-09
 45.41116      7.9 1.976e+04 3.631e-09
 45.42188      3.4 1.409e+04 1.438e-09
 45.43304      4.1 1.343e+04 1.149e-09
 45.45449      3.7 1.323e+04 1.009e-09
 45.46701      3.2 1.348e+04 9.069e-10
 45.47773      0.4 1.034e+04 6.800e-10
 45.49738      0.0 1.014e+04 6.667e-10
 45.51213      0.1 1.128e+04 7.175e-10
 45.53367      0.0 1.170e+04 8.308e-10
 45.55735      1.8 1.125e+04 8.179e-10
 45.56798      1.8 1.144e+04 8.374e-10
 45.58316      2.9 1.117e+04 8.684e-10
 45.60237      4.8 1.038e+04 9.315e-10
 45.61310      3.8 1.053e+04 1.112e-09
 45.62605     -1.9 1.931e+04 1.575e-09
 45.64750    -11.2 2.666e+04 4.869e-09
 45.66353    -13.3 2.506e+04 1.178e-08
 45.67421    -13.4 2.414e+04 3.106e-08
 45.68068    -12.8 2.192e+04 8.467e-08
 45.68605    -12.1 2.315e+04 5.567e-08
 45.69566    -12.0 2.332e+04 8.950e-08
 45.70325    -12.3 2.358e+04 1.190e-07
 45.70861    -13.5 2.463e+04 7.694e-08
 45.71710    -15.7 2.527e+04 8.011e-08
 45.72581    -18.8 2.559e+04 7.003e-08
 45.73117    -19.2 2.532e+04 5.064e-08
 45.73855    -22.0 2.528e+04 4.518e-08
 45.74837    -25.1 2.483e+04 3.676e-08
 45.75373    -24.9 2.481e+04 2.983e-08
 45.75999    -27.8 2.364e+04 2.181e-08
 45.77072    -31.7 2.047e+04 1.361e-08
 45.77629    -32.2 1.947e+04 1.171e-08
 45.77982    -31.9 1.956e+04 1.171e-08
 45.78496    -32.7 1.821e+04 9.364e-09
 45.79354    -35.2 1.639e+04 6.644e-09
 45.80431    -34.8 1.691e+04 7.934e-09
 45.81907    -36.8 1.627e+04 5.658e-09
 45.83871    -39.6 1.570e+04 3.816e-09
 45.84943    -37.8 1.619e+04 5.526e-09
 45.86196    -40.2 1.511e+04 3.549e-09
 45.88341    -43.0 1.393e+04 2.746e-09
 45.89456    -45.1 1.343e+04 2.602e-09
 45.90528    -42.7 1.366e+04 2.772e-09
 45.92630    -43.7 1.330e+04 2.635e-09
 45.93968    -44.3 1.324e+04 2.598e-09
 45.95040    -42.5 1.333e+04 2.517e-09
 45.96919    -43.0 1.290e+04 2.211e-09
 45.98480    -43.6 1.238e+04 1.896e-09
 45.99553    -42.0 1.239e+04 1.802e-09
 46.01208    -42.4 1.181e+04 1.500e-09
 46.02993    -42.1 1.137e+04 1.310e-09
 46.04065    -40.6 1.138e+04 1.259e-09
 46.05497    -40.2 1.106e+04 1.146e-09
 46.07505    -39.5 1.083e+04 1.062e-09
 46.08577    -37.9 1.084e+04 1.024e-09
 46.09787    -37.3 1.069e+04 9.677e-10
 46.11931    -36.7 1.056e+04 9.066e-10
 46.13089    -36.1 1.046e+04 8.600e-10
 46.14162    -34.7 1.048e+04 8.767e-10
 46.16220    -34.1 1.051e+04 8.969e-10
 46.17602    -33.5 1.066e+04 9.383e-10
 46.18674    -32.2 1.066e+04 9.820e-10
 46.20510    -31.6 1.088e+04 1.079e-09
 46.22114    -31.0 1.117e+04 1.176e-09
 46.22868    -29.6 1.120e+04 1.278e-09
 46.23408    -29.7 1.158e+04 1.511e-09
 46.24799    -29.1 1.208e+04 1.843e-09
 46.26626    -28.4 1.249e+04 2.056e-09
 46.27699    -27.0 1.242e+04 2.150e-09
 46.29088    -26.0 1.270e+04 2.303e-09
 46.31139    -25.2 1.274e+04 2.165e-09
 46.32211    -24.2 1.284e+04 2.310e-09
 46.34459    -24.0 1.219e+04 1.476e-09
 46.36743    -22.9 1.073e+04 7.666e-10
 46.38887    -20.1 1.153e+04 1.075e-09
 46.43047    -19.0 1.018e+04 6.030e-10
 46.45767    -17.4 9.433e+03 4.428e-10
 46.47912    -15.5 9.823e+03 4.800e-10
 46.51626    -13.6 9.316e+03 4.000e-10
 46.54792    -11.1 9.189e+03 3.788e-10
 46.56936     -9.6 9.252e+03 3.606e-10
 46.60204     -6.9 9.194e+03 3.409e-10
 46.63816     -4.0 9.254e+03 3.305e-10
 46.65961     -2.7 9.223e+03 3.172e-10
 46.68783     -0.2 9.292e+03 3.064e-10
 46.72841      1.7 9.565e+03 3.713e-10
 46.74986      3.3 9.528e+03 3.730e-10
 46.77361      5.4 1.000e+04 5.534e-10
 46.81650      7.5 1.071e+04 8.940e-10
 46.84010      9.6 1.150e+04 1.396e-09
 46.86155     11.6 1.150e+04 1.423e-09
 46.90229     13.5 1.214e+04 1.877e-09
 46.93035     14.9 1.242e+04 2.084e-09
 46.95179     16.8 1.249e+04 2.136e-09
 46.97537     17.1 1.257e+04 2.223e-09
 46.98600     18.1 1.275e+04 2.403e-09
 46.99860     18.3 1.270e+04 2.339e-09
 47.02005     18.5 1.257e+04 2.106e-09
 47.03112     18.7 1.234e+04 1.913e-09
 47.04184     19.5 1.286e+04 2.332e-09
 47.06294     19.2 1.261e+04 2.001e-09
 47.07624     19.0 1.227e+04 1.809e-09
 47.08697     19.8 1.309e+04 2.457e-09
 47.10583     19.3 1.264e+04 2.108e-09
 47.12137     19.0 1.212e+04 1.833e-09
 47.13209     19.9 1.323e+04 2.643e-09
 47.14872     19.1 1.232e+04 1.961e-09
 47.16649     18.4 1.142e+04 1.481e-09
 47.17721     19.2 1.212e+04 1.787e-09
 47.20099     17.8 1.085e+04 1.120e-09
 47.22243     18.2 1.090e+04 1.132e-09
 47.24533     17.0 9.955e+03 7.141e-10
 47.28832     18.1 9.010e+03 4.364e-10
 47.31278     19.5 8.457e+03 3.030e-10
 47.33422     20.4 8.699e+03 3.390e-10
 47.37410     22.2 8.374e+03 2.617e-10
 47.40302     24.1 8.013e+03 1.950e-10
 47.42447     25.1 8.281e+03 2.285e-10
 47.45988     26.6 7.975e+03 1.843e-10
 47.49327     28.1 7.893e+03 1.773e-10
 47.51471     29.2 8.137e+03 2.128e-10
 47.54567     30.7 8.154e+03 2.272e-10
 47.58351     32.2 8.302e+03 2.551e-10
 47.60496     33.4 8.507e+03 2.787e-10
 47.63145     34.8 8.589e+03 2.860e-10
 47.67376     36.3 8.668e+03 3.041e-10
 47.69520     36.9 8.871e+03 3.242e-10
 47.71724     38.4 8.900e+03 3.519e-10
 47.76013     39.8 9.243e+03 4.078e-10
 47.78535     40.8 9.340e+03 4.646e-10
 47.79598     40.8 9.414e+03 4.957e-10
 47.81355     41.5 9.399e+03 5.106e-10
 47.83038     42.7 9.472e+03 4.964e-10
 47.84110     42.9 9.525e+03 4.975e-10
 47.85644     43.3 9.633e+03 4.903e-10
 47.87550     43.8 9.678e+03 4.711e-10
 47.88622     43.9 9.622e+03 4.425e-10
 47.89933     44.0 9.570e+03 4.280e-10
 47.93160     44.8 9.309e+03 3.563e-10
 47.96594     45.6 9.411e+03 3.314e-10
 47.98739     45.9 9.332e+03 3.093e-10
 48.01748     46.1 9.488e+03 3.336e-10
 48.04955     46.8 9.474e+03 3.811e-10
 48.06671     46.9 9.536e+03 4.113e-10
 48.07744     47.3 9.590e+03 4.256e-10
 48.09235     47.9 9.760e+03 4.937e-10
 48.11184     48.3 9.976e+03 5.551e-10
 48.12256     48.5 1.012e+04 6.058e-10
 48.13524     49.0 1.024e+04 6.534e-10
 48.15668     49.5 1.032e+04 6.894e-10
 48.16768     49.9 1.041e+04 7.238e-10
 48.17841     50.1 1.059e+04 7.981e-10
 48.19958     50.3 1.080e+04 8.628e-10
 48.21281     50.4 1.097e+04 9.490e-10
 48.22353     50.6 1.120e+04 1.028e-09
 48.24247     50.8 1.132e+04 1.151e-09
 48.25793     51.1 1.146e+04 1.259e-09
 48.26865     51.2 1.167e+04 1.328e-09
 48.28536     51.6 1.177e+04 1.412e-09
 48.30305     52.1 1.184e+04 1.413e-09
 48.31377     52.1 1.206e+04 1.547e-09
 48.32825     52.5 1.213e+04 1.535e-09
 48.34817     53.0 1.215e+04 1.509e-09
 48.35890     53.0 1.237e+04 1.699e-09
 48.37114     53.5 1.239e+04 1.678e-09
 48.39259     54.2 1.237e+04 1.638e-09
 48.40402     54.8 1.232e+04 1.568e-09
 48.41474     55.0 1.242e+04 1.636e-09
 48.43548     55.7 1.239e+04 1.555e-09
 48.44914     56.3 1.242e+04 1.507e-09
 48.45987     56.5 1.237e+04 1.452e-09
 48.47837     57.1 1.238e+04 1.445e-09
 48.49427     57.6 1.242e+04 1.491e-09
 48.50499     58.0 1.218e+04 1.218e-09
 48.52127     58.6 1.240e+04 1.329e-09
 48.53939     58.7 1.288e+04 1.613e-09
 48.55011     58.9 1.249e+04 9.877e-10
 48.56416     58.5 1.326e+04 1.366e-09
 48.58451     56.7 1.533e+04 2.766e-09
 48.59523     57.7 1.391e+04 1.066e-09
 48.60705     56.0 1.635e+04 2.684e-09
 48.62850     56.4 1.668e+04 4.489e-09
 48.64036     56.6 1.611e+04 5.021e-09
 48.65108     55.9 1.478e+04 1.481e-09
 48.67139     54.5 1.420e+04 1.814e-09
 48.68548     53.6 1.366e+04 1.872e-09
 48.69620     52.7 1.255e+04 1.049e-09
 48.71428     52.7 1.248e+04 1.189e-09
 48.73060     52.9 1.247e+04 1.246e-09
 48.74133     53.0 1.210e+04 1.002e-09
 48.75717     53.2 1.224e+04 1.104e-09
 48.77573     53.2 1.241e+04 1.203e-09
 48.78645     53.0 1.232e+04 1.172e-09
 48.80007     52.5 1.258e+04 1.318e-09
 48.82085     52.4 1.281e+04 1.452e-09
 48.83157     52.0 1.265e+04 1.465e-09
 48.84296     51.8 1.283e+04 1.556e-09
 48.86440     51.6 1.335e+04 1.773e-09
 48.87669     52.0 1.369e+04 2.062e-09
 48.88742     51.6 1.263e+04 1.305e-09
 48.90675     51.8 1.264e+04 1.296e-09
 48.91747     52.2 1.247e+04 1.210e-09
 48.92182     52.2 1.243e+04 1.217e-09
 48.93264     51.5 1.199e+04 1.127e-09
 48.96111     51.5 1.207e+04 1.218e-09
 49.00153     52.1 1.234e+04 1.475e-09
 49.02298     51.5 1.233e+04 1.484e-09
 49.04689     52.6 1.270e+04 1.880e-09
 49.08978     54.0 1.262e+04 1.859e-09
 49.11323     55.9 1.215e+04 1.577e-09
 49.13467     55.8 1.199e+04 1.465e-09
 49.17557     57.6 1.136e+04 1.117e-09
 49.20347     59.5 1.075e+04 8.322e-10
 49.22492     59.9 1.063e+04 7.817e-10
 49.26135     62.0 1.030e+04 6.441e-10
 49.29372     64.3 1.002e+04 5.292e-10
 49.31516     64.8 9.977e+03 5.217e-10
 49.34713     67.0 9.773e+03 4.522e-10
 49.38396     69.2 9.592e+03 4.064e-10
 49.40541     69.9 9.692e+03 4.333e-10
 49.43292     72.2 9.617e+03 4.180e-10
 49.47421     74.5 9.575e+03 4.055e-10
 49.49566     75.1 9.741e+03 4.636e-10
 49.50788     77.1 9.633e+03 4.377e-10
 49.52923     77.8 9.640e+03 4.379e-10
 49.54058     79.6 9.618e+03 4.412e-10
 49.55131     79.7 9.825e+03 5.150e-10
 49.57212     80.9 9.930e+03 5.433e-10
 49.58571     82.1 1.007e+04 5.836e-10
 49.59643     82.2 1.039e+04 7.266e-10
 49.61501     83.0 1.062e+04 8.247e-10
 49.63083     83.8 1.092e+04 9.704e-10
 49.64155     83.9 1.123e+04 1.187e-09
 49.65791     84.7 1.164e+04 1.452e-09
 49.67595     85.5 1.202e+04 1.776e-09
 49.68667     85.6 1.253e+04 2.195e-09
 49.70080     86.4 1.301e+04 2.755e-09
 49.72107     87.5 1.339e+04 3.281e-09
 49.73180     87.7 1.377e+04 3.921e-09
 49.74369     88.9 1.397e+04 4.110e-09
 49.76514     89.9 1.393e+04 4.028e-09
 49.77692     91.0 1.370e+04 3.625e-09
 49.78764     91.1 1.369e+04 3.583e-09
 49.80479     92.2 1.325e+04 2.903e-09
 49.81551     92.2 1.245e+04 2.078e-09
 49.82204     92.8 1.203e+04 1.640e-09
 49.83277     92.7 1.181e+04 1.461e-09
 49.85092     92.8 1.133e+04 1.128e-09
 49.86717     92.6 1.087e+04 8.979e-10
 49.87789     92.2 1.055e+04 7.772e-10
 49.89381     92.0 1.022e+04 6.895e-10
 49.91229     92.3 1.015e+04 6.798e-10
 49.92301     92.1 1.002e+04 6.378e-10
 49.93670     92.7 1.008e+04 6.661e-10
 49.95741     93.4 1.021e+04 7.182e-10
 49.96813     93.3 1.018e+04 7.114e-10
 49.97960     94.1 1.034e+04 7.811e-10
 50.00104     94.8 1.053e+04 8.672e-10
 50.01326     95.2 1.079e+04 9.805e-10
 50.02398     95.2 1.087e+04 1.021e-09
 50.04393     95.6 1.121e+04 1.179e-09
 50.05838     95.9 1.152e+04 1.331e-09
 50.06910     96.1 1.153e+04 1.328e-09
 50.08683     96.5 1.172e+04 1.430e-09
 50.10350     96.8 1.182e+04 1.466e-09
 50.11423     97.2 1.161e+04 1.330e-09
 50.12972     97.5 1.155e+04 1.270e-09
 50.14863     97.7 1.145e+04 1.182e-09
 50.15935     98.2 1.109e+04 9.911e-10
 50.17261     98.3 1.095e+04 9.373e-10
 50.19375     98.3 1.092e+04 9.908e-10
 50.20447     99.0 1.042e+04 7.753e-10
 50.21550     98.4 1.099e+04 8.977e-10
 50.23695     94.9 1.593e+04 1.912e-09
 50.24959     90.7 1.988e+04 6.632e-09
 50.26032     94.5 1.652e+04 2.525e-09
 50.27984     91.4 1.972e+04 8.245e-09
 50.29472     89.9 2.108e+04 1.867e-08
 50.30544     92.5 1.965e+04 9.168e-09
 50.32273     91.3 2.076e+04 1.709e-08
 50.33984     90.1 2.159e+04 1.910e-08
 50.35056     92.7 2.029e+04 1.406e-08
 50.36563     91.1 2.132e+04 1.499e-08
 50.38496     88.4 2.157e+04 1.270e-08
 50.39569     91.5 2.137e+04 1.276e-08
 50.40852     88.1 2.181e+04 1.140e-08
 50.42996     84.5 2.015e+04 6.676e-09
 50.44081     80.0 1.656e+04 3.491e-09
 50.45153     84.1 2.003e+04 8.017e-09
 50.47286     79.9 1.715e+04 4.733e-09
 50.48593     77.2 1.490e+04 3.109e-09
 50.49665     81.2 1.874e+04 6.436e-09
 50.51575     79.5 1.625e+04 3.804e-09
 50.53105     78.5 1.442e+04 2.570e-09
 50.54178     80.1 1.555e+04 3.587e-09
 50.55864     78.6 1.399e+04 2.251e-09
 50.57618     76.0 1.239e+04 1.210e-09
 50.58690     77.9 1.338e+04 1.693e-09
 50.60153     74.9 1.164e+04 8.764e-10
 50.62130     72.0 1.041e+04 5.465e-10
 50.63202     73.3 1.072e+04 6.242e-10
 50.64442     71.7 1.022e+04 4.961e-10
 50.66587     70.9 1.033e+04 5.155e-10
 50.67715     69.7 1.064e+04 5.724e-10
 50.68787     71.0 1.114e+04 5.550e-10
 50.69966     69.1 1.120e+04 6.721e-10
 50.70439     70.5 1.142e+04 6.457e-10
 50.70809     69.9 1.152e+04 6.186e-10
 50.71403     58.8 2.823e+04 5.220e-10
 50.72217     29.7 4.992e+04 2.508e-09
 50.72753     23.8 4.916e+04 5.131e-09
 50.73547     17.1 2.886e+04 5.571e-08
 50.74473     16.2 2.273e+04 1.860e-07
 50.75007     15.8 2.299e+04 2.053e-07
 50.75419     15.0 2.244e+04 2.402e-07
 50.75864     14.6 2.262e+04 2.442e-07
 50.76133     13.9 2.293e+04 2.833e-07
 50.76727     13.3 2.288e+04 2.598e-07
 50.77265     12.6 2.261e+04 3.946e-07
 50.77836     11.1 2.484e+04 1.518e-07
 50.78909      4.3 3.820e+04 1.206e-08
 50.79522    -14.4 5.086e+04 1.122e-09
 50.80058    -17.3 5.219e+04 8.504e-10
 50.81246    -30.1 3.960e+04 5.150e-10
 50.82324    -37.6 3.668e+04 3.754e-10
 50.83744    -52.2 1.089e+04 3.212e-10
 50.85764    -51.6 9.452e+03 2.925e-10
 50.86836    -52.0 9.462e+03 2.968e-10
 50.89115    -48.7 9.303e+03 2.701e-10
 50.91368    -45.0 8.884e+03 2.279e-10
 50.93512    -46.1 8.953e+03 2.327e-10
 50.97703    -42.1 8.595e+03 2.019e-10
 51.00392    -39.0 8.550e+03 1.964e-10
 51.02537    -39.6 8.629e+03 2.066e-10
 51.06282    -36.6 8.690e+03 2.149e-10
 51.09417    -33.9 9.269e+03 2.927e-10
 51.11561    -34.4 9.394e+03 3.065e-10
 51.13778    -32.9 9.973e+03 4.320e-10
 51.14982    -32.3 1.040e+04 5.641e-10
 51.16054    -32.4 1.039e+04 5.579e-10
 51.18432    -30.3 1.077e+04 7.240e-10
 51.20576    -31.0 1.096e+04 8.179e-10
 51.22347    -29.6 1.151e+04 1.129e-09
 51.24007    -29.1 1.172e+04 1.249e-09
 51.25079    -29.4 1.170e+04 1.261e-09
 51.26636    -28.4 1.196e+04 1.427e-09
 51.28519    -27.6 1.202e+04 1.480e-09
 51.29591    -27.8 1.188e+04 1.404e-09
 51.30925    -27.0 1.184e+04 1.394e-09
 51.33031    -26.2 1.169e+04 1.282e-09
 51.34103    -26.3 1.144e+04 1.136e-09
 51.35214    -25.6 1.120e+04 9.949e-10
 51.37359    -24.9 1.096e+04 8.704e-10
 51.38616    -24.2 1.076e+04 7.693e-10
 51.39688    -24.3 1.044e+04 6.257e-10
 51.41648    -23.5 1.021e+04 5.392e-10
 51.44875    -22.1 1.000e+04 4.591e-10
 51.47660    -19.4 9.835e+03 4.198e-10
 51.49804    -18.9 9.433e+03 3.067e-10
 51.52162    -17.0 9.545e+03 3.340e-10
 51.53225    -16.8 9.354e+03 2.866e-10
 51.54516    -16.0 9.386e+03 2.914e-10
 51.56660    -15.2 9.772e+03 3.476e-10
 51.58805    -14.2 1.015e+04 3.935e-10
 51.60086    -14.1 1.119e+04 6.276e-10
 51.61158    -12.1 1.026e+04 4.073e-10
 51.62249    -12.5 1.132e+04 6.665e-10
 51.63322    -11.5 1.080e+04 5.140e-10
 51.65239    -11.5 1.182e+04 9.216e-10
 51.66762    -11.3 1.270e+04 1.654e-09
 51.67834    -10.4 1.210e+04 1.160e-09
 51.69528     -9.7 1.283e+04 1.955e-09
 51.71274     -8.4 1.344e+04 2.865e-09
 51.72346     -8.0 1.272e+04 1.957e-09
 51.73817     -6.7 1.319e+04 2.503e-09
 51.75786     -5.3 1.343e+04 2.763e-09
 51.76859     -5.1 1.276e+04 2.018e-09
 51.78106     -3.9 1.293e+04 2.116e-09
 51.80251     -3.0 1.288e+04 1.885e-09
 51.81371     -2.5 1.252e+04 1.423e-09
 51.82443     -2.0 1.219e+04 1.322e-09
 51.84540     -1.6 1.192e+04 1.066e-09
 51.85883     -1.1 1.185e+04 9.602e-10
 51.86955     -0.6 1.184e+04 1.050e-09
 51.88829      0.0 1.186e+04 1.018e-09
 51.90395      0.4 1.223e+04 1.053e-09
 51.91468      1.0 1.240e+04 1.198e-09
 51.93119      1.0 1.309e+04 1.399e-09
 51.94908      0.8 1.356e+04 1.784e-09
 51.95980      1.6 1.373e+04 2.041e-09
 51.97408      1.8 1.392e+04 2.503e-09
 51.99420      2.3 1.385e+04 2.916e-09
 52.00492      3.2 1.423e+04 3.140e-09
 52.01697      3.7 1.418e+04 3.332e-09
 52.03842      4.2 1.406e+04 3.193e-09
 52.05004      4.3 1.402e+04 2.828e-09
 52.06077      4.3 1.467e+04 3.223e-09
 52.08131      4.1 1.439e+04 2.732e-09
 52.09517      3.8 1.383e+04 2.281e-09
 52.10589      3.8 1.468e+04 2.978e-09
 52.12420      4.1 1.383e+04 2.391e-09
 52.14029      4.6 1.303e+04 1.911e-09
 52.15101      5.0 1.399e+04 2.618e-09
 52.16709      5.8 1.318e+04 1.914e-09
 52.18541      6.6 1.252e+04 1.399e-09
 52.19614      6.9 1.339e+04 1.873e-09
 52.20998      7.5 1.262e+04 1.294e-09
 52.23054      8.0 1.205e+04 9.565e-10
 52.24126      8.3 1.263e+04 1.263e-09
 52.25288      8.9 1.202e+04 9.562e-10
 52.27432      9.7 1.157e+04 7.970e-10
 52.28638     10.8 1.133e+04 7.358e-10
 52.29710     11.3 1.174e+04 9.406e-10
 52.31721     12.4 1.155e+04 8.823e-10
 52.33150     13.6 1.145e+04 8.653e-10
 52.34223     14.1 1.189e+04 1.119e-09
 52.36011     15.2 1.181e+04 1.101e-09
 52.37663     16.2 1.181e+04 1.134e-09
 52.38735     16.7 1.226e+04 1.476e-09
 52.40300     17.8 1.230e+04 1.535e-09
 52.42175     18.8 1.239e+04 1.634e-09
 52.43247     19.5 1.277e+04 2.050e-09
 52.44589     20.5 1.290e+04 2.154e-09
 52.46687     21.3 1.321e+04 2.369e-09
 52.47760     22.1 1.351e+04 2.737e-09
 52.48818     22.5 1.389e+04 3.064e-09
 52.49890     24.0 1.326e+04 2.388e-09
 52.51023     24.3 1.377e+04 2.826e-09
 52.52272     24.3 1.435e+04 3.558e-09
 52.53344     24.9 1.474e+04 4.048e-09
 52.55312     25.2 1.519e+04 5.124e-09
 52.56784     25.6 1.546e+04 6.062e-09
 52.57856     26.1 1.557e+04 6.045e-09
 52.59601     26.9 1.565e+04 6.635e-09
 52.61296     27.8 1.558e+04 6.693e-09
 52.62369     28.0 1.557e+04 6.402e-09
 52.63890     29.0 1.527e+04 5.535e-09
 52.65809     29.5 1.478e+04 3.940e-09
 52.66881     29.2 1.476e+04 3.641e-09
 52.68180     28.4 1.389e+04 2.418e-09
 52.70321     27.1 1.251e+04 1.535e-09
 52.72466     25.9 1.161e+04 1.443e-09
 52.74613     26.0 1.125e+04 1.196e-09
 52.75906     26.5 1.087e+04 9.697e-10
 52.76978     26.8 1.162e+04 1.510e-09
 52.78903     27.3 1.114e+04 1.163e-09
 52.80418     27.5 1.085e+04 9.657e-10
 52.82572     28.6 1.132e+04 1.185e-09
 52.84940     28.1 1.062e+04 8.263e-10
 52.86002     28.3 1.101e+04 9.978e-10
 52.87481     28.2 1.078e+04 8.808e-10
 52.89442     28.2 1.068e+04 8.337e-10
 52.90515     28.3 1.084e+04 9.141e-10
 52.91770     28.6 1.080e+04 8.927e-10
 52.93915     28.8 1.094e+04 9.229e-10
 52.95027     28.6 1.108e+04 9.879e-10
 52.96099     28.4 1.119e+04 1.085e-09
 52.98204     28.4 1.125e+04 1.229e-09
 52.99539     28.4 1.121e+04 1.284e-09
 53.00612     28.4 1.134e+04 1.400e-09
 53.02493     28.9 1.132e+04 1.406e-09
 53.04052     29.5 1.126e+04 1.284e-09
 53.05124     29.4 1.152e+04 1.405e-09
 53.06782     29.8 1.134e+04 1.146e-09
 53.08564     29.8 1.103e+04 8.789e-10
 53.09636     29.4 1.118e+04 9.386e-10
 53.11072     29.2 1.085e+04 7.146e-10
 53.13076     29.0 1.051e+04 5.655e-10
 53.14148     28.4 1.058e+04 6.048e-10
 53.16443     29.2 1.020e+04 4.926e-10
 53.18680     30.7 9.919e+03 4.516e-10
 53.20825     29.9 1.031e+04 6.005e-10
 53.25031     31.5 1.043e+04 6.786e-10
 53.27705     33.2 1.055e+04 7.586e-10
 53.29849     32.5 1.081e+04 8.440e-10
 53.33610     34.4 1.057e+04 7.905e-10
 53.36729     36.6 1.029e+04 6.553e-10
 53.38874     36.3 1.016e+04 5.752e-10
 53.42188     38.3 9.772e+03 3.869e-10
 53.45754     40.1 9.470e+03 2.504e-10
 53.47899     40.0 9.256e+03 1.930e-10
 53.50766     41.6 9.100e+03 1.359e-10
 53.54779     42.9 8.971e+03 1.157e-10
 53.56923     43.3 8.853e+03 1.011e-10
 53.59345     45.0 8.879e+03 1.054e-10
 53.63634     46.6 8.887e+03 1.350e-10
 53.65948     48.8 8.949e+03 1.739e-10
 53.68092     49.5 8.956e+03 1.656e-10
 53.72212     51.5 9.148e+03 1.968e-10
 53.74972     53.3 9.292e+03 2.273e-10
 53.77117     53.9 9.437e+03 2.376e-10
 53.80791     55.4 9.554e+03 3.021e-10
 53.83997     57.3 9.470e+03 3.549e-10
 53.86141     58.0 9.709e+03 4.021e-10
 53.89369     59.8 9.748e+03 3.888e-10
 53.93021     60.8 9.963e+03 3.647e-10
 53.95166     60.9 1.028e+04 4.612e-10
 53.97948     61.4 1.056e+04 5.314e-10
 54.02046     62.3 1.059e+04 5.966e-10
 54.04191     62.5 1.095e+04 7.897e-10
 54.06526     64.9 1.054e+04 6.166e-10
 54.10815     66.8 1.006e+04 3.524e-10
 54.13215     67.7 9.705e+03 1.940e-10
 54.15360     67.9 9.816e+03 1.675e-10
 54.19394     68.6 9.379e+03 1.132e-10
 54.22240     70.2 9.092e+03 1.035e-10
 54.24384     70.8 9.159e+03 1.033e-10
 54.27372     73.1 9.050e+03 1.116e-10
 54.29517     73.3 9.081e+03 1.061e-10
 54.31264     75.6 9.037e+03 1.218e-10
 54.33409     76.5 9.140e+03 1.275e-10
 54.36550     78.9 9.141e+03 1.516e-10
 54.40289     81.2 9.270e+03 1.710e-10
 54.42433     82.3 9.268e+03 1.733e-10
 54.45129     84.5 9.430e+03 1.852e-10
 54.49313     86.4 9.641e+03 2.143e-10
 54.51458     88.0 9.520e+03 1.861e-10
 54.53707     89.8 9.767e+03 2.174e-10
 54.57997     91.5 1.006e+04 3.139e-10
 54.60473     92.7 1.008e+04 3.400e-10
 54.62617     94.7 1.023e+04 3.503e-10
 54.64985     94.7 1.029e+04 5.205e-10
 54.66048     95.8 1.032e+04 4.552e-10
 54.67628     96.2 1.042e+04 6.345e-10
 54.69488     96.9 1.052e+04 8.496e-10
 54.70560     97.8 1.064e+04 8.108e-10
 54.71917     98.6 1.087e+04 1.078e-09
 54.74000    100.0 1.085e+04 1.310e-09
 54.75072    100.6 1.120e+04 1.409e-09
 54.76206    102.1 1.127e+04 1.558e-09
 54.78351    103.5 1.136e+04 1.481e-09
 54.79584    104.4 1.148e+04 1.243e-09
 54.80657    105.5 1.183e+04 1.693e-09
 54.82640    105.9 1.183e+04 1.352e-09
 54.84097    105.9 1.155e+04 1.020e-09
 54.85169    107.2 1.209e+04 1.423e-09
 54.86929    106.9 1.167e+04 1.091e-09
 54.88609    106.5 1.108e+04 8.844e-10
 54.89681    107.6 1.173e+04 1.152e-09
 54.91218    107.3 1.122e+04 1.016e-09
 54.93121    107.5 1.118e+04 1.013e-09
 54.94194    108.0 1.175e+04 1.227e-09
 54.95508    108.2 1.186e+04 1.262e-09
 54.97634    108.4 1.221e+04 1.395e-09
 54.98706    108.8 1.266e+04 1.603e-09
 54.99797    109.3 1.293e+04 1.829e-09
 55.01941    110.0 1.297e+04 2.084e-09
 55.03218    110.7 1.291e+04 2.398e-09
 55.04290    111.2 1.297e+04 2.472e-09
 55.06231    112.1 1.299e+04 2.913e-09
 55.07730    113.3 1.294e+04 3.324e-09
 55.08803    113.8 1.297e+04 3.320e-09
 55.10520    115.2 1.293e+04 3.656e-09
 55.12243    116.6 1.293e+04 3.797e-09
 55.13315    117.2 1.306e+04 3.977e-09
 55.14809    118.6 1.309e+04 4.187e-09
 55.16755    119.9 1.320e+04 4.289e-09
 55.17827    120.5 1.341e+04 4.681e-09
 55.18229    122.0 1.371e+04 4.887e-09
 55.19301    121.8 1.342e+04 4.353e-09
 55.21243    123.5 1.367e+04 4.727e-09
 55.22340    125.1 1.400e+04 5.268e-09
 55.23412    125.7 1.432e+04 5.974e-09
 55.24591    126.4 1.441e+04 6.231e-09
 55.25122    126.4 1.445e+04 6.350e-09
 55.26058    126.9 1.449e+04 6.544e-09
 55.26842    127.8 1.460e+04 7.009e-09
 55.27378    128.3 1.463e+04 7.353e-09
 55.28203    129.3 1.486e+04 8.116e-09
 55.29098    130.4 1.520e+04 9.156e-09
 55.29634    130.8 1.525e+04 9.408e-09
 55.30348    131.8 1.565e+04 1.062e-08
 55.31354    132.8 1.605e+04 1.189e-08
 55.31891    133.2 1.601e+04 1.190e-08
 55.32492    134.3 1.635e+04 1.312e-08
 55.33564    134.5 1.692e+04 1.461e-08
 55.34147    134.0 1.853e+04 1.835e-08
 55.34683    135.0 1.811e+04 1.748e-08
 55.35709    134.1 1.968e+04 2.699e-08
 55.36403    133.1 2.020e+04 5.146e-08
 55.36939    134.9 1.992e+04 3.609e-08
 55.37854    133.6 2.014e+04 5.684e-08
 55.38659    132.0 2.054e+04 9.598e-08
 55.39195    133.2 2.089e+04 8.934e-08
 55.39998    130.4 2.117e+04 1.694e-07
 55.40915    127.2 2.136e+04 2.853e-07
 55.41449    126.9 2.133e+04 3.287e-07
 55.42140    123.3 2.135e+04 4.948e-07
 55.43171    118.4 2.133e+04 5.007e-07
 55.43707    116.6 2.104e+04 7.891e-07
 55.44287    115.3 2.116e+04 5.511e-07
 55.45360    114.8 2.201e+04 3.025e-07
 55.45964    114.7 2.322e+04 1.544e-07
 55.46500    112.5 2.372e+04 1.514e-07
 55.47504    112.8 2.458e+04 8.079e-08
 55.48220    113.5 2.487e+04 4.702e-08
 55.48756    112.0 2.497e+04 4.573e-08
 55.49649    113.1 2.436e+04 2.918e-08
 55.50476    113.4 2.296e+04 1.936e-08
 55.51012    112.5 2.268e+04 1.888e-08
 55.51794    113.0 2.134e+04 1.367e-08
 55.53407    112.1 1.817e+04 7.574e-09
 55.54998    111.7 1.483e+04 4.445e-09
 55.56070    111.5 1.513e+04 5.017e-09
 55.57701    111.8 1.327e+04 3.525e-09
 55.59510    112.8 1.251e+04 2.889e-09
 55.60582    113.3 1.289e+04 3.329e-09
 55.61990    114.6 1.260e+04 2.988e-09
 55.64022    116.0 1.265e+04 2.877e-09
 55.65095    116.5 1.309e+04 3.241e-09
 55.66279    117.6 1.318e+04 3.283e-09
 55.68424    118.3 1.344e+04 3.435e-09
 55.69607    118.9 1.364e+04 3.533e-09
 55.70679    119.3 1.409e+04 3.961e-09
 55.72713    120.0 1.408e+04 3.928e-09
 55.74119    120.8 1.391e+04 3.630e-09
 55.75192    121.3 1.424e+04 3.904e-09
 55.77002    122.1 1.361e+04 2.938e-09
 55.78632    122.1 1.267e+04 1.820e-09
 55.79704    122.5 1.277e+04 1.843e-09
 55.81292    121.2 1.179e+04 1.021e-09
 55.83144    117.9 1.079e+04 7.039e-10
 55.84216    117.8 1.100e+04 7.666e-10
 55.85581    113.9 1.087e+04 7.972e-10
 55.87656    110.5 1.110e+04 1.059e-09
 55.88728    110.5 1.131e+04 1.215e-09
 55.89870    110.3 1.187e+04 1.872e-09
 55.92015    110.7 1.237e+04 2.460e-09
 55.93241    110.6 1.247e+04 2.484e-09
 55.94313    111.0 1.252e+04 2.487e-09
 55.96304    110.6 1.227e+04 2.139e-09
 55.97753    109.6 1.176e+04 1.614e-09
 55.98825    109.9 1.161e+04 1.425e-09
 56.00593    107.9 1.087e+04 1.033e-09
 56.02265    106.4 1.024e+04 8.433e-10
 56.03338    106.4 1.005e+04 7.744e-10
 56.04882    106.3 1.000e+04 7.727e-10
 56.06778    106.4 1.003e+04 7.902e-10
 56.07783    106.8 1.001e+04 7.825e-10
 56.08033    107.1 9.952e+03 7.416e-10
 56.09171    107.5 9.994e+03 7.337e-10
 56.11290    107.5 1.012e+04 7.559e-10
 56.12362    107.8 1.017e+04 7.813e-10
 56.13461    107.3 1.072e+04 9.088e-10
 56.15605    106.4 1.153e+04 1.165e-09
 56.16874    105.5 1.226e+04 1.560e-09
 56.17947    105.1 1.298e+04 2.092e-09
 56.19894    104.3 1.347e+04 2.858e-09
 56.21387    103.8 1.374e+04 3.688e-09
 56.22459    103.5 1.463e+04 5.241e-09
 56.24184    103.5 1.488e+04 6.371e-09
 56.25899    103.8 1.499e+04 7.098e-09
 56.26971    103.3 1.586e+04 9.177e-09
 56.28473    103.5 1.577e+04 9.040e-09
 56.30411    104.0 1.564e+04 8.385e-09
 56.31484    103.2 1.637e+04 9.266e-09
 56.32762    103.6 1.624e+04 7.581e-09
 56.34907    103.7 1.609e+04 6.106e-09
 56.35996    103.0 1.589e+04 5.003e-09
 56.37068    101.6 1.590e+04 4.881e-09
 56.39196    100.9 1.547e+04 4.037e-09
 56.40508    100.4 1.489e+04 3.464e-09
 56.41580     99.3 1.428e+04 2.774e-09
 56.43485     99.1 1.375e+04 2.597e-09
 56.45020     98.9 1.377e+04 2.656e-09
 56.46093     97.7 1.306e+04 2.030e-09
 56.47774     97.5 1.326e+04 2.277e-09
 56.49533     97.5 1.355e+04 2.715e-09
 56.50605     96.3 1.333e+04 2.348e-09
 56.52064     96.8 1.367e+04 2.844e-09
 56.54045     97.4 1.398e+04 3.021e-09
 56.55117     96.5 1.414e+04 2.762e-09
 56.56353     96.6 1.415e+04 2.730e-09
 56.58497     96.5 1.407e+04 2.544e-09
 56.59630     96.0 1.364e+04 2.245e-09
 56.60702     94.7 1.321e+04 2.029e-09
 56.62787     94.3 1.251e+04 1.770e-09
 56.64142     94.1 1.208e+04 1.631e-09
 56.65214     93.3 1.177e+04 1.509e-09
 56.67076     94.0 1.169e+04 1.440e-09
 56.68654     94.5 1.143e+04 1.275e-09
 56.69736     93.6 1.121e+04 1.137e-09
 56.72457     94.7 1.063e+04 7.882e-10
 56.76626     95.8 1.017e+04 5.275e-10
 56.78770     94.9 9.581e+03 3.421e-10
 56.81035     95.9 9.298e+03 2.567e-10
 56.85324     97.3 9.228e+03 2.497e-10
 56.87795     98.8 9.244e+03 2.583e-10
 56.89940     98.4 8.965e+03 2.036e-10
 56.93903    100.0 9.038e+03 2.332e-10
 56.96820    101.6 9.115e+03 2.718e-10
 56.98964    101.5 8.912e+03 2.297e-10
 57.02481    103.1 8.956e+03 2.452e-10
 57.05844    104.6 8.973e+03 2.461e-10
 57.07989    104.5 8.762e+03 2.006e-10
 57.11060    105.9 8.745e+03 1.969e-10
 57.14869    107.3 8.712e+03 1.914e-10
 57.17013    107.3 8.665e+03 1.829e-10
 57.19638    108.7 8.621e+03 1.777e-10
 57.23893    110.1 8.593e+03 1.763e-10
 57.26038    110.1 8.596e+03 1.766e-10
 57.28216    111.6 8.617e+03 1.788e-10
 57.32506    112.8 8.719e+03 1.940e-10
 57.35062    113.3 9.008e+03 2.604e-10
 57.37207    112.9 9.105e+03 2.661e-10
 57.41084    113.2 9.852e+03 4.906e-10
 57.44087    113.8 1.055e+04 8.615e-10
 57.46232    112.9 1.052e+04 8.389e-10
 57.49662    112.8 1.064e+04 9.065e-10
 57.53112    113.0 1.039e+04 7.900e-10
 57.55256    111.7 1.014e+04 6.737e-10
 57.58241    111.9 9.610e+03 4.697e-10
 57.62136    111.8 9.016e+03 2.940e-10
 57.64281    110.7 9.105e+03 3.272e-10
 57.66819    111.0 8.696e+03 2.359e-10
 57.71109    111.6 8.503e+03 2.009e-10
 57.73305    112.6 8.511e+03 2.018e-10
 57.75450    111.5 8.534e+03 2.003e-10
 57.79687    112.6 8.559e+03 2.064e-10
 57.82330    113.8 8.665e+03 2.350e-10
 57.84474    112.7 8.602e+03 2.303e-10
 57.86588    114.2 8.766e+03 2.749e-10
 57.88732    115.1 8.610e+03 2.318e-10
 57.91354    116.7 8.798e+03 2.839e-10
 57.93499    116.1 8.788e+03 2.838e-10
 57.96844    117.9 8.870e+03 3.040e-10
 58.00379    119.6 8.862e+03 3.006e-10
 58.02524    119.3 8.872e+03 3.064e-10
 58.05422    121.2 8.796e+03 2.846e-10
 58.09404    123.0 8.627e+03 2.322e-10
 58.11548    122.9 8.720e+03 2.554e-10
 58.14001    124.7 8.493e+03 1.968e-10
 58.18290    126.3 8.312e+03 1.590e-10
 58.20573    128.0 8.319e+03 1.563e-10
 58.22717    127.7 8.535e+03 1.939e-10
 58.26868    129.2 8.580e+03 1.988e-10
 58.29597    130.4 8.763e+03 2.280e-10
 58.31742    129.8 9.081e+03 3.038e-10
 58.35447    130.9 9.367e+03 3.621e-10
 58.38622    132.1 9.660e+03 4.384e-10
 58.40766    131.3 9.579e+03 4.001e-10
 58.44025    132.4 9.574e+03 3.758e-10
 58.47646    133.6 9.479e+03 3.481e-10
 58.49791    132.6 9.287e+03 3.141e-10
 58.52603    134.0 9.301e+03 3.189e-10
 58.56671    135.6 9.394e+03 3.414e-10
 58.58816    135.0 9.500e+03 3.822e-10
 58.61182    136.8 9.721e+03 4.452e-10
 58.65471    138.6 1.001e+04 5.279e-10
 58.67840    140.3 1.027e+04 6.067e-10
 58.69985    139.9 1.067e+04 7.656e-10
 58.74049    141.5 1.089e+04 8.345e-10
 58.76865    143.1 1.107e+04 8.930e-10
 58.79009    142.5 1.117e+04 8.986e-10
 58.82628    144.1 1.131e+04 9.424e-10
 58.85889    145.6 1.143e+04 9.758e-10
 58.88034    145.1 1.140e+04 9.417e-10
 58.91206    146.6 1.143e+04 9.453e-10
 58.94914    147.9 1.145e+04 9.479e-10
 58.97058    147.8 1.144e+04 9.603e-10
 58.99785    149.1 1.142e+04 9.518e-10
 59.03938    150.5 1.134e+04 9.152e-10
 59.06083    150.5 1.125e+04 8.749e-10
 59.08363    152.1 1.098e+04 7.394e-10
 59.12652    153.8 1.074e+04 6.223e-10
 59.15108    155.5 1.058e+04 5.458e-10
 59.17252    155.8 1.010e+04 3.577e-10
 59.21231    157.7 9.979e+03 3.111e-10
 59.24132    159.8 9.942e+03 3.101e-10
 59.26277    160.1 9.256e+03 1.690e-10
 59.29809    162.5 9.193e+03 1.694e-10
 59.33157    164.9 9.233e+03 1.749e-10
 59.35301    165.5 8.867e+03 1.319e-10
 59.38388    168.1 8.870e+03 1.337e-10
 59.42181    170.8 8.922e+03 1.433e-10
 59.44326    171.6 8.859e+03 1.368e-10
 59.46966    174.4 8.905e+03 1.494e-10
 59.51206    177.3 9.072e+03 1.774e-10
 59.53350    177.9 9.077e+03 1.784e-10
 59.55544    180.7 9.387e+03 2.257e-10
 59.59834    183.4 9.767e+03 2.953e-10
 59.62375    185.2 1.002e+04 3.637e-10
 59.64447    184.6 1.001e+04 3.759e-10
 59.66185    185.0 1.004e+04 4.096e-10
 59.66868    186.5 1.027e+04 5.074e-10
 59.67940    186.2 1.039e+04 5.748e-10
 59.69465    187.7 1.079e+04 7.577e-10
 59.71380    189.1 1.119e+04 9.464e-10
 59.72452    188.5 1.141e+04 1.089e-09
 59.73754    189.4 1.178e+04 1.303e-09
 59.75892    190.0 1.218e+04 1.528e-09
 59.78037    187.5 1.383e+04 2.599e-09
 59.80188    186.6 1.468e+04 3.256e-09
 59.81472    184.7 1.591e+04 4.139e-09
 59.82003    180.6 1.807e+04 6.240e-09
 59.82859    177.4 1.979e+04 9.494e-09
 59.83723    174.2 2.120e+04 1.512e-08
 59.84259    170.4 2.208e+04 2.196e-08
 59.85003    168.2 2.308e+04 3.052e-08
 59.85979    166.4 2.372e+04 3.887e-08
 59.86516    162.3 2.433e+04 3.220e-08
 59.87148    160.4 2.471e+04 3.142e-08
 59.88220    158.3 2.533e+04 2.455e-08
 59.88772    156.6 2.585e+04 1.693e-08
 59.89308    152.8 2.633e+04 7.564e-09
 59.90497    151.6 2.844e+04 4.342e-09
 59.91574    136.2 2.319e+04 5.675e-10
 59.93055    123.4 1.470e+04 4.302e-10
 59.95014    117.2 1.314e+04 3.116e-10
 59.96086     99.0 6.399e+03 9.517e-11
 59.98427    103.4 9.139e+03 2.668e-10
 60.00618     99.5 9.132e+03 2.759e-10
 60.02762    102.0 9.112e+03 2.866e-10
 60.07015     97.6 9.279e+03 2.928e-10
 60.09642     92.0 9.481e+03 2.941e-10
 60.11787     95.6 9.328e+03 2.976e-10
 60.15593     91.1 9.543e+03 3.236e-10
 60.18657     89.9 9.758e+03 3.805e-10
 60.19720     92.2 9.733e+03 3.759e-10
 60.20935     90.5 9.927e+03 4.552e-10
 60.23080     89.3 1.000e+04 5.170e-10
 60.24232     88.4 1.005e+04 5.426e-10
 60.25304     90.0 9.989e+03 5.266e-10
 60.27369     89.1 1.007e+04 5.417e-10
 60.28744     87.8 1.032e+04 5.889e-10
 60.29817     89.4 1.020e+04 5.562e-10
 60.31658     87.6 1.057e+04 6.547e-10
 60.33257     85.9 1.090e+04 8.720e-10
 60.34329     87.1 1.090e+04 8.129e-10
 60.35947     86.0 1.118e+04 1.089e-09
 60.37769     85.7 1.140e+04 1.263e-09
 60.38841     86.4 1.140e+04 1.260e-09
 60.40237     85.8 1.144e+04 1.269e-09
 60.42281     85.2 1.135e+04 1.192e-09
 60.43353     85.5 1.133e+04 1.186e-09
 60.44526     84.5 1.099e+04 9.857e-10
 60.46670     83.2 1.051e+04 7.416e-10
 60.47866     80.8 1.004e+04 5.469e-10
 60.48938     80.6 1.002e+04 5.663e-10
 60.50960     77.9 9.448e+03 4.174e-10
 60.52378     74.7 9.115e+03 3.496e-10
 60.53450     74.4 9.152e+03 3.649e-10
 60.54907     71.7 8.891e+03 3.320e-10
 60.55979     71.2 8.959e+03 3.557e-10
 60.56890     67.4 9.434e+03 4.016e-10
 60.57963     67.3 9.315e+03 3.988e-10
 60.59538     58.9 1.220e+04 6.096e-10
 60.61403     40.9 2.124e+04 1.628e-09
 60.62475     44.9 2.078e+04 1.144e-09
 60.63827     35.7 1.865e+04 6.191e-09
 60.65915     32.2 1.643e+04 8.743e-09
 60.66987     32.9 1.573e+04 6.943e-09
 60.68116     32.4 1.576e+04 7.747e-09
 60.70261     32.2 1.695e+04 4.554e-09
 60.71499     23.3 1.673e+04 1.135e-09
 60.72572     29.7 1.788e+04 1.729e-09
 60.74550     18.7 1.098e+04 5.275e-10
 60.76012     17.4 9.793e+03 4.530e-10
 60.77084     19.0 9.556e+03 3.908e-10
 60.78839     19.1 9.642e+03 4.087e-10
 60.80524     19.5 9.697e+03 4.257e-10
 60.81596     20.6 9.569e+03 3.832e-10
 60.83974     20.6 9.699e+03 4.174e-10
 60.86128     23.3 9.392e+03 3.352e-10
 60.88510     24.3 9.360e+03 3.533e-10
 60.92799     25.8 9.205e+03 3.070e-10
 60.95153     27.2 9.010e+03 2.484e-10
 60.97297     29.3 9.098e+03 2.809e-10
 61.01377     30.7 8.953e+03 2.406e-10
 61.04177     32.2 8.884e+03 2.194e-10
 61.06322     34.2 9.025e+03 2.562e-10
 61.09956     35.8 8.921e+03 2.273e-10
 61.13202     37.6 8.811e+03 1.978e-10
 61.15346     39.4 8.940e+03 2.178e-10
 61.18534     41.1 8.773e+03 1.740e-10
 61.22226     42.9 8.666e+03 1.480e-10
 61.24371     44.4 8.768e+03 1.571e-10
 61.27113     46.3 8.710e+03 1.437e-10
 61.31251     48.4 8.696e+03 1.383e-10
 61.33396     49.9 8.792e+03 1.529e-10
 61.35691     52.2 8.832e+03 1.568e-10
 61.39980     54.5 8.850e+03 1.671e-10
 61.42420     56.8 8.863e+03 1.801e-10
 61.43953     58.5 9.073e+03 1.901e-10
 61.45803     58.9 8.812e+03 1.314e-10
 61.48559     61.2 8.869e+03 1.475e-10
 61.51445     63.6 8.924e+03 1.730e-10
 61.53589     65.3 9.084e+03 1.874e-10
 61.57137     67.8 9.207e+03 2.348e-10
 61.60469     70.4 9.331e+03 2.739e-10
 61.62614     72.2 9.580e+03 3.350e-10
 61.65715     74.8 9.783e+03 3.895e-10
 61.69494     77.1 9.929e+03 4.214e-10
 61.71638     79.2 1.028e+04 5.271e-10
 61.74294     81.1 1.048e+04 5.907e-10
 61.78518     83.1 1.064e+04 6.144e-10
 61.80653     84.2 1.082e+04 6.984e-10
 61.81780     85.6 1.070e+04 6.728e-10
 61.83925     86.3 1.067e+04 6.358e-10
 61.85156     87.4 1.047e+04 5.124e-10
 61.86228     88.5 1.069e+04 6.374e-10
 61.88214     88.9 1.058e+04 5.477e-10
 61.89668     89.4 1.042e+04 4.348e-10
 61.90740     90.6 1.064e+04 5.454e-10
 61.92503     90.8 1.051e+04 4.851e-10
 61.94180     91.8 1.035e+04 3.809e-10
 61.95253     92.7 1.053e+04 4.787e-10
 61.96793     93.0 1.044e+04 4.217e-10
 61.98702     94.4 1.028e+04 3.032e-10
 61.99775     95.4 1.047e+04 3.903e-10
 62.01082     95.5 1.041e+04 3.503e-10
 62.03205     96.6 1.036e+04 2.726e-10
 62.04277     97.6 1.049e+04 3.387e-10
 62.05371     97.7 1.044e+04 2.839e-10
 62.07516     98.0 1.045e+04 2.735e-10
 62.08789     98.0 1.046e+04 2.788e-10
 62.09862     99.0 1.060e+04 3.201e-10
 62.11805     98.5 1.071e+04 3.765e-10
 62.13302     98.6 1.078e+04 4.730e-10
 62.14374     99.4 1.089e+04 5.311e-10
 62.16094     99.5 1.138e+04 7.800e-10
 62.17814    100.0 1.161e+04 9.300e-10
 62.18886    100.7 1.171e+04 1.022e-09
 62.21465    101.6 1.226e+04 1.294e-09
 62.24682    101.3 1.286e+04 1.599e-09
 62.26817    100.2 1.351e+04 2.086e-09
 62.27911     99.6 1.366e+04 2.412e-09
 62.28983    100.2 1.376e+04 2.392e-09
 62.31106    100.1 1.372e+04 2.702e-09
 62.32423    100.7 1.336e+04 2.529e-09
 62.33495    100.8 1.373e+04 2.983e-09
 62.34515    101.7 1.337e+04 2.628e-09
 62.35587    101.7 1.394e+04 3.459e-09
 62.36935    102.7 1.354e+04 2.787e-09
 62.38008    102.8 1.397e+04 3.555e-09
 62.39685    103.8 1.360e+04 2.659e-09
 62.41448    104.1 1.327e+04 1.701e-09
 62.42520    104.8 1.365e+04 2.454e-09
 62.43974    104.8 1.334e+04 1.535e-09
 62.45960    104.1 1.294e+04 9.575e-10
 62.47032    105.2 1.341e+04 1.438e-09
 62.48263    104.5 1.288e+04 9.958e-10
 62.50408    103.9 1.226e+04 8.063e-10
 62.51545    104.2 1.187e+04 7.356e-10
 62.52617    104.9 1.236e+04 9.539e-10
 62.54697    105.3 1.198e+04 8.483e-10
 62.56057    105.9 1.169e+04 7.453e-10
 62.57129    106.4 1.210e+04 9.481e-10
 62.58986    107.0 1.179e+04 8.060e-10
 62.60569    107.4 1.167e+04 6.732e-10
 62.61641    107.7 1.195e+04 8.959e-10
 62.63275    108.2 1.183e+04 7.523e-10
 62.65081    108.1 1.182e+04 6.746e-10
 62.66154    108.6 1.210e+04 8.953e-10
 62.67565    108.9 1.197e+04 8.165e-10
 62.69594    109.0 1.187e+04 8.034e-10
 62.70666    109.3 1.215e+04 9.793e-10
 62.72936    109.9 1.178e+04 8.675e-10
 62.75198    110.9 1.165e+04 8.475e-10
 62.77342    111.1 1.209e+04 1.152e-09
 62.81524    112.6 1.172e+04 9.640e-10
 62.84222    114.3 1.119e+04 6.437e-10
 62.86367    114.6 1.158e+04 8.714e-10
 62.90102    116.4 1.101e+04 5.067e-10
 62.93247    117.9 1.060e+04 2.831e-10
 62.95392    118.6 1.086e+04 3.920e-10
 62.98681    120.0 1.050e+04 2.481e-10
 63.02271    121.7 1.020e+04 2.065e-10
 63.04416    122.6 1.041e+04 2.408e-10
 63.07259    124.6 1.019e+04 2.181e-10
 63.11296    126.7 1.007e+04 2.083e-10
 63.13441    127.7 1.018e+04 2.174e-10
 63.15838    129.9 1.007e+04 2.049e-10
 63.20127    132.2 9.960e+03 1.871e-10
 63.22465    134.5 9.833e+03 1.648e-10
 63.23459    135.6 9.940e+03 1.785e-10
 63.25410    135.1 1.007e+04 1.989e-10
 63.28705    137.4 1.006e+04 2.076e-10
 63.31490    139.7 1.004e+04 2.221e-10
 63.33634    140.9 1.013e+04 2.254e-10
 63.37284    143.2 1.018e+04 2.534e-10
 63.40514    145.5 1.024e+04 2.879e-10
 63.42659    146.6 1.031e+04 2.912e-10
 63.45862    148.9 1.042e+04 3.378e-10
 63.49539    151.3 1.056e+04 3.917e-10
 63.51683    152.3 1.057e+04 3.849e-10
 63.54440    154.5 1.071e+04 4.468e-10
 63.58563    156.8 1.088e+04 5.221e-10
 63.60708    157.7 1.083e+04 4.573e-10
 63.63019    159.9 1.102e+04 5.428e-10
 63.67308    162.0 1.130e+04 6.702e-10
 63.69733    164.0 1.170e+04 8.620e-10
 63.71877    164.6 1.138e+04 6.472e-10
 63.75886    166.3 1.185e+04 8.501e-10
 63.78757    167.7 1.224e+04 1.026e-09
 63.80902    168.2 1.165e+04 6.054e-10
 63.84465    169.2 1.177e+04 6.299e-10
 63.87782    170.1 1.166e+04 5.944e-10
 63.89926    170.7 1.087e+04 2.827e-10
 63.93043    171.6 1.067e+04 2.737e-10
 63.96806    172.6 1.048e+04 2.672e-10
 63.98951    173.7 9.947e+03 1.534e-10
 64.01622    175.0 1.001e+04 1.760e-10
 64.05831    176.3 1.015e+04 2.066e-10
 64.07975    177.5 9.747e+03 1.364e-10
 64.10200    178.9 9.910e+03 1.637e-10
 64.14489    180.2 1.009e+04 1.900e-10
 64.17000    181.5 1.033e+04 2.191e-10
 64.19145    182.8 9.756e+03 1.349e-10
 64.23068    183.9 9.926e+03 1.508e-10
 64.26025    184.6 1.041e+04 2.116e-10
 64.28169    186.5 9.606e+03 1.358e-10
 64.31646    187.1 1.022e+04 2.045e-10
 64.35049    187.7 1.104e+04 4.145e-10
 64.37194    189.6 1.040e+04 2.635e-10
 64.40225    190.2 1.140e+04 5.688e-10
 64.44074    191.1 1.207e+04 9.491e-10
 64.46218    192.5 1.188e+04 8.319e-10
 64.48803    193.2 1.210e+04 9.634e-10
 64.53092    194.0 1.188e+04 8.287e-10
 64.57381    196.2 1.132e+04 5.276e-10
 64.61671    197.2 1.063e+04 2.660e-10
 64.64267    198.0 9.894e+03 1.201e-10
 64.66412    199.2 1.003e+04 1.589e-10
 64.70249    200.1 9.542e+03 9.273e-11
 64.73292    201.3 9.425e+03 7.443e-11
 64.75437    202.5 9.419e+03 9.284e-11
 64.78827    204.1 9.373e+03 8.236e-11
 64.82317    205.8 9.412e+03 8.188e-11
 64.84461    206.8 9.365e+03 9.232e-11
 64.87406    208.4 9.409e+03 9.289e-11
 64.91341    210.0 9.458e+03 9.685e-11
 64.93486    210.8 9.428e+03 1.051e-10
 64.95984    212.1 9.463e+03 1.090e-10
 65.00273    213.2 9.440e+03 1.164e-10
 65.02510    214.0 9.437e+03 1.291e-10
 65.02966    214.5 9.452e+03 1.311e-10
 65.05018    213.8 9.337e+03 1.175e-10
 65.08852    214.4 9.378e+03 1.332e-10
 65.11535    214.6 9.589e+03 1.668e-10
 65.13679    215.1 9.567e+03 1.721e-10
 65.17430    214.8 9.920e+03 2.283e-10
 65.20550    214.4 1.028e+04 2.880e-10
 65.21612    214.5 1.023e+04 2.879e-10
 65.22772    214.1 1.073e+04 4.117e-10
 65.24917    213.8 1.114e+04 6.460e-10
 65.26124    214.0 1.146e+04 9.632e-10
 65.27197    214.0 1.159e+04 1.003e-09
 65.29206    214.2 1.191e+04 1.354e-09
 65.30637    214.2 1.219e+04 1.510e-09
 65.31709    214.0 1.250e+04 1.766e-09
 65.33495    213.8 1.256e+04 1.766e-09
 65.35149    213.4 1.254e+04 1.674e-09
 65.36221    212.9 1.311e+04 2.168e-09
 65.37784    212.4 1.289e+04 1.821e-09
 65.39661    211.5 1.245e+04 1.387e-09
 65.40734    211.3 1.317e+04 1.821e-09
 65.42074    210.0 1.233e+04 1.232e-09
 65.44174    208.4 1.155e+04 9.828e-10
 65.45246    207.7 1.168e+04 9.881e-10
 65.46363    206.4 1.139e+04 9.357e-10
 65.48507    205.6 1.141e+04 9.487e-10
 65.49758    205.1 1.160e+04 1.024e-09
 65.50830    204.5 1.134e+04 8.914e-10
 65.52797    204.2 1.154e+04 9.590e-10
 65.54270    203.8 1.179e+04 1.053e-09
 65.55343    203.4 1.133e+04 8.582e-10
 65.57086    203.1 1.147e+04 9.128e-10
 65.58783    202.7 1.152e+04 9.558e-10
 65.59855    202.6 1.113e+04 8.143e-10
 65.61375    202.4 1.113e+04 8.323e-10
 65.63295    202.3 1.111e+04 8.322e-10
 65.64367    202.3 1.096e+04 7.818e-10
 65.65664    202.3 1.087e+04 7.600e-10
 65.67807    202.3 1.069e+04 7.188e-10
 65.69952    202.6 1.048e+04 6.628e-10
 65.72098    202.6 1.027e+04 6.111e-10
 65.73392    202.6 1.011e+04 5.688e-10
 65.74464    202.8 1.011e+04 5.696e-10
 65.76387    202.7 1.009e+04 5.575e-10
 65.77904    202.5 1.012e+04 5.614e-10
 65.78976    202.9 1.011e+04 5.627e-10
 65.80677    202.6 1.020e+04 5.778e-10
 65.82416    202.1 1.043e+04 6.239e-10
 65.83489    202.6 1.041e+04 6.266e-10
 65.84966    201.7 1.091e+04 7.328e-10
 65.86929    200.5 1.189e+04 1.035e-09
 65.88001    201.3 1.160e+04 9.505e-10
 65.89255    200.4 1.261e+04 1.416e-09
 65.91400    199.8 1.345e+04 2.122e-09
 65.92513    199.3 1.387e+04 2.649e-09
 65.92699    200.2 1.372e+04 2.426e-09
 65.93730    200.2 1.415e+04 2.790e-09
 65.95689    199.7 1.439e+04 3.185e-09
 65.97026    199.4 1.429e+04 3.130e-09
 65.98098    200.2 1.458e+04 3.362e-09
 65.99978    199.7 1.459e+04 3.276e-09
 66.01538    199.1 1.446e+04 2.892e-09
 66.02610    199.7 1.544e+04 3.937e-09
 66.04267    199.1 1.526e+04 3.483e-09
 66.06050    198.5 1.467e+04 2.654e-09
 66.07122    198.7 1.547e+04 3.748e-09
 66.08556    198.3 1.483e+04 2.955e-09
 66.10562    197.7 1.395e+04 2.091e-09
 66.11635    197.8 1.472e+04 3.018e-09
 66.12846    197.6 1.388e+04 2.221e-09
 66.14990    197.2 1.290e+04 1.458e-09
 66.16147    196.5 1.201e+04 1.016e-09
 66.17219    197.2 1.286e+04 1.390e-09
 66.19279    196.1 1.210e+04 9.888e-10
 66.20659    195.2 1.182e+04 9.358e-10
 66.21732    195.0 1.230e+04 9.866e-10
 66.23569    194.3 1.210e+04 9.825e-10
 66.25172    193.8 1.230e+04 1.058e-09
 66.26244    193.3 1.260e+04 1.104e-09
 66.27858    193.1 1.282e+04 1.263e-09
 66.29684    193.0 1.333e+04 1.569e-09
 66.30756    192.6 1.357e+04 1.600e-09
 66.32147    192.8 1.399e+04 1.964e-09
 66.34196    193.0 1.445e+04 2.338e-09
 66.35268    192.5 1.471e+04 2.353e-09
 66.36436    192.9 1.492e+04 2.659e-09
 66.38581    193.2 1.509e+04 2.910e-09
 66.39781    193.6 1.521e+04 3.118e-09
 66.40853    193.5 1.539e+04 3.166e-09
 66.42870    194.1 1.540e+04 3.388e-09
 66.44293    194.7 1.555e+04 3.679e-09
 66.45365    195.5 1.572e+04 3.792e-09
 66.47159    196.4 1.590e+04 4.068e-09
 66.48805    197.1 1.631e+04 4.374e-09
 66.49878    198.8 1.644e+04 4.310e-09
 66.51448    199.5 1.683e+04 4.442e-09
 66.53318    199.0 1.821e+04 4.968e-09
 66.54390    202.3 1.805e+04 4.432e-09
 66.55197    201.6 1.844e+04 4.637e-09
 66.56100    201.2 1.864e+04 4.792e-09
 66.56636    203.3 1.856e+04 4.656e-09
 66.57336    203.1 1.883e+04 4.843e-09
 66.58356    202.6 1.909e+04 5.100e-09
 66.58892    205.4 1.890e+04 4.971e-09
 66.59481    204.9 1.926e+04 5.291e-09
 66.60553    204.0 1.971e+04 5.766e-09
 66.61149    202.5 2.017e+04 6.502e-09
 66.61685    206.6 2.021e+04 6.218e-09
 66.62698    204.9 2.076e+04 7.044e-09
 66.63405    202.8 2.099e+04 8.039e-09
 66.63941    207.6 2.117e+04 7.925e-09
 66.64842    204.4 2.129e+04 8.499e-09
 66.65661    200.0 2.125e+04 8.498e-09
 66.66197    204.1 2.297e+04 7.973e-09
 66.66987    197.9 2.186e+04 8.143e-09
 66.67917    191.0 2.144e+04 7.672e-09
 66.68453    192.4 2.220e+04 7.669e-09
 66.69132    185.5 2.173e+04 6.647e-09
 66.70173    175.7 2.575e+04 4.769e-09
 66.70709    145.2 7.434e+04 3.183e-09
 66.71276    135.5 6.799e+04 3.759e-09
 66.72349    147.0 4.552e+04 3.895e-09
 66.72965    148.7 3.567e+04 3.910e-09
 66.73231    130.2 4.288e+04 9.867e-09
 66.73684    127.8 5.327e+04 7.518e-09
 66.74089    120.9 6.443e+04 5.928e-09
 66.74357     98.2 5.199e+04 3.721e-08
 66.74756    105.8 5.303e+04 2.435e-08
 66.75217    116.0 5.256e+04 1.361e-08
 66.75485     93.4 3.086e+04 1.599e-07
 66.75829    106.6 3.096e+04 8.488e-08
 66.76345    121.4 2.829e+04 4.290e-08
 66.76613     93.7 1.967e+04 4.998e-07
 66.76901    105.3 1.916e+04 3.666e-07
 66.77437    111.5 1.902e+04 3.114e-07
 66.77741    111.6 2.029e+04 3.552e-07
 66.78009     80.9 2.048e+04 3.383e-06
 66.78509     77.5 2.097e+04 4.379e-06
 66.78869     71.6 2.091e+04 5.069e-06
 66.79137     57.0 2.030e+04 5.428e-06
 66.79582     56.2 2.060e+04 3.895e-06
 66.79997     56.2 2.119e+04 2.510e-06
 66.80268     51.5 2.310e+04 1.041e-06
 66.80927     52.6 2.755e+04 3.226e-07
 66.81915     52.7 3.257e+04 1.016e-07
 66.82442     53.8 3.297e+04 8.299e-08
 66.82526     47.3 7.010e+04 1.914e-09
 66.83613     39.1 7.461e+04 4.827e-10
 66.85762     33.1 3.909e+04 4.811e-10
 66.87048     31.7 1.384e+04 7.320e-10
 66.88120     13.2 5.729e+03 2.669e-10
 66.90051     14.2 7.232e+03 2.353e-10
 66.91570     21.1 1.046e+04 4.010e-10
 66.92643     19.8 1.086e+04 4.848e-10
 66.94340     20.6 1.087e+04 4.874e-10
 66.96073     25.0 1.128e+04 5.965e-10
 66.97145     24.6 1.160e+04 7.088e-10
 66.98630     26.2 1.162e+04 7.205e-10
 67.00585     28.9 1.158e+04 7.653e-10
 67.01657     28.3 1.185e+04 8.915e-10
 67.02919     29.3 1.184e+04 8.998e-10
 67.06146     31.1 1.196e+04 1.026e-09
 67.09629     33.3 1.208e+04 1.101e-09
 67.11774     30.9 1.197e+04 1.095e-09
 67.14734     32.4 1.182e+04 1.079e-09
 67.18654     34.0 1.174e+04 1.012e-09
 67.20798     31.4 1.097e+04 7.416e-10
 67.23312     32.3 1.076e+04 6.280e-10
 67.27601     32.8 1.064e+04 5.468e-10
 67.29823     33.1 1.061e+04 5.054e-10
 67.31967     29.3 9.692e+03 3.451e-10
 67.36180     29.3 9.548e+03 3.282e-10
 67.38847     29.0 9.646e+03 3.440e-10
 67.40992     25.3 8.939e+03 2.357e-10
 67.44758     24.6 9.146e+03 2.942e-10
 67.47872     24.2 9.339e+03 3.750e-10
 67.50017     22.8 8.722e+03 2.392e-10
 67.53337     22.9 8.744e+03 2.620e-10
 67.56897     22.6 8.699e+03 2.555e-10
 67.59041     21.8 8.090e+03 1.242e-10
 67.61915     20.7 8.201e+03 1.332e-10
 67.65921     18.1 8.719e+03 1.948e-10
 67.68066     18.1 8.245e+03 1.382e-10
 67.70493     16.3 9.284e+03 3.154e-10
 67.74783     14.3 1.042e+04 6.612e-10
 67.77090     13.1 1.092e+04 9.849e-10
 67.79235     14.8 1.068e+04 8.688e-10
 67.83361     14.3 1.039e+04 7.976e-10
 67.86115     13.4 1.042e+04 4.908e-10
 67.88259     16.9 9.217e+03 4.151e-10
 67.91939     11.9 1.283e+04 2.672e-10
 67.95130      4.0 1.597e+04 3.097e-10
 67.97274      9.5 1.470e+04 2.216e-10
 67.99436      1.5 1.447e+04 1.145e-09
 68.00704      1.6 1.457e+04 3.238e-09
 68.01777      3.1 1.429e+04 1.267e-09
 68.03715      3.0 1.449e+04 3.420e-09
 68.05217      3.5 1.621e+04 6.183e-09
 68.06289      4.1 1.500e+04 3.703e-09
 68.08004      4.7 1.698e+04 6.760e-09
 68.09729      2.8 1.908e+04 8.154e-09
 68.10801      5.1 1.762e+04 7.426e-09
 68.12294      1.7 1.923e+04 8.117e-09
 68.14241     -4.6 2.045e+04 6.961e-09
 68.15314      0.5 1.970e+04 8.692e-09
 68.16583     -7.1 2.072e+04 6.876e-09
 68.18727    -14.9 1.759e+04 5.170e-09
 68.19826    -19.4 1.527e+04 4.311e-09
 68.20898    -16.7 1.630e+04 4.836e-09
 68.23017    -19.9 1.441e+04 3.673e-09
 68.24338    -21.7 1.339e+04 2.496e-09
 68.25410    -19.9 1.364e+04 2.851e-09
 68.27306    -22.0 1.267e+04 1.747e-09
 68.28850    -25.0 1.144e+04 1.031e-09
 68.29923    -23.2 1.179e+04 1.181e-09
 68.31595    -26.4 1.074e+04 8.164e-10
 68.33363    -28.5 1.041e+04 7.288e-10
 68.34435    -27.3 1.064e+04 8.160e-10
 68.35884    -28.8 1.059e+04 8.017e-10
 68.37875    -30.3 1.079e+04 8.659e-10
 68.38947    -29.1 1.101e+04 9.815e-10
 68.40173    -30.5 1.140e+04 1.146e-09
 68.42318    -32.1 1.187e+04 1.350e-09
 68.43460    -34.1 1.243e+04 1.604e-09
 68.44532    -32.9 1.248e+04 1.621e-09
 68.46607    -35.6 1.300e+04 1.852e-09
 68.47972    -38.9 1.342e+04 2.069e-09
 68.49044    -37.8 1.330e+04 1.949e-09
 68.50896    -41.5 1.342e+04 2.027e-09
 68.52484    -45.2 1.340e+04 2.033e-09
 68.53556    -43.9 1.313e+04 1.844e-09
 68.55186    -47.4 1.290e+04 1.695e-09
 68.56996    -51.0 1.263e+04 1.440e-09
 68.58069    -49.5 1.237e+04 1.299e-09
 68.59475    -53.1 1.211e+04 1.095e-09
 68.60997    -56.6 1.181e+04 9.341e-10
 68.61958    -55.4 1.202e+04 1.034e-09
 68.62581    -53.8 1.190e+04 9.702e-10
 68.63764    -57.1 1.167e+04 8.776e-10
 68.65909    -60.0 1.142e+04 8.095e-10
 68.67093    -62.6 1.116e+04 7.552e-10
 68.68166    -61.0 1.121e+04 7.612e-10
 68.70198    -63.2 1.099e+04 7.210e-10
 68.71606    -65.0 1.076e+04 6.734e-10
 68.72678    -63.5 1.082e+04 6.868e-10
 68.74487    -65.1 1.062e+04 6.310e-10
 68.76118    -66.7 1.045e+04 5.601e-10
 68.77190    -65.2 1.050e+04 5.696e-10
 68.78776    -66.9 1.031e+04 4.854e-10
 68.80630    -68.4 1.015e+04 4.185e-10
 68.81702    -66.8 1.016e+04 4.175e-10
 68.83066    -67.8 1.006e+04 3.808e-10
 68.86292    -69.2 9.974e+03 3.534e-10
 68.89674    -72.3 9.761e+03 3.167e-10
 68.91819    -69.9 9.922e+03 3.379e-10
 68.94880    -73.2 9.851e+03 3.278e-10
 68.98699    -76.0 9.890e+03 3.251e-10
 69.00843    -74.0 1.028e+04 3.681e-10
 69.02377    -76.8 1.033e+04 3.587e-10
 69.04264    -78.1 1.051e+04 3.706e-10
 69.05336    -77.9 1.062e+04 3.992e-10
 69.06656    -81.1 1.094e+04 4.778e-10
 69.08776    -84.1 1.134e+04 6.327e-10
 69.09848    -83.8 1.142e+04 7.032e-10
 69.10945    -86.7 1.184e+04 9.233e-10
 69.13090    -89.3 1.227e+04 1.176e-09
 69.14361    -92.0 1.255e+04 1.381e-09
 69.15433    -91.5 1.261e+04 1.394e-09
 69.17379    -94.4 1.274e+04 1.481e-09
 69.18873    -97.4 1.277e+04 1.493e-09
 69.19945    -97.8 1.299e+04 1.550e-09
 69.21668   -101.2 1.295e+04 1.525e-09
 69.23385   -104.3 1.273e+04 1.452e-09
 69.24458   -105.1 1.300e+04 1.682e-09
 69.25958   -107.6 1.272e+04 1.671e-09
 69.27898   -109.4 1.249e+04 1.674e-09
 69.28970   -109.4 1.261e+04 1.863e-09
 69.30247   -110.3 1.237e+04 1.753e-09
 69.32391   -111.0 1.214e+04 1.583e-09
 69.33482   -111.5 1.192e+04 1.384e-09
 69.34554   -111.5 1.173e+04 1.205e-09
 69.36681   -112.2 1.139e+04 9.492e-10
 69.37994   -113.1 1.100e+04 7.124e-10
 69.39067   -114.0 1.054e+04 4.984e-10
 69.42052   -115.1 9.955e+03 3.617e-10
 69.45966   -114.8 9.422e+03 2.683e-10
 69.48111   -114.3 8.859e+03 1.753e-10
 69.50640   -113.4 8.515e+03 1.311e-10
 69.54929   -112.5 8.304e+03 1.027e-10
 69.57135   -111.6 8.199e+03 8.618e-11
 69.59280   -111.0 8.053e+03 7.686e-11
 69.63508   -109.9 8.054e+03 7.669e-11
 69.66160   -109.0 8.157e+03 7.915e-11
 69.68305   -108.2 8.175e+03 8.203e-11
 69.72086   -107.2 8.293e+03 9.441e-11
 69.75184   -106.2 8.414e+03 1.133e-10
 69.77329   -105.3 8.477e+03 1.290e-10
 69.80664   -104.3 8.577e+03 1.497e-10
 69.84209   -103.3 8.653e+03 1.672e-10
 69.86354   -102.3 8.673e+03 1.769e-10
 69.89243   -101.3 8.703e+03 1.820e-10
 69.93234   -100.4 8.725e+03 1.847e-10
 69.95378    -99.3 8.713e+03 1.871e-10
 69.97821    -98.5 8.706e+03 1.874e-10
 70.02110    -97.9 8.698e+03 1.890e-10
 70.04403    -97.8 8.764e+03 1.988e-10
 70.06547    -96.9 8.795e+03 2.018e-10
 70.10689    -97.0 9.296e+03 2.642e-10
 70.13427    -97.4 9.984e+03 3.853e-10
 70.15572    -96.3 1.018e+04 4.240e-10
 70.17930    -97.3 1.052e+04 5.274e-10
 70.18992    -97.3 1.056e+04 5.504e-10
 70.20320    -98.5 1.077e+04 6.421e-10
 70.22432    -99.7 1.084e+04 6.962e-10
 70.23505    -99.6 1.087e+04 7.226e-10
 70.24609   -100.5 1.087e+04 7.261e-10
 70.26754   -101.1 1.078e+04 7.046e-10
 70.28017   -101.7 1.061e+04 6.066e-10
 70.29089   -101.4 1.062e+04 5.921e-10
 70.31043   -102.0 1.039e+04 4.643e-10
 70.32529   -102.7 1.020e+04 3.719e-10
 70.33602   -102.2 1.014e+04 3.614e-10
 70.36414   -102.4 1.008e+04 3.127e-10
 70.39551   -102.5 1.010e+04 2.955e-10
 70.40614   -102.7 1.008e+04 3.291e-10
 70.41554   -102.9 1.010e+04 3.291e-10
 70.42626   -102.7 1.021e+04 3.480e-10
 70.43911   -103.6 1.063e+04 3.635e-10
 70.46055   -104.8 1.102e+04 4.499e-10
 70.47138   -106.1 1.135e+04 6.064e-10
 70.48211   -106.2 1.155e+04 7.109e-10
 70.50345   -107.0 1.189e+04 9.677e-10
 70.51651   -107.6 1.223e+04 1.231e-09
 70.52723   -107.6 1.254e+04 1.432e-09
 70.54634   -108.4 1.288e+04 1.643e-09
 70.56163   -109.6 1.310e+04 1.707e-09
 70.57235   -110.1 1.352e+04 1.999e-09
 70.58923   -111.8 1.358e+04 2.014e-09
 70.60675   -113.7 1.365e+04 1.962e-09
 70.61748   -114.6 1.398e+04 2.394e-09
 70.63212   -116.1 1.370e+04 2.240e-09
 70.65187   -117.0 1.323e+04 2.013e-09
 70.66260   -117.0 1.341e+04 2.375e-09
 70.67501   -117.1 1.294e+04 1.946e-09
 70.69646   -117.0 1.250e+04 1.477e-09
 70.70772   -116.7 1.206e+04 1.026e-09
 70.71844   -116.6 1.216e+04 9.468e-10
 70.73935   -116.8 1.181e+04 5.973e-10
 70.75284   -117.4 1.149e+04 3.829e-10
 70.76357   -117.7 1.146e+04 3.457e-10
 70.78734   -118.2 1.114e+04 2.667e-10
 70.80888   -118.5 1.102e+04 2.634e-10
 70.83605   -118.2 1.086e+04 2.375e-10
 70.87768   -117.4 1.056e+04 2.021e-10
 70.89913   -117.2 1.069e+04 2.570e-10
 70.92184   -116.1 1.048e+04 2.302e-10
 70.96473   -114.7 1.026e+04 2.048e-10
 70.98938   -113.1 1.014e+04 1.917e-10
 71.01082   -112.9 1.041e+04 2.634e-10
 71.05051   -111.3 1.037e+04 2.607e-10
 71.07962   -109.6 1.034e+04 2.738e-10
 71.10107   -109.3 1.058e+04 3.592e-10
 71.13630   -107.7 1.054e+04 3.827e-10
 71.16987   -106.1 1.062e+04 4.464e-10
 71.19131   -105.9 1.062e+04 4.795e-10
 71.22208   -104.4 1.065e+04 4.911e-10
 71.26011   -102.6 1.054e+04 4.878e-10
 71.28156   -102.1 1.031e+04 4.058e-10
 71.30787   -100.4 1.012e+04 3.461e-10
 71.35036    -98.6 9.936e+03 2.850e-10
 71.37180    -98.3 9.688e+03 2.241e-10
 71.39365    -96.6 9.564e+03 1.946e-10
 71.43654    -94.9 9.441e+03 1.705e-10
 71.46205    -93.2 9.343e+03 1.502e-10
 71.48350    -92.7 9.322e+03 1.522e-10
 71.52233    -90.7 9.251e+03 1.387e-10
 71.55230    -88.8 9.224e+03 1.339e-10
 71.57374    -88.1 9.176e+03 1.529e-10
 71.60811    -86.3 9.179e+03 1.527e-10
 71.64254    -84.8 9.300e+03 1.642e-10
 71.66399    -84.2 9.361e+03 1.950e-10
 71.69390    -83.1 9.888e+03 2.777e-10
 71.73279    -82.2 1.049e+04 4.519e-10
 71.75423    -81.6 1.043e+04 4.380e-10
 71.77968    -81.0 1.088e+04 6.260e-10
 71.82257    -80.6 1.119e+04 7.953e-10
 71.84448    -80.3 1.130e+04 8.666e-10
 71.86592    -79.8 1.104e+04 7.300e-10
 71.90836    -79.4 1.103e+04 7.346e-10
 71.93472    -78.7 1.083e+04 6.532e-10
 71.95617    -77.8 1.056e+04 5.147e-10
 71.99414    -77.0 1.029e+04 4.022e-10
 72.02497    -76.1 1.001e+04 3.171e-10
 72.04642    -75.3 9.774e+03 2.605e-10
 72.07992    -74.3 9.619e+03 2.372e-10
 72.11522    -73.1 9.567e+03 2.310e-10
 72.13666    -71.8 9.442e+03 2.237e-10
 72.16571    -70.8 9.505e+03 2.268e-10
 72.19159    -69.9 9.538e+03 2.278e-10
 72.20990    -69.7 9.746e+03 2.890e-10
 72.22691    -68.5 9.719e+03 2.875e-10
 72.25149    -67.8 9.740e+03 2.742e-10
 72.29438    -67.2 9.639e+03 2.512e-10
 72.31715    -66.6 9.497e+03 2.316e-10
 72.33860    -65.5 9.549e+03 2.441e-10
 72.38017    -65.0 9.426e+03 2.313e-10
 72.40740    -64.4 9.339e+03 2.256e-10
 72.42884    -63.3 9.342e+03 2.331e-10
 72.46595    -62.7 9.299e+03 2.321e-10
 72.49764    -62.1 9.277e+03 2.340e-10
 72.51909    -60.9 9.315e+03 2.473e-10
 72.55174    -60.4 9.402e+03 2.619e-10
 72.58789    -59.9 9.512e+03 2.762e-10
 72.60934    -58.5 9.844e+03 3.285e-10
 72.63752    -58.3 1.003e+04 3.493e-10
 72.66959    -58.8 1.022e+04 3.890e-10
 72.68866    -60.1 1.054e+04 4.758e-10
 72.69939    -60.4 1.075e+04 5.657e-10
 72.71239    -61.7 1.119e+04 7.543e-10
 72.73379    -62.8 1.165e+04 1.008e-09
 72.75523    -63.6 1.228e+04 1.343e-09
 72.77672    -64.4 1.243e+04 1.429e-09
 72.78963    -65.2 1.244e+04 1.436e-09
 72.80035    -65.7 1.252e+04 1.418e-09
 72.81962    -66.5 1.232e+04 1.214e-09
 72.83475    -67.6 1.206e+04 9.537e-10
 72.84548    -69.1 1.210e+04 9.523e-10
 72.86251    -70.7 1.188e+04 7.736e-10
 72.87988    -72.2 1.178e+04 6.861e-10
 72.89060    -74.4 1.216e+04 8.620e-10
 72.90540    -75.4 1.214e+04 8.807e-10
 72.92500    -76.1 1.212e+04 9.137e-10
 72.93572    -77.4 1.240e+04 1.150e-09
 72.94829    -77.3 1.225e+04 1.036e-09
 72.96974    -77.1 1.214e+04 9.048e-10
 72.98085    -76.8 1.210e+04 7.969e-10
 72.99157    -78.2 1.213e+04 6.674e-10
 73.01263    -78.6 1.201e+04 4.760e-10
 73.02597    -79.4 1.167e+04 3.207e-10
 73.03669    -81.1 1.125e+04 2.337e-10
 73.06047    -80.3 1.108e+04 2.166e-10
 73.08201    -82.3 1.008e+04 1.325e-10
 73.10933    -80.5 9.604e+03 9.355e-11
 73.15081    -78.8 9.423e+03 7.132e-11
 73.17226    -79.3 9.390e+03 7.072e-11
 73.19512    -77.3 9.351e+03 5.837e-11
 73.23801    -75.3 9.323e+03 5.113e-11
 73.26250    -73.3 9.295e+03 4.693e-11
 73.28395    -73.1 9.304e+03 4.787e-11
 73.32379    -71.2 9.281e+03 4.570e-11
 73.35275    -69.3 9.273e+03 4.469e-11
 73.37419    -69.0 9.312e+03 5.078e-11
 73.40958    -67.2 9.285e+03 5.119e-11
 73.44299    -65.5 9.277e+03 5.386e-11
 73.46444    -65.1 9.374e+03 7.142e-11
 73.49536    -63.4 9.435e+03 8.022e-11
 73.53324    -61.8 9.545e+03 9.434e-11
 73.55468    -61.6 9.931e+03 1.389e-10
 73.58115    -60.7 1.016e+04 1.748e-10
 73.62348    -59.9 1.048e+04 2.343e-10
 73.64483    -61.8 1.118e+04 4.278e-10
 73.65601    -62.1 1.142e+04 5.966e-10
 73.67746    -62.2 1.157e+04 7.679e-10
 73.68986    -62.1 1.165e+04 9.405e-10
 73.70058    -63.0 1.196e+04 1.338e-09
 73.72035    -62.7 1.202e+04 1.332e-09
 73.73498    -62.5 1.201e+04 1.210e-09
 73.74570    -64.1 1.202e+04 1.158e-09
 73.76324    -64.8 1.173e+04 9.480e-10
 73.79551    -65.4 1.121e+04 7.470e-10
 73.82542    -64.1 1.058e+04 5.521e-10
 73.84687    -65.0 9.939e+03 3.636e-10
 73.88139    -63.4 9.553e+03 2.710e-10
 73.91567    -61.7 9.339e+03 2.162e-10
 73.93711    -62.3 9.090e+03 1.569e-10
 73.96622    -60.5 9.027e+03 1.512e-10
 73.98767    -61.1 9.156e+03 1.913e-10
 74.00591    -59.1 9.146e+03 1.922e-10
 74.02736    -59.2 9.114e+03 1.997e-10
 74.05296    -57.0 9.073e+03 2.045e-10
 74.09585    -54.9 9.043e+03 2.066e-10
 74.11760    -52.8 8.984e+03 2.066e-10
 74.13905    -52.6 9.043e+03 2.351e-10
 74.18163    -50.7 9.034e+03 2.252e-10
 74.20785    -48.9 9.060e+03 2.180e-10
 74.22930    -48.9 9.130e+03 2.470e-10
 74.26742    -47.3 9.174e+03 2.526e-10
 74.29810    -45.9 9.245e+03 2.664e-10
 74.31954    -46.1 9.335e+03 3.123e-10
 74.35320    -45.1 9.456e+03 3.387e-10
 74.38834    -44.3 9.560e+03 3.582e-10
 74.40979    -44.6 9.677e+03 4.146e-10
 74.43899    -43.9 9.704e+03 4.068e-10
 74.47106    -43.5 9.734e+03 4.092e-10
 74.48911    -43.5 9.738e+03 3.991e-10
 74.49984    -43.9 9.860e+03 4.378e-10
 74.51385    -44.1 9.867e+03 4.361e-10
 74.53424    -44.4 9.899e+03 4.365e-10
 74.54496    -44.8 1.005e+04 4.962e-10
 74.55674    -45.1 1.002e+04 4.888e-10
 74.57819    -45.5 9.949e+03 4.572e-10
 74.59018    -45.8 9.855e+03 4.029e-10
 74.60090    -46.2 9.870e+03 4.295e-10
 74.62108    -46.5 9.794e+03 3.968e-10
 74.65335    -47.0 9.682e+03 3.617e-10
 74.68052    -47.4 9.468e+03 3.126e-10
 74.70197    -47.9 9.516e+03 3.376e-10
 74.73923    -47.7 9.305e+03 2.962e-10
 74.77077    -47.3 9.167e+03 2.693e-10
 74.79222    -47.7 9.206e+03 2.981e-10
 74.82502    -47.4 9.130e+03 2.840e-10
 74.86101    -47.3 9.129e+03 2.833e-10
 74.88246    -47.7 9.213e+03 3.200e-10
 74.91080    -48.0 9.414e+03 3.676e-10
 74.95126    -48.1 9.763e+03 4.702e-10
 74.97271    -48.3 9.801e+03 4.827e-10
 74.98576    -48.1 1.004e+04 5.586e-10
 75.00691    -48.4 1.009e+04 5.731e-10
 75.01763    -49.0 1.001e+04 5.392e-10
 75.02856    -49.4 1.009e+04 5.562e-10
 75.05000    -49.9 1.022e+04 5.754e-10
 75.06276    -50.7 1.041e+04 6.029e-10
 75.07348    -51.8 1.029e+04 5.397e-10
 75.09290    -53.1 1.034e+04 5.598e-10
 75.12516    -54.2 1.032e+04 5.754e-10
 75.15320    -54.7 1.024e+04 5.780e-10
 75.17464    -54.6 9.727e+03 4.286e-10
 75.21104    -54.7 9.492e+03 3.765e-10
 75.24344    -54.7 9.190e+03 2.918e-10
 75.26489    -54.6 8.786e+03 2.179e-10
 75.29683    -54.3 8.483e+03 1.695e-10
 75.33369    -53.8 8.335e+03 1.418e-10
 75.35514    -53.2 8.324e+03 1.429e-10
 75.38261    -52.3 8.210e+03 1.226e-10
 75.42393    -51.2 8.127e+03 1.075e-10
 75.44538    -50.4 8.132e+03 1.179e-10
 75.46840    -49.1 8.060e+03 1.029e-10
 75.51129    -47.7 7.989e+03 8.866e-11
 75.53563    -46.3 7.938e+03 7.722e-11
 75.55707    -45.4 7.997e+03 8.840e-11
 75.59707    -44.1 7.992e+03 8.247e-11
 75.62587    -42.9 8.000e+03 8.154e-11
 75.64732    -42.2 8.120e+03 1.013e-10
 75.68286    -41.4 8.299e+03 1.112e-10
 75.71612    -40.9 8.495e+03 1.431e-10
 75.73756    -40.3 8.716e+03 1.943e-10
 75.76230    -39.8 8.894e+03 2.418e-10
 75.78374    -40.3 9.150e+03 3.189e-10
 75.80636    -40.2 9.284e+03 3.449e-10
 75.82781    -39.8 9.485e+03 3.913e-10
 75.85442    -40.0 9.507e+03 3.913e-10
 75.89661    -40.8 9.544e+03 3.888e-10
 75.91805    -40.5 9.654e+03 4.246e-10
 75.94021    -41.7 9.888e+03 4.584e-10
 75.98310    -43.2 1.038e+04 5.952e-10
 76.00830    -44.8 1.073e+04 7.138e-10
 76.02975    -44.3 1.069e+04 7.030e-10
 76.06888    -45.9 1.076e+04 7.194e-10
 76.09855    -47.5 1.068e+04 6.256e-10
 76.11999    -46.9 1.055e+04 5.544e-10
 76.15467    -47.9 1.022e+04 4.307e-10
 76.18879    -48.3 9.910e+03 3.340e-10
 76.21024    -47.4 9.932e+03 3.384e-10
 76.24045    -47.3 9.766e+03 2.868e-10
 76.27904    -46.5 9.605e+03 2.320e-10
 76.30048    -45.5 9.738e+03 2.567e-10
 76.32624    -44.6 9.675e+03 2.189e-10
 76.36913    -43.6 9.653e+03 1.912e-10
 76.41202    -42.0 1.010e+04 2.524e-10
 76.45491    -41.1 1.036e+04 2.850e-10
 76.48097    -40.3 1.061e+04 3.545e-10
 76.49160    -40.2 1.072e+04 3.916e-10
 76.50833    -40.2 1.075e+04 4.186e-10
 76.52590    -40.0 1.087e+04 4.870e-10
 76.53663    -40.2 1.097e+04 5.436e-10
 76.55122    -39.9 1.109e+04 5.942e-10
 76.57112    -39.5 1.120e+04 6.282e-10
 76.59267    -39.4 1.123e+04 6.511e-10
 76.62648    -38.9 1.138e+04 6.851e-10
 76.66147    -38.8 1.145e+04 6.952e-10
 76.68291    -39.0 1.137e+04 6.663e-10
 76.70144    -38.9 1.142e+04 6.728e-10
 76.71712    -38.9 1.135e+04 6.555e-10
 76.72784    -39.0 1.129e+04 6.458e-10
 76.75161    -38.7 1.127e+04 6.342e-10
 76.77316    -38.8 1.107e+04 5.915e-10
 76.79805    -38.5 1.090e+04 5.317e-10
 76.84094    -38.2 1.072e+04 4.624e-10
 76.86340    -37.7 1.061e+04 4.085e-10
 76.88485    -37.9 1.025e+04 2.574e-10
 76.92673    -37.6 1.023e+04 2.380e-10
 76.95365    -37.3 1.024e+04 2.344e-10
 76.97509    -37.4 9.858e+03 1.463e-10
 77.01251    -37.1 9.890e+03 1.664e-10
 77.04389    -36.6 9.853e+03 1.884e-10
 77.06534    -36.4 9.575e+03 1.813e-10
 77.09829    -35.9 9.695e+03 2.018e-10
 77.13414    -35.6 9.816e+03 2.133e-10
 77.15559    -35.1 9.813e+03 2.158e-10
 77.18408    -35.3 1.007e+04 2.366e-10
 77.22439    -36.7 1.074e+04 3.460e-10
 77.24583    -37.5 1.097e+04 4.112e-10
 77.26986    -39.8 1.210e+04 8.434e-10
 77.30193    -42.3 1.315e+04 1.706e-09
 77.32328    -44.1 1.392e+04 2.714e-09
 77.33588    -45.5 1.456e+04 3.921e-09
 77.34661    -46.4 1.455e+04 3.926e-09
 77.36617    -47.8 1.492e+04 4.380e-09
 77.38100    -49.8 1.502e+04 4.468e-09
 77.39173    -51.0 1.464e+04 3.635e-09
 77.40907    -53.4 1.429e+04 2.922e-09
 77.42613    -56.2 1.361e+04 2.135e-09
 77.43685    -58.3 1.258e+04 1.394e-09
 77.45196    -61.3 1.194e+04 1.142e-09
 77.47125    -63.8 1.171e+04 1.070e-09
 77.48197    -65.4 1.103e+04 8.048e-10
 77.49485    -67.7 1.127e+04 8.436e-10
 77.51630    -70.1 1.176e+04 9.993e-10
 77.53774    -73.5 1.182e+04 9.711e-10
 77.55818    -75.7 1.214e+04 1.179e-09
 77.56890    -76.8 1.213e+04 1.127e-09
 77.57222    -78.6 1.227e+04 1.278e-09
 77.58294    -79.1 1.154e+04 9.018e-10
 77.60208    -80.7 1.161e+04 9.334e-10
 77.61734    -82.4 1.161e+04 9.371e-10
 77.62806    -82.7 1.109e+04 6.990e-10
 77.64497    -84.2 1.096e+04 6.424e-10
 77.66246    -85.6 1.071e+04 5.414e-10
 77.67319    -85.9 1.049e+04 4.537e-10
 77.69696    -86.9 1.039e+04 4.281e-10
 77.71851    -86.3 9.918e+03 3.300e-10
 77.74167    -86.9 9.790e+03 3.001e-10
 77.78457    -87.2 9.764e+03 2.894e-10
 77.80875    -87.3 9.765e+03 2.862e-10
 77.83020    -86.9 9.772e+03 2.914e-10
 77.87035    -86.6 9.767e+03 2.890e-10
 77.89900    -85.5 9.695e+03 2.699e-10
 77.92044    -85.1 9.736e+03 2.932e-10
 77.95614    -83.7 9.653e+03 2.586e-10
 77.98924    -82.2 9.603e+03 2.285e-10
 78.01069    -81.6 9.780e+03 2.783e-10
 78.04192    -79.9 9.817e+03 2.739e-10
 78.07949    -78.2 1.005e+04 2.794e-10
 78.10093    -78.1 1.041e+04 3.447e-10
 78.11688    -76.8 1.046e+04 3.340e-10
 78.13514    -76.5 1.057e+04 3.546e-10
 78.14586    -76.8 1.087e+04 4.315e-10
 78.15968    -76.4 1.103e+04 4.794e-10
 78.18026    -76.0 1.113e+04 5.251e-10
 78.19098    -76.6 1.145e+04 6.963e-10
 78.20257    -76.0 1.145e+04 7.261e-10
 78.22402    -75.3 1.143e+04 7.323e-10
 78.23611    -74.5 1.135e+04 7.147e-10
 78.24683    -74.8 1.160e+04 8.278e-10
 78.26691    -74.1 1.149e+04 7.563e-10
 78.28123    -73.6 1.137e+04 6.854e-10
 78.29195    -74.2 1.173e+04 7.468e-10
 78.30980    -74.1 1.168e+04 6.994e-10
 78.32635    -74.1 1.168e+04 6.811e-10
 78.33708    -76.1 1.239e+04 9.351e-10
 78.35269    -76.3 1.246e+04 1.024e-09
 78.37148    -76.3 1.251e+04 1.147e-09
 78.38220    -77.9 1.304e+04 1.849e-09
 78.39558    -77.4 1.300e+04 2.009e-09
 78.41660    -76.8 1.297e+04 2.130e-09
 78.42732    -77.5 1.316e+04 2.447e-09
 78.43848    -76.8 1.301e+04 2.292e-09
 78.45621    -76.1 1.289e+04 2.162e-09
 78.46694    -76.2 1.270e+04 2.001e-09
 78.47244    -75.4 1.265e+04 1.945e-09
 78.48317    -76.4 1.243e+04 1.597e-09
 78.50281    -75.8 1.224e+04 1.397e-09
 78.51757    -75.2 1.203e+04 1.196e-09
 78.52829    -77.3 1.197e+04 9.573e-10
 78.54571    -77.2 1.195e+04 9.334e-10
 78.56269    -77.3 1.189e+04 9.123e-10
 78.57341    -81.3 1.263e+04 1.105e-09
 78.58860    -81.6 1.296e+04 1.270e-09
 78.60781    -81.7 1.332e+04 1.531e-09
 78.61854    -84.4 1.411e+04 2.731e-09
 78.63149    -83.9 1.423e+04 3.098e-09
 78.65294    -83.3 1.432e+04 3.340e-09
 78.67438    -84.0 1.433e+04 3.331e-09
 78.69583    -83.2 1.440e+04 3.382e-09
 78.70878    -82.2 1.447e+04 3.344e-09
 78.71950    -83.6 1.353e+04 1.813e-09
 78.73872    -82.6 1.342e+04 1.529e-09
 78.75390    -81.9 1.329e+04 1.286e-09
 78.77545    -86.4 1.115e+04 4.173e-10
 78.81398    -85.3 1.056e+04 3.167e-10
 78.84435    -84.5 9.865e+03 2.669e-10
 78.86579    -88.0 9.106e+03 2.353e-10
 78.89976    -86.1 9.105e+03 2.338e-10
 78.93459    -84.4 9.161e+03 2.365e-10
 78.95604    -86.4 9.193e+03 2.468e-10
 78.98554    -85.4 9.559e+03 3.109e-10
 79.02484    -84.5 1.023e+04 4.685e-10
 79.04628    -86.2 1.014e+04 4.910e-10
 79.07133    -85.2 1.060e+04 6.360e-10
 79.11422    -84.2 1.099e+04 7.717e-10
 79.13653    -83.5 1.116e+04 8.269e-10
 79.15797    -84.4 1.040e+04 5.850e-10
 79.20000    -83.5 1.039e+04 5.858e-10
 79.22677    -82.5 1.039e+04 5.962e-10
 79.24822    -82.1 1.007e+04 4.510e-10
 79.28579    -80.6 1.011e+04 4.598e-10
 79.31702    -78.8 1.015e+04 4.632e-10
 79.33847    -78.0 9.813e+03 3.204e-10
 79.35445    -76.2 9.857e+03 3.202e-10
 79.37589    -76.8 9.883e+03 3.072e-10
 79.40727    -76.0 1.029e+04 3.448e-10
 79.42871    -74.4 9.705e+03 2.045e-10
 79.45736    -74.1 1.089e+04 2.496e-10
 79.48943    -74.0 1.220e+04 2.137e-10
 79.50804    -76.2 1.379e+04 5.161e-10
 79.51886    -73.3 1.286e+04 2.650e-10
 79.53232    -76.3 1.454e+04 6.934e-10
 79.55316    -77.6 1.550e+04 2.350e-09
 79.56388    -76.6 1.531e+04 1.604e-09
 79.57511    -77.5 1.646e+04 4.279e-09
 79.59656    -78.3 1.750e+04 7.770e-09
 79.60901    -80.0 1.810e+04 9.330e-09
 79.61973    -79.6 1.927e+04 1.205e-08
 79.63945    -82.6 1.952e+04 1.274e-08
 79.65413    -86.3 1.901e+04 1.048e-08
 79.65944    -84.8 2.000e+04 1.364e-08
 79.66616    -86.2 1.960e+04 1.167e-08
 79.67659    -88.9 1.830e+04 8.336e-09
 79.68196    -88.4 1.918e+04 1.018e-08
 79.68761    -90.8 1.787e+04 7.379e-09
 79.69833    -92.9 1.643e+04 5.463e-09
 79.70452    -94.3 1.549e+04 4.354e-09
 79.70988    -94.8 1.589e+04 4.886e-09
 79.71978    -95.8 1.540e+04 4.244e-09
 79.72708    -96.4 1.529e+04 3.992e-09
 79.73244    -96.9 1.550e+04 4.186e-09
 79.74433    -97.7 1.495e+04 3.386e-09
 79.75505    -99.2 1.615e+04 4.672e-09
 79.76808   -100.6 1.578e+04 4.148e-09
 79.78950   -102.5 1.492e+04 3.490e-09
 79.81094   -104.4 1.527e+04 4.492e-09
 79.83247   -105.5 1.495e+04 4.311e-09
 79.84534   -106.3 1.488e+04 4.285e-09
 79.85607   -106.6 1.495e+04 4.002e-09
 79.87536   -107.9 1.481e+04 3.555e-09
 79.89047   -109.7 1.484e+04 3.381e-09
 79.90119   -111.6 1.429e+04 2.482e-09
 79.91825   -114.1 1.408e+04 2.402e-09
 79.93559   -116.4 1.387e+04 2.372e-09
 79.94631   -118.2 1.319e+04 2.074e-09
 79.96114   -119.8 1.302e+04 2.084e-09
 79.98071   -120.9 1.271e+04 2.032e-09
 79.99144   -121.9 1.275e+04 1.859e-09
 80.00404   -122.6 1.246e+04 1.559e-09
 80.02548   -123.3 1.211e+04 1.268e-09
 80.03656   -123.9 1.173e+04 1.032e-09
 80.04728   -125.3 1.179e+04 1.043e-09
 80.06837   -125.9 1.144e+04 8.801e-10
 80.08168   -126.2 1.119e+04 7.648e-10
 80.09240   -128.6 1.199e+04 9.885e-10
 80.11127   -128.7 1.196e+04 9.654e-10
 80.12680   -128.7 1.190e+04 9.523e-10
 80.13753   -130.5 1.266e+04 1.597e-09
 80.15416   -130.1 1.235e+04 1.474e-09
 80.17193   -129.6 1.204e+04 1.329e-09
 80.18265   -130.4 1.241e+04 1.649e-09
 80.19705   -129.9 1.209e+04 1.382e-09
 80.21705   -129.4 1.180e+04 1.181e-09
 80.22777   -130.2 1.177e+04 1.146e-09
 80.23994   -129.6 1.150e+04 9.994e-10
 80.25229   -129.0 1.127e+04 8.936e-10
 80.26301   -128.3 1.133e+04 9.229e-10
 80.27290   -127.5 1.116e+04 8.544e-10
 80.28362   -128.2 1.098e+04 6.844e-10
 80.30428   -127.6 1.084e+04 5.729e-10
 80.31802   -127.3 1.064e+04 4.627e-10
 80.32874   -128.1 1.038e+04 3.741e-10
 80.35252   -127.0 1.031e+04 3.601e-10
 80.37406   -127.6 9.455e+03 1.982e-10
 80.40098   -125.8 9.142e+03 1.512e-10
 80.44286   -124.0 8.832e+03 1.132e-10
 80.46431   -124.5 8.647e+03 9.104e-11
 80.48677   -122.7 8.557e+03 8.114e-11
 80.52966   -120.8 8.520e+03 7.822e-11
 80.55455   -118.9 8.519e+03 7.773e-11
 80.57600   -118.7 8.536e+03 8.369e-11
 80.61544   -116.9 8.560e+03 9.435e-11
 80.64480   -115.3 8.572e+03 1.110e-10
 80.66624   -115.0 8.562e+03 1.197e-10
 80.70123   -113.4 8.573e+03 1.327e-10
 80.73504   -112.1 8.604e+03 1.462e-10
 80.75649   -112.2 8.634e+03 1.417e-10
 80.78701   -111.5 8.770e+03 1.671e-10
 80.82529   -111.2 9.029e+03 2.140e-10
 80.84673   -113.0 9.508e+03 2.950e-10
 80.87279   -113.3 9.984e+03 4.523e-10
 80.91553   -113.6 1.033e+04 6.180e-10
 80.94760   -115.0 1.086e+04 9.434e-10
 80.96911   -115.2 1.084e+04 9.449e-10
 80.98191   -115.5 1.057e+04 8.560e-10
 80.99263   -117.1 1.038e+04 7.966e-10
 81.01200   -117.7 9.983e+03 6.205e-10
 81.02703   -118.3 9.633e+03 4.953e-10
 81.03775   -120.0 9.519e+03 4.616e-10
 81.05489   -120.5 9.297e+03 4.042e-10
 81.08716   -120.8 9.111e+03 3.653e-10
 81.11747   -120.4 8.815e+03 3.187e-10
 81.13785   -121.9 8.755e+03 3.206e-10
 81.15052   -121.8 8.851e+03 3.405e-10
 81.17304   -121.1 8.701e+03 3.202e-10
 81.20772   -120.3 8.676e+03 3.172e-10
 81.22916   -121.4 8.534e+03 2.975e-10
 81.25882   -120.5 8.531e+03 3.001e-10
 81.29796   -119.6 8.596e+03 3.138e-10
 81.31941   -120.9 8.311e+03 2.198e-10
 81.34461   -120.4 8.348e+03 2.146e-10
 81.38750   -120.1 8.355e+03 2.070e-10
 81.40965   -119.9 8.287e+03 1.971e-10
 81.43110   -121.2 7.955e+03 1.782e-10
 81.47328   -120.5 7.912e+03 1.786e-10
 81.49990   -119.7 7.827e+03 1.761e-10
 81.52135   -119.8 7.790e+03 1.717e-10
 81.55907   -118.8 7.716e+03 1.624e-10
 81.59014   -117.7 7.620e+03 1.465e-10
 81.61159   -117.9 7.597e+03 1.386e-10
 81.64485   -116.8 7.565e+03 1.300e-10
 81.68039   -115.7 7.571e+03 1.277e-10
 81.70184   -116.6 7.818e+03 1.298e-10
 81.73064   -115.9 7.966e+03 1.460e-10
 81.77064   -115.2 8.137e+03 1.734e-10
 81.79208   -115.9 8.231e+03 2.216e-10
 81.81642   -114.7 8.260e+03 2.484e-10
 81.85931   -113.7 8.352e+03 2.788e-10
 81.88233   -113.3 8.678e+03 3.356e-10
 81.90377   -114.9 9.138e+03 3.199e-10
 81.94510   -116.3 1.028e+04 4.995e-10
 81.97257   -117.5 1.118e+04 8.976e-10
 81.99402   -119.4 1.119e+04 1.188e-09
 82.03088   -119.6 1.141e+04 1.385e-09
 82.06282   -119.9 1.142e+04 1.399e-09
 82.08427   -120.7 1.101e+04 1.070e-09
 82.11666   -121.3 1.040e+04 6.602e-10
 82.15306   -122.3 9.678e+03 3.936e-10
 82.17451   -124.1 9.543e+03 3.954e-10
 82.20245   -124.2 9.132e+03 3.098e-10
 82.24331   -123.6 8.855e+03 2.581e-10
 82.26476   -123.6 9.051e+03 3.609e-10
 82.28823   -122.8 8.845e+03 3.024e-10
 82.33112   -121.9 8.733e+03 2.659e-10
 82.35500   -120.8 8.715e+03 2.505e-10
 82.37645   -120.6 8.743e+03 2.699e-10
 82.41691   -119.5 8.745e+03 2.638e-10
 82.44525   -118.4 8.798e+03 2.640e-10
 82.46669   -118.1 8.756e+03 2.346e-10
 82.50269   -117.0 8.831e+03 2.442e-10
 82.53549   -116.0 8.962e+03 2.647e-10
 82.55694   -115.8 8.854e+03 2.200e-10
 82.58848   -114.8 8.990e+03 2.470e-10
 82.62574   -113.9 9.125e+03 2.745e-10
 82.64718   -113.5 9.051e+03 2.497e-10
 82.67426   -112.5 9.222e+03 2.881e-10
 82.71598   -111.6 9.317e+03 3.026e-10
 82.73743   -111.1 9.374e+03 3.139e-10
 82.76005   -110.1 9.436e+03 3.266e-10
 82.80294   -109.1 9.439e+03 3.232e-10
 82.82768   -108.0 9.417e+03 2.797e-10
 82.84912   -107.4 9.588e+03 3.362e-10
 82.88872   -106.2 9.588e+03 2.963e-10
 82.91792   -105.0 9.607e+03 2.558e-10
 82.93291   -104.6 9.860e+03 3.710e-10
 82.94660   -104.6 9.676e+03 2.912e-10
 82.97451   -103.3 9.716e+03 2.695e-10
 83.00817   -101.9 9.766e+03 2.610e-10
 83.02961   -101.8 1.018e+04 4.131e-10
 83.06029   -100.3 1.032e+04 4.298e-10
 83.09841    -98.8 1.049e+04 4.515e-10
 83.11986    -98.2 1.076e+04 7.102e-10
 83.14607    -96.7 1.084e+04 7.251e-10
 83.18866    -95.2 1.088e+04 7.181e-10
 83.21010    -94.9 1.074e+04 7.844e-10
 83.23186    -93.3 1.074e+04 7.719e-10
 83.27475    -91.9 1.084e+04 7.067e-10
 83.30035    -90.8 1.097e+04 6.741e-10
 83.32180    -90.7 1.069e+04 7.409e-10
 83.36053    -89.6 1.106e+04 9.573e-10
 83.39060    -88.5 1.155e+04 1.235e-09
 83.41204    -88.0 1.128e+04 1.060e-09
 83.44632    -87.0 1.179e+04 1.507e-09
 83.48084    -86.1 1.213e+04 1.782e-09
 83.50229    -84.9 1.159e+04 1.137e-09
 83.53210    -84.1 1.177e+04 1.342e-09
 83.57109    -83.2 1.177e+04 1.374e-09
 83.59253    -82.3 1.128e+04 8.278e-10
 83.61789    -81.1 1.129e+04 8.785e-10
 83.66078    -79.7 1.112e+04 8.484e-10
 83.68278    -78.1 1.083e+04 7.111e-10
 83.70422    -77.2 1.084e+04 7.012e-10
 83.74656    -75.6 1.084e+04 6.852e-10
 83.77302    -74.0 1.076e+04 5.928e-10
 83.79447    -73.6 1.103e+04 7.523e-10
 83.83235    -72.3 1.113e+04 7.609e-10
 83.86327    -71.2 1.125e+04 7.482e-10
 83.88472    -70.6 1.120e+04 1.024e-09
 83.91813    -69.4 1.142e+04 1.078e-09
 83.95352    -68.4 1.172e+04 1.157e-09
 83.97496    -66.8 1.114e+04 8.909e-10
 84.00391    -65.7 1.135e+04 9.306e-10
 84.04376    -64.6 1.151e+04 1.034e-09
 84.06521    -63.8 1.114e+04 5.384e-10
 84.08970    -63.0 1.151e+04 6.967e-10
 84.13259    -62.1 1.172e+04 9.602e-10
 84.15545    -61.0 1.187e+04 1.180e-09
 84.17690    -61.0 1.202e+04 1.349e-09
 84.21838    -59.8 1.213e+04 1.537e-09
 84.24570    -59.0 1.206e+04 1.527e-09
 84.26714    -58.8 1.187e+04 1.426e-09
 84.30416    -57.9 1.150e+04 1.217e-09
 84.33594    -57.1 1.127e+04 1.086e-09
 84.35739    -57.9 1.095e+04 7.937e-10
 84.38994    -57.3 1.079e+04 7.212e-10
 84.42619    -56.5 1.077e+04 6.788e-10
 84.44764    -58.9 1.094e+04 7.377e-10
 84.47573    -58.8 1.108e+04 7.789e-10
 84.51644    -58.5 1.104e+04 8.622e-10
 84.53778    -59.0 1.115e+04 1.333e-09
 84.55059    -58.0 1.102e+04 1.308e-09
 84.57204    -57.4 1.089e+04 1.219e-09
 84.60431    -56.0 1.063e+04 1.032e-09
 84.62813    -53.7 1.004e+04 6.967e-10
 84.64957    -53.9 9.594e+03 3.559e-10
 84.69019    -52.8 9.450e+03 2.440e-10
 84.71837    -51.6 9.415e+03 2.132e-10
 84.72797    -52.6 8.370e+03 1.102e-10
 84.74267    -53.1 8.449e+03 1.071e-10
 84.77597    -51.6 8.575e+03 1.053e-10
 84.80862    -49.8 8.912e+03 1.131e-10
 84.83006    -50.1 8.199e+03 9.509e-11
 84.86176    -48.4 8.344e+03 1.010e-10
 84.89886    -47.0 8.543e+03 1.227e-10
 84.92031    -46.8 8.559e+03 1.421e-10
 84.94754    -45.5 8.856e+03 1.967e-10
 84.98911    -44.0 9.234e+03 3.111e-10
 85.01056    -43.6 9.293e+03 3.391e-10
 85.03332    -41.9 9.610e+03 4.275e-10
 85.07622    -40.2 9.856e+03 4.828e-10
 85.10080    -38.9 9.942e+03 4.898e-10
 85.12225    -39.4 9.523e+03 3.816e-10
 85.16200    -38.5 9.451e+03 3.533e-10
 85.19105    -37.6 9.446e+03 3.441e-10
 85.21249    -37.4 9.310e+03 3.203e-10
 85.24778    -36.2 9.409e+03 3.366e-10
 85.28129    -35.0 9.605e+03 3.696e-10
 85.30274    -34.8 9.636e+03 3.491e-10
 85.33357    -33.9 9.869e+03 4.091e-10
 85.37154    -33.0 1.010e+04 4.942e-10
 85.39298    -32.9 1.023e+04 5.298e-10
 85.41935    -32.9 1.086e+04 7.213e-10
 85.45142    -35.4 1.235e+04 1.236e-09
 85.47231    -36.4 1.307e+04 1.664e-09
 85.48303    -38.2 1.406e+04 2.764e-09
 85.49422    -38.6 1.451e+04 4.230e-09
 85.51566    -38.0 1.449e+04 5.308e-09
 85.52816    -37.1 1.448e+04 5.587e-09
 85.53888    -36.0 1.475e+04 6.730e-09
 85.55856    -35.3 1.435e+04 5.448e-09
 85.57328    -35.2 1.400e+04 3.749e-09
 85.58400    -35.4 1.423e+04 2.694e-09
 85.60145    -39.6 1.353e+04 1.652e-09
 85.61840    -43.0 1.196e+04 1.081e-09
 85.62530    -45.6 1.041e+04 6.702e-10
 85.62979    -44.3 1.085e+04 8.338e-10
 85.64434    -45.2 1.033e+04 7.042e-10
 85.66353    -45.5 1.014e+04 6.373e-10
 85.67425    -46.5 9.993e+03 5.078e-10
 85.68723    -47.4 1.023e+04 5.015e-10
 85.70865    -49.4 1.125e+04 5.605e-10
 85.73009    -57.0 1.340e+04 1.280e-09
 85.75157    -58.4 1.295e+04 1.795e-09
 85.76449    -59.1 1.299e+04 2.530e-09
 85.77522    -61.2 1.374e+04 2.870e-09
 85.79446    -62.4 1.537e+04 3.570e-09
 85.80962    -65.4 1.750e+04 4.656e-09
 85.82034    -71.9 1.631e+04 3.517e-09
 85.83735    -76.4 1.603e+04 4.105e-09
 85.85474    -80.0 1.648e+04 5.170e-09
 85.86546    -84.0 1.450e+04 2.917e-09
 85.88025    -86.7 1.514e+04 2.889e-09
 85.89986    -89.8 1.558e+04 2.621e-09
 85.91059    -94.9 1.195e+04 1.355e-09
 85.92314    -97.4 1.147e+04 1.148e-09
 85.94458    -99.2 1.109e+04 9.889e-10
 85.95571   -100.4 1.080e+04 8.630e-10
 85.96643   -101.8 1.012e+04 7.171e-10
 85.98748   -102.6 9.900e+03 6.217e-10
 86.00083   -103.2 9.840e+03 5.743e-10
 86.01155   -104.8 9.813e+03 5.572e-10
 86.03037   -107.5 1.004e+04 5.607e-10
 86.04595   -117.0 1.504e+04 6.966e-10
 86.05668   -123.5 1.637e+04 1.365e-09
 86.07326   -130.5 1.788e+04 4.880e-09
 86.09108   -133.9 1.851e+04 1.131e-08
 86.10180   -135.0 1.766e+04 1.013e-08
 86.11615   -137.4 1.780e+04 1.156e-08
 86.13620   -140.0 1.761e+04 1.099e-08
 86.14692   -142.2 1.622e+04 6.820e-09
 86.15905   -145.6 1.501e+04 4.161e-09
 86.18049   -149.3 1.351e+04 2.451e-09
 86.19205   -152.1 1.232e+04 1.627e-09
 86.20277   -152.6 1.178e+04 1.418e-09
 86.22338   -153.2 1.156e+04 1.210e-09
 86.23717   -153.5 1.139e+04 1.041e-09
 86.24789   -153.1 1.130e+04 1.064e-09
 86.26628   -153.3 1.115e+04 9.375e-10
 86.28229   -153.4 1.101e+04 8.221e-10
 86.29301   -153.0 1.095e+04 8.563e-10
 86.30917   -152.9 1.084e+04 7.587e-10
 86.32741   -152.8 1.071e+04 6.704e-10
 86.33814   -152.3 1.065e+04 6.850e-10
 86.35206   -152.1 1.054e+04 5.968e-10
 86.37254   -151.9 1.042e+04 5.281e-10
 86.38326   -151.3 1.032e+04 5.053e-10
 86.39495   -151.1 1.024e+04 4.424e-10
 86.41640   -151.0 1.021e+04 4.060e-10
 86.42838   -151.0 1.018e+04 3.922e-10
 86.43911   -150.5 1.002e+04 3.371e-10
 86.45929   -150.6 9.974e+03 3.283e-10
 86.47351   -150.8 9.966e+03 3.257e-10
 86.48423   -150.6 9.848e+03 2.847e-10
 86.50218   -150.9 9.892e+03 2.949e-10
 86.51711   -151.3 1.010e+04 3.385e-10
 86.52283   -152.2 1.101e+04 5.515e-10
 86.52935   -152.0 1.049e+04 4.183e-10
 86.54507   -152.5 1.075e+04 5.393e-10
 86.56375   -152.7 1.098e+04 6.856e-10
 86.57447   -152.3 1.065e+04 5.471e-10
 86.58797   -152.3 1.090e+04 6.921e-10
 86.60887   -152.2 1.106e+04 8.221e-10
 86.61960   -151.7 1.088e+04 6.832e-10
 86.63086   -151.5 1.095e+04 7.788e-10
 86.65230   -151.3 1.094e+04 8.074e-10
 86.66472   -151.0 1.086e+04 8.020e-10
 86.67544   -150.6 1.081e+04 7.383e-10
 86.69520   -150.2 1.066e+04 7.063e-10
 86.70984   -149.8 1.048e+04 6.386e-10
 86.72057   -149.4 1.053e+04 6.438e-10
 86.73809   -149.1 1.036e+04 5.608e-10
 86.75497   -148.9 1.023e+04 4.811e-10
 86.76569   -148.6 1.043e+04 5.325e-10
 86.78098   -148.4 1.027e+04 4.584e-10
 86.80009   -148.3 1.017e+04 4.084e-10
 86.81081   -148.1 1.040e+04 4.790e-10
 86.82387   -148.1 1.028e+04 4.343e-10
 86.84521   -148.2 1.026e+04 4.167e-10
 86.85593   -148.1 1.048e+04 4.964e-10
 86.86676   -148.4 1.047e+04 4.909e-10
 86.88821   -149.1 1.053e+04 4.939e-10
 86.90106   -150.1 1.082e+04 5.641e-10
 86.91178   -150.3 1.104e+04 6.741e-10
 86.93110   -151.4 1.142e+04 8.406e-10
 86.94618   -152.6 1.181e+04 1.060e-09
 86.95690   -152.8 1.202e+04 1.171e-09
 86.97399   -154.2 1.227e+04 1.345e-09
 86.99130   -155.7 1.238e+04 1.437e-09
 87.00203   -156.1 1.239e+04 1.427e-09
 87.01689   -157.6 1.233e+04 1.425e-09
 87.03643   -158.8 1.209e+04 1.324e-09
 87.04715   -158.8 1.199e+04 1.226e-09
 87.05978   -159.7 1.169e+04 1.050e-09
 87.08122   -160.8 1.116e+04 7.983e-10
 87.09227   -161.2 1.097e+04 6.865e-10
 87.10309   -161.2 1.080e+04 6.044e-10
 87.13503   -161.9 1.008e+04 3.575e-10
 87.17199   -162.4 9.689e+03 2.429e-10
 87.19344   -161.9 9.733e+03 2.365e-10
 87.22082   -161.5 9.326e+03 1.656e-10
 87.26223   -160.5 9.075e+03 1.273e-10
 87.28368   -159.9 9.061e+03 1.199e-10
 87.30660   -158.9 8.975e+03 9.972e-11
 87.34950   -158.0 8.979e+03 9.046e-11
 87.37393   -157.2 8.990e+03 8.795e-11
 87.39537   -156.6 9.015e+03 8.402e-11
 87.43528   -155.9 9.037e+03 8.397e-11
 87.46417   -155.3 9.136e+03 8.998e-11
 87.48562   -154.8 9.174e+03 8.993e-11
 87.52106   -154.3 9.266e+03 1.033e-10
 87.55442   -153.9 9.349e+03 1.161e-10
 87.57586   -153.4 9.399e+03 1.175e-10
 87.60685   -153.4 9.516e+03 1.279e-10
 87.64466   -153.6 9.688e+03 1.438e-10
 87.66611   -153.0 9.716e+03 1.503e-10
 87.69263   -153.3 9.928e+03 1.851e-10
 87.73491   -153.9 1.021e+04 2.391e-10
 87.75636   -153.0 1.021e+04 2.408e-10
 87.77842   -153.9 1.044e+04 2.979e-10
 87.82131   -155.1 1.052e+04 3.300e-10
 87.84660   -156.3 1.052e+04 3.358e-10
 87.86805   -155.5 1.053e+04 3.346e-10
 87.90709   -156.7 1.046e+04 3.148e-10
 87.93685   -157.5 1.047e+04 2.698e-10
 87.95829   -157.4 1.068e+04 3.224e-10
 87.99288   -157.9 1.057e+04 2.742e-10
 88.02709   -158.3 1.048e+04 2.386e-10
 88.04854   -158.2 1.061e+04 2.812e-10
 88.07866   -158.5 1.056e+04 2.540e-10
 88.11734   -158.8 1.055e+04 2.496e-10
 88.13878   -158.8 1.068e+04 2.813e-10
 88.16444   -159.1 1.073e+04 2.820e-10
 88.20734   -159.4 1.086e+04 3.058e-10
 88.22903   -159.8 1.099e+04 3.473e-10
 88.25048   -159.7 1.116e+04 3.770e-10
 88.29193   -160.2 1.133e+04 4.479e-10
 88.31338   -161.1 1.115e+04 3.841e-10
 88.31927   -161.4 1.117e+04 3.911e-10
 88.34072   -161.1 1.132e+04 4.657e-10
 88.37890   -161.2 1.131e+04 4.677e-10
 88.40952   -161.2 1.130e+04 4.663e-10
 88.43097   -160.7 1.137e+04 5.906e-10
 88.46469   -160.7 1.136e+04 5.863e-10
 88.49977   -160.7 1.153e+04 6.700e-10
 88.52121   -160.1 1.145e+04 6.880e-10
 88.55047   -160.2 1.188e+04 9.155e-10
 88.59001   -160.4 1.243e+04 1.313e-09
 88.61146   -159.7 1.194e+04 1.040e-09
 88.63626   -160.2 1.233e+04 1.368e-09
 88.67915   -160.7 1.246e+04 1.533e-09
 88.70170   -161.0 1.245e+04 1.562e-09
 88.72315   -159.8 1.182e+04 1.118e-09
 88.76493   -159.6 1.170e+04 1.107e-09
 88.79195   -159.1 1.137e+04 9.460e-10
 88.81340   -157.7 1.100e+04 7.373e-10
 88.85072   -157.1 1.083e+04 6.440e-10
 88.88219   -156.6 1.075e+04 5.555e-10
 88.90364   -155.1 1.058e+04 4.913e-10
 88.93650   -154.8 1.058e+04 4.632e-10
 88.97244   -154.5 1.061e+04 4.470e-10
 88.99389   -152.9 1.051e+04 4.321e-10
 89.02229   -152.7 1.055e+04 4.245e-10
 89.06269   -152.4 1.051e+04 4.002e-10
 89.08413   -150.6 1.051e+04 4.199e-10
 89.10807   -150.3 1.041e+04 3.814e-10
 89.15096   -149.6 1.021e+04 3.158e-10
 89.17438   -148.5 1.000e+04 2.437e-10
 89.19582   -147.0 1.006e+04 2.708e-10
 89.23675   -145.9 9.866e+03 2.001e-10
 89.26462   -144.7 9.725e+03 1.454e-10
 89.28607   -143.3 9.751e+03 1.645e-10
 89.32253   -142.2 9.650e+03 1.214e-10
 89.35487   -141.1 9.596e+03 9.276e-11
 89.37631   -139.8 9.599e+03 1.059e-10
 89.40831   -138.7 9.561e+03 8.368e-11
 89.44511   -137.5 9.540e+03 6.845e-11
 89.46656   -136.2 9.537e+03 7.608e-11
 89.49410   -135.1 9.523e+03 6.292e-11
 89.53536   -133.8 9.514e+03 5.511e-11
 89.55681   -132.7 9.547e+03 5.950e-11
 89.57988   -131.4 9.573e+03 5.629e-11
 89.62277   -130.3 9.584e+03 5.584e-11
 89.64705   -129.4 9.732e+03 5.621e-11
 89.66850   -129.0 9.979e+03 7.109e-11
 89.70856   -128.7 1.004e+04 9.954e-11
 89.73730   -128.2 1.008e+04 1.445e-10
 89.75874   -127.9 1.033e+04 2.471e-10
 89.79434   -127.4 1.047e+04 3.205e-10
 89.82754   -127.0 1.059e+04 3.767e-10
 89.84899   -126.8 1.086e+04 4.762e-10
 89.88013   -126.6 1.085e+04 4.700e-10
 89.91779   -126.3 1.079e+04 4.353e-10
 89.93923   -126.3 1.078e+04 4.105e-10
 89.96591   -126.0 1.066e+04 3.536e-10
 90.00803   -125.7 1.055e+04 3.166e-10
 90.02948   -125.4 1.044e+04 2.323e-10
 90.05169   -125.0 1.035e+04 2.182e-10
 90.08801   -124.8 1.033e+04 2.138e-10
 90.10946   -125.5 1.021e+04 1.927e-10
 90.11973   -125.2 1.021e+04 1.951e-10
 90.14117   -125.0 1.023e+04 1.490e-10
 90.18037   -124.9 1.028e+04 1.664e-10
 90.20997   -124.8 1.031e+04 1.765e-10
 90.23142   -124.5 1.029e+04 1.389e-10
 90.26615   -124.4 1.028e+04 1.394e-10
 90.30022   -124.0 1.017e+04 1.299e-10
 90.32166   -123.6 1.012e+04 1.075e-10
 90.35194   -123.1 1.001e+04 9.706e-11
 90.39046   -122.5 9.924e+03 9.085e-11
 90.41191   -122.0 9.945e+03 8.592e-11
 90.43772   -121.2 9.925e+03 8.536e-11
 90.48062   -120.3 9.875e+03 8.794e-11
 90.52351   -118.9 1.001e+04 9.536e-11
 90.56640   -118.1 1.010e+04 1.025e-10
 90.59240   -117.3 1.015e+04 1.138e-10
 90.61385   -117.1 1.024e+04 1.316e-10
 90.65218   -116.4 1.029e+04 1.599e-10
 90.68265   -115.8 1.036e+04 1.989e-10
 90.70409   -115.5 1.039e+04 2.291e-10
 90.73797   -115.3 1.042e+04 2.604e-10
 90.77289   -115.2 1.039e+04 2.716e-10
 90.79434   -115.1 1.039e+04 2.954e-10
 90.82375   -114.8 1.011e+04 2.780e-10
 90.86314   -114.3 9.827e+03 2.152e-10
 90.88458   -114.0 9.763e+03 2.136e-10
 90.90954   -113.2 9.515e+03 1.447e-10
 90.95243   -112.2 9.358e+03 9.666e-11
 90.97483   -111.3 9.274e+03 6.864e-11
 90.99627   -111.0 9.269e+03 6.803e-11
 91.03821   -110.0 9.210e+03 5.368e-11
 91.06507   -108.8 9.150e+03 4.640e-11
 91.08652   -108.3 9.115e+03 4.972e-11
 91.12400   -107.0 9.046e+03 4.433e-11
 91.15532   -105.5 8.983e+03 4.094e-11
 91.17677   -104.8 8.969e+03 4.199e-11
 91.20978   -103.2 8.928e+03 3.950e-11
 91.24557   -101.6 8.920e+03 3.896e-11
 91.26701   -100.8 8.953e+03 3.935e-11
 91.29556    -99.3 8.963e+03 3.934e-11
 91.33581    -98.2 9.094e+03 4.446e-11
 91.35726    -97.4 9.090e+03 4.661e-11
 91.38135    -96.5 9.222e+03 7.255e-11
 91.42424    -95.6 9.344e+03 1.224e-10
 91.44750    -94.6 9.505e+03 1.833e-10
 91.46895    -93.5 9.624e+03 2.348e-10
 91.51002    -92.5 9.791e+03 3.020e-10
 91.53775    -91.9 9.833e+03 3.184e-10
 91.55919    -90.6 1.000e+04 3.629e-10
 91.59581    -89.8 9.927e+03 3.469e-10
 91.62799    -88.7 9.648e+03 2.459e-10
 91.64944    -87.9 9.789e+03 2.549e-10
 91.68159    -86.9 9.505e+03 1.662e-10
 91.71824    -86.1 9.297e+03 1.171e-10
 91.73969    -85.6 9.476e+03 1.459e-10
 91.76738    -84.6 9.349e+03 1.218e-10
 91.80849    -83.5 9.270e+03 1.145e-10
 91.82993    -83.0 9.356e+03 1.522e-10
 91.85316    -81.7 9.228e+03 1.365e-10
 91.88409    -80.4 9.160e+03 1.260e-10
 91.90553    -80.4 9.181e+03 1.206e-10
 91.92018    -79.1 9.158e+03 1.135e-10
 91.94162    -78.3 9.108e+03 1.000e-10
 91.98184    -77.4 9.109e+03 8.933e-11
 92.01042    -76.4 9.114e+03 8.752e-11
 92.03187    -75.7 9.039e+03 7.811e-11
 92.06762    -74.8 9.109e+03 8.356e-11
 92.10067    -73.8 9.172e+03 9.569e-11
 92.12211    -72.9 9.148e+03 9.650e-11
 92.15341    -71.6 9.145e+03 1.024e-10
 92.19091    -70.3 9.132e+03 1.027e-10
 92.21236    -69.2 9.153e+03 1.073e-10
 92.23919    -67.7 9.055e+03 9.608e-11
 92.28116    -66.2 8.980e+03 7.981e-11
 92.30261    -65.1 9.042e+03 8.642e-11
 92.32497    -63.8 8.996e+03 7.425e-11
 92.36787    -62.4 8.966e+03 7.044e-11
 92.39285    -60.9 8.958e+03 6.985e-11
 92.41430    -59.8 9.034e+03 7.887e-11
 92.45365    -58.4 9.042e+03 8.047e-11
 92.48310    -56.9 9.051e+03 8.720e-11
 92.50454    -55.8 9.125e+03 1.030e-10
 92.53943    -54.2 9.130e+03 1.111e-10
 92.57334    -52.6 9.134e+03 1.144e-10
 92.59479    -51.6 9.203e+03 1.350e-10
 92.62522    -49.9 9.176e+03 1.309e-10
 92.66359    -48.3 9.170e+03 1.238e-10
 92.68503    -47.6 9.251e+03 1.414e-10
 92.71100    -46.3 9.274e+03 1.397e-10
 92.75383    -45.8 9.510e+03 1.529e-10
 92.79673    -45.2 1.009e+04 3.075e-10
 92.83968    -44.6 1.052e+04 5.273e-10
 92.86543    -44.4 1.065e+04 7.600e-10
 92.87605    -44.0 1.050e+04 6.884e-10
 92.89310    -43.6 1.079e+04 7.870e-10
 92.92536    -43.5 1.104e+04 8.504e-10
 92.95577    -43.9 1.105e+04 8.172e-10
 92.97722    -43.8 1.076e+04 6.765e-10
 93.00043    -44.0 1.029e+04 5.123e-10
 93.01142    -44.0 1.024e+04 4.667e-10
 93.02214    -44.1 1.022e+04 4.468e-10
 93.04322    -44.6 1.020e+04 4.234e-10
 93.05654    -44.8 1.030e+04 4.383e-10
 93.06727    -44.2 1.002e+04 3.889e-10
 93.08611    -44.7 1.012e+04 4.202e-10
 93.10167    -45.1 1.028e+04 4.535e-10
 93.11239    -45.0 1.037e+04 4.730e-10
 93.12900    -45.9 1.068e+04 5.736e-10
 93.14679    -47.0 1.105e+04 7.383e-10
 93.15751    -47.6 1.153e+04 1.011e-09
 93.17190    -48.3 1.192e+04 1.371e-09
 93.19191    -48.9 1.221e+04 1.745e-09
 93.20264    -49.0 1.262e+04 2.292e-09
 93.21479    -49.1 1.269e+04 2.493e-09
 93.23623    -49.2 1.268e+04 2.530e-09
 93.24776    -49.5 1.258e+04 2.294e-09
 93.25848    -49.4 1.249e+04 2.081e-09
 93.27913    -50.3 1.211e+04 1.680e-09
 93.31139    -51.6 1.170e+04 1.348e-09
 93.33820    -52.4 1.139e+04 1.136e-09
 93.34882    -52.3 1.107e+04 1.006e-09
 93.36491    -52.4 1.107e+04 9.769e-10
 93.38313    -52.6 1.098e+04 9.366e-10
 93.39385    -53.0 1.102e+04 9.410e-10
 93.40780    -53.0 1.096e+04 9.268e-10
 93.42825    -53.0 1.090e+04 9.165e-10
 93.43897    -52.8 1.083e+04 8.960e-10
 93.45069    -52.7 1.087e+04 9.050e-10
 93.47214    -52.6 1.095e+04 9.312e-10
 93.48410    -52.5 1.110e+04 9.769e-10
 93.49482    -52.9 1.126e+04 1.032e-09
 93.51503    -53.0 1.141e+04 1.106e-09
 93.52922    -53.1 1.156e+04 1.199e-09
 93.53994    -53.5 1.168e+04 1.290e-09
 93.55792    -53.4 1.174e+04 1.367e-09
 93.57434    -53.2 1.179e+04 1.422e-09
 93.58506    -53.6 1.179e+04 1.436e-09
 93.60082    -53.2 1.178e+04 1.395e-09
 93.61946    -52.9 1.175e+04 1.296e-09
 93.63019    -52.8 1.126e+04 1.055e-09
 93.65453    -52.9 1.097e+04 8.131e-10
 93.68016    -52.2 1.073e+04 6.668e-10
 93.70161    -51.9 1.148e+04 1.137e-09
 93.72063    -51.1 1.084e+04 8.007e-10
 93.74207    -51.2 1.037e+04 6.053e-10
 93.78330    -50.1 9.997e+03 5.048e-10
 93.81087    -48.4 9.886e+03 4.794e-10
 93.83232    -47.8 9.858e+03 4.837e-10
 93.86909    -45.8 9.954e+03 5.048e-10
 93.90112    -43.6 1.010e+04 5.527e-10
 93.92257    -43.0 1.024e+04 5.868e-10
 93.95487    -40.8 1.048e+04 6.640e-10
 93.99136    -38.7 1.077e+04 7.726e-10
 94.01281    -38.2 1.107e+04 8.508e-10
 94.04066    -36.1 1.138e+04 9.708e-10
 94.08161    -33.8 1.172e+04 1.149e-09
 94.10296    -33.3 1.202e+04 1.311e-09
 94.11552    -31.8 1.238e+04 1.530e-09
 94.13697    -30.8 1.281e+04 1.804e-09
 94.14798    -30.1 1.327e+04 2.179e-09
 94.15871    -30.1 1.362e+04 2.446e-09
 94.17986    -29.5 1.420e+04 3.100e-09
 94.19311    -28.9 1.525e+04 4.446e-09
 94.20383    -29.3 1.586e+04 5.187e-09
 94.22275    -29.5 1.726e+04 8.455e-09
 94.23823    -29.9 1.875e+04 1.531e-08
 94.24895    -31.5 1.959e+04 1.828e-08
 94.26023    -31.7 2.037e+04 3.278e-08
 94.26605    -32.0 2.076e+04 4.645e-08
 94.27142    -32.8 2.060e+04 4.794e-08
 94.28163    -32.9 2.087e+04 6.114e-08
 94.28862    -33.3 2.098e+04 7.034e-08
 94.29398    -34.0 2.077e+04 5.941e-08
 94.30308    -34.7 2.083e+04 6.075e-08
 94.31118    -35.5 2.064e+04 5.771e-08
 94.31654    -35.8 2.067e+04 4.854e-08
 94.32452    -36.2 2.058e+04 4.053e-08
 94.33374    -36.8 2.081e+04 3.274e-08
 94.33910    -38.0 2.098e+04 2.332e-08
 94.35138    -40.7 2.026e+04 1.610e-08
 94.37287    -43.4 1.916e+04 1.222e-08
 94.38432    -44.9 1.819e+04 1.023e-08
 94.39504    -44.9 1.708e+04 7.411e-09
 94.41577    -45.1 1.667e+04 6.697e-09
 94.42944    -44.7 1.645e+04 6.046e-09
 94.44017    -45.0 1.584e+04 4.056e-09
 94.45866    -44.9 1.567e+04 3.507e-09
 94.47457    -45.1 1.561e+04 3.053e-09
 94.48529    -46.6 1.542e+04 2.288e-09
 94.50155    -47.8 1.605e+04 2.328e-09
 94.51969    -49.2 1.652e+04 2.756e-09
 94.53041    -51.1 1.552e+04 2.866e-09
 94.54444    -51.3 1.473e+04 3.528e-09
 94.56481    -50.6 1.414e+04 3.733e-09
 94.57554    -51.0 1.351e+04 3.500e-09
 94.57800    -49.8 1.337e+04 2.946e-09
 94.58873    -48.1 1.454e+04 3.592e-09
 94.60878    -48.0 1.459e+04 2.458e-09
 94.62066    -48.2 1.474e+04 1.486e-09
 94.63138    -51.6 1.325e+04 8.480e-10
 94.65167    -52.7 1.303e+04 5.416e-10
 94.66578    -53.1 1.268e+04 4.149e-10
 94.67650    -54.8 1.068e+04 3.473e-10
 94.69456    -54.1 1.058e+04 3.219e-10
 94.71090    -53.1 1.057e+04 3.175e-10
 94.72163    -52.8 1.057e+04 3.182e-10
 94.73746    -51.9 1.063e+04 3.184e-10
 94.75612    -50.8 1.063e+04 3.137e-10
 94.77767    -50.0 1.036e+04 2.815e-10
 94.81271    -47.6 1.032e+04 2.633e-10
 94.84647    -45.3 1.030e+04 2.443e-10
 94.86791    -44.6 1.016e+04 2.004e-10
 94.89850    -42.4 1.022e+04 1.872e-10
 94.93671    -40.1 1.030e+04 1.741e-10
 94.95816    -40.0 1.035e+04 1.894e-10
 94.98428    -38.0 1.043e+04 1.892e-10
 95.02696    -36.1 1.050e+04 1.945e-10
 95.04840    -36.1 1.058e+04 2.789e-10
 95.07006    -34.1 1.067e+04 2.918e-10
 95.11296    -32.2 1.072e+04 3.004e-10
 95.13865    -30.4 1.077e+04 3.049e-10
 95.16010    -29.9 1.083e+04 3.130e-10
 95.19874    -28.5 1.098e+04 2.956e-10
 95.22890    -27.7 1.134e+04 3.090e-10
 95.25034    -28.7 1.156e+04 3.331e-10
 95.27370    -27.7 1.165e+04 3.701e-10
 95.28455    -27.5 1.163e+04 3.782e-10
 95.29527    -28.2 1.207e+04 4.512e-10
 95.31650    -27.8 1.229e+04 5.777e-10
 95.32967    -27.9 1.252e+04 6.268e-10
 95.34039    -28.9 1.314e+04 1.138e-09
 95.35939    -28.7 1.320e+04 1.257e-09
 95.37479    -28.3 1.318e+04 1.276e-09
 95.38552    -28.6 1.340e+04 2.347e-09
 95.40228    -28.5 1.346e+04 2.114e-09
 95.41992    -28.8 1.349e+04 1.831e-09
 95.43064    -29.1 1.358e+04 3.079e-09
 95.44518    -29.7 1.335e+04 2.819e-09
 95.46504    -29.8 1.305e+04 2.562e-09
 95.47446    -29.0 1.339e+04 3.393e-09
 95.47604    -29.1 1.351e+04 3.599e-09
 95.48807    -28.8 1.323e+04 3.146e-09
 95.50951    -28.5 1.296e+04 2.565e-09
 95.52088    -28.4 1.260e+04 1.993e-09
 95.54243    -27.9 1.282e+04 2.158e-09
 95.58477    -27.8 1.204e+04 1.392e-09
 95.61132    -26.7 1.121e+04 7.966e-10
 95.63277    -26.3 1.105e+04 6.123e-10
 95.67055    -25.3 1.051e+04 3.345e-10
 95.70157    -24.4 1.008e+04 2.313e-10
 95.72302    -23.8 1.010e+04 2.203e-10
 95.75634    -22.7 9.754e+03 1.931e-10
 95.79182    -21.4 9.541e+03 1.862e-10
 95.81326    -20.3 9.754e+03 2.067e-10
 95.84212    -18.7 9.577e+03 2.057e-10
 95.88206    -17.0 9.410e+03 2.022e-10
 95.90351    -15.8 9.417e+03 1.878e-10
 95.92791    -13.7 9.203e+03 1.518e-10
 95.97080    -11.8 9.088e+03 1.128e-10
 95.99375    -10.1 9.009e+03 8.857e-11
 96.01520     -9.0 8.880e+03 6.743e-11
 96.05658     -7.0 8.728e+03 5.774e-11
 96.08400     -4.6 8.650e+03 5.102e-11
 96.10544     -3.4 8.712e+03 3.473e-11
 96.14237     -1.1 8.775e+03 2.807e-11
 96.17424      1.1 8.826e+03 2.369e-11
 96.19569      2.0 8.568e+03 2.258e-11
 96.22815      4.0 8.659e+03 2.137e-11
 96.26449      5.6 8.687e+03 2.413e-11
 96.28594      6.6 8.594e+03 2.761e-11
 96.31393      8.7 8.599e+03 3.615e-11
 96.35474     10.9 8.614e+03 5.226e-11
 96.37618     12.2 8.619e+03 5.649e-11
 96.39972     14.9 8.622e+03 7.240e-11
 96.44261     17.4 8.676e+03 7.560e-11
 96.46643     20.1 8.689e+03 7.076e-11
 96.48787     21.1 8.594e+03 6.925e-11
 96.52839     23.7 8.603e+03 5.511e-11
 96.55667     26.0 8.719e+03 4.239e-11
 96.57812     27.1 8.560e+03 3.955e-11
 96.61418     29.1 8.647e+03 2.910e-11
 96.64692     31.2 8.627e+03 2.812e-11
 96.66836     32.2 8.533e+03 2.452e-11
 96.69996     34.4 8.538e+03 2.482e-11
 96.73716     36.5 8.608e+03 2.738e-11
 96.75861     37.4 8.559e+03 2.707e-11
 96.78575     39.6 8.561e+03 3.321e-11
 96.82741     42.0 8.538e+03 4.288e-11
 96.84886     42.9 8.554e+03 4.477e-11
 96.87153     45.5 8.582e+03 5.286e-11
 96.91442     48.1 8.609e+03 5.382e-11
 96.93910     50.7 8.591e+03 5.195e-11
 96.96055     51.6 8.566e+03 5.035e-11
 97.00021     54.3 8.542e+03 4.238e-11
 97.02935     56.8 8.533e+03 3.295e-11
 97.05079     57.6 8.518e+03 3.241e-11
 97.08599     60.0 8.532e+03 2.541e-11
 97.11959     62.3 8.557e+03 2.023e-11
 97.14104     62.9 8.513e+03 2.363e-11
 97.17178     65.3 8.514e+03 2.102e-11
 97.20984     67.7 8.508e+03 1.997e-11
 97.23128     68.6 8.512e+03 2.610e-11
 97.25087     71.2 8.517e+03 2.607e-11
 97.27231     71.1 8.561e+03 2.649e-11
 97.30008     73.7 8.569e+03 2.653e-11
 97.32153     74.4 8.680e+03 3.715e-11
 97.34334     76.9 8.726e+03 3.772e-11
 97.38624     79.4 8.757e+03 3.952e-11
 97.41178     81.8 8.787e+03 4.278e-11
 97.43322     82.3 8.925e+03 6.109e-11
 97.47202     84.8 8.957e+03 6.698e-11
 97.50202     87.2 9.016e+03 7.492e-11
 97.52347     87.7 9.156e+03 9.678e-11
 97.55780     90.2 9.277e+03 1.040e-10
 97.59227     92.6 9.373e+03 1.108e-10
 97.61371     92.8 9.384e+03 1.102e-10
 97.64359     95.1 9.417e+03 1.132e-10
 97.68251     97.3 9.421e+03 1.153e-10
 97.70396     97.5 9.321e+03 1.048e-10
 97.72937     99.6 9.289e+03 1.092e-10
 97.77226    101.9 9.283e+03 1.154e-10
 97.79420    104.1 9.290e+03 1.228e-10
 97.81565    104.5 9.188e+03 1.138e-10
 97.85805    106.8 9.225e+03 1.255e-10
 97.88445    109.2 9.276e+03 1.382e-10
 97.90590    109.6 9.201e+03 1.286e-10
 97.94383    112.0 9.281e+03 1.463e-10
 97.97470    114.3 9.361e+03 1.671e-10
 97.99614    114.8 9.317e+03 1.641e-10
 98.02962    117.2 9.426e+03 1.937e-10
 98.06494    119.5 9.549e+03 2.319e-10
 98.08639    120.1 9.533e+03 2.288e-10
 98.11540    122.5 9.687e+03 2.760e-10
 98.15519    124.8 9.873e+03 3.349e-10
 98.17663    125.4 9.744e+03 2.958e-10
 98.20118    127.8 9.921e+03 3.519e-10
 98.24408    130.0 1.012e+04 4.203e-10
 98.26688    132.1 1.031e+04 4.692e-10
 98.28832    132.7 1.008e+04 3.664e-10
 98.32986    134.6 1.012e+04 3.768e-10
 98.35712    136.4 1.010e+04 3.724e-10
 98.37857    137.0 9.909e+03 3.014e-10
 98.41565    138.9 9.883e+03 2.978e-10
 98.44737    140.7 9.777e+03 2.806e-10
 98.46882    141.5 9.834e+03 2.778e-10
 98.50143    143.5 9.698e+03 2.552e-10
 98.53762    145.5 9.521e+03 2.176e-10
 98.55906    146.4 9.840e+03 2.700e-10
 98.58721    148.4 9.624e+03 2.207e-10
 98.62786    150.3 9.365e+03 1.753e-10
 98.64931    151.1 9.996e+03 3.111e-10
 98.67300    153.1 9.698e+03 2.322e-10
 98.71589    155.1 9.396e+03 1.704e-10
 98.73955    157.2 9.093e+03 1.388e-10
 98.76100    157.9 9.824e+03 2.703e-10
 98.80167    159.9 9.477e+03 2.118e-10
 98.82980    162.1 9.325e+03 2.053e-10
 98.85124    162.7 1.001e+04 3.473e-10
 98.88746    164.8 9.689e+03 3.055e-10
 98.92004    167.0 9.631e+03 3.077e-10
 98.94149    167.6 9.994e+03 4.173e-10
 98.97324    169.8 9.797e+03 3.991e-10
 99.01029    172.2 9.798e+03 4.061e-10
 99.03174    172.8 1.018e+04 5.141e-10
 99.04694    175.0 1.024e+04 5.474e-10
 99.06839    175.0 1.068e+04 6.532e-10
 99.09110    176.1 1.075e+04 7.020e-10
 99.11106    176.8 1.091e+04 7.807e-10
 99.12179    176.1 1.182e+04 1.057e-09
 99.13389    176.4 1.219e+04 1.296e-09
 99.15534    176.7 1.266e+04 1.657e-09
 99.16691    177.0 1.316e+04 2.138e-09
 99.17763    176.4 1.444e+04 3.557e-09
 99.19823    177.0 1.480e+04 4.274e-09
 99.21203    177.5 1.501e+04 4.689e-09
 99.22275    177.2 1.559e+04 5.681e-09
 99.24112    177.3 1.550e+04 5.469e-09
 99.25715    177.4 1.522e+04 4.911e-09
 99.26788    177.0 1.519e+04 4.616e-09
 99.28401    176.9 1.469e+04 3.796e-09
 99.30228    176.9 1.403e+04 3.000e-09
 99.31300    176.4 1.357e+04 2.411e-09
 99.32691    176.7 1.297e+04 1.918e-09
 99.35917    176.8 1.222e+04 1.323e-09
 99.39272    177.5 1.134e+04 9.146e-10
 99.41416    177.4 1.091e+04 7.937e-10
 99.44505    179.0 1.040e+04 6.146e-10
 99.48296    180.8 9.988e+03 4.950e-10
 99.50441    181.2 9.949e+03 5.171e-10
 99.53084    182.9 9.745e+03 4.643e-10
 99.57321    184.7 9.617e+03 4.348e-10
 99.59466    185.0 9.634e+03 4.522e-10
 99.61662    186.5 9.542e+03 4.225e-10
 99.65951    187.7 9.456e+03 3.957e-10
 99.68490    188.9 9.333e+03 3.633e-10
 99.70635    188.4 9.160e+03 3.228e-10
 99.74530    189.3 8.968e+03 2.806e-10
 99.77515    190.1 8.891e+03 2.613e-10
 99.79659    188.8 8.940e+03 2.599e-10
 99.83108    189.6 9.039e+03 2.683e-10
 99.86315    189.6 9.111e+03 2.788e-10
 99.87592    189.7 9.244e+03 2.981e-10
 99.88664    187.7 9.778e+03 3.876e-10
 99.90595    187.6 1.002e+04 4.711e-10
 99.92104    187.6 1.025e+04 5.812e-10
 99.93177    185.5 1.066e+04 8.331e-10
 99.94479    185.4 1.107e+04 1.045e-09
 99.95551    184.7 1.137e+04 1.235e-09
 99.96617    184.1 1.213e+04 1.607e-09
 99.97689    179.8 1.409e+04 2.675e-09
 99.99173    179.4 1.473e+04 3.467e-09
