# Columns:
#   distance along LOS (in CHIMPs)
#   peculiar velocity  (in km/s)
#   temperature (K)
#   HI number density
# pos=(47.5586,252.502,81.0998), angles=(1.73836,1.85227)
  0.01691    -33.5 8.192e+03 1.020e-10
  0.03753    -34.1 8.263e+03 1.186e-10
  0.06186    -33.3 8.148e+03 1.130e-10
  0.08820    -32.2 8.096e+03 1.127e-10
  0.10882    -32.1 8.022e+03 9.706e-11
  0.14434    -30.9 7.985e+03 9.928e-11
  0.17070    -29.7 8.004e+03 9.937e-11
  0.19132    -29.9 8.207e+03 1.182e-10
  0.22682    -29.8 8.436e+03 1.198e-10
  0.26807    -30.3 8.711e+03 1.493e-10
  0.30387    -30.7 8.925e+03 2.166e-10
  0.32359    -31.3 9.094e+03 2.416e-10
  0.32903    -30.2 9.009e+03 2.264e-10
  0.35055    -29.9 9.234e+03 2.585e-10
  0.39179    -30.0 9.297e+03 2.580e-10
  0.43303    -30.2 9.193e+03 1.982e-10
  0.45767    -30.6 8.976e+03 1.453e-10
  0.47829    -32.1 9.061e+03 1.734e-10
  0.51551    -32.2 9.029e+03 1.584e-10
  0.54924    -32.3 9.059e+03 1.563e-10
  0.56986    -30.4 9.106e+03 2.290e-10
  0.59084    -30.4 9.142e+03 2.209e-10
  0.61146    -31.7 9.391e+03 2.844e-10
  0.63923    -31.2 9.363e+03 2.693e-10
  0.68047    -31.0 9.459e+03 2.300e-10
  0.72171    -31.7 9.488e+03 2.154e-10
  0.74463    -33.1 9.780e+03 2.439e-10
  0.76525    -35.7 1.030e+04 2.977e-10
  0.79007    -36.7 1.073e+04 5.488e-10
  0.81069    -34.9 1.047e+04 4.433e-10
  0.84543    -35.8 1.125e+04 6.595e-10
  0.87780    -36.9 1.163e+04 7.768e-10
  0.89842    -39.8 1.262e+04 1.431e-09
  0.92791    -40.9 1.258e+04 1.403e-09
  0.96915    -41.5 1.252e+04 1.465e-09
  1.01028    -41.3 1.223e+04 1.433e-09
  1.03148    -39.7 1.227e+04 1.355e-09
  1.05222    -41.8 1.216e+04 1.350e-09
  1.09287    -41.4 1.121e+04 8.267e-10
  1.13411    -40.9 1.032e+04 4.796e-10
  1.16477    -40.1 9.705e+03 2.865e-10
  1.18539    -40.9 9.384e+03 2.236e-10
  1.21659    -39.7 9.078e+03 1.415e-10
  1.25111    -38.5 8.930e+03 9.866e-11
  1.27173    -37.8 8.911e+03 9.440e-11
  1.29794    -36.5 8.845e+03 6.923e-11
  1.31856    -37.2 8.866e+03 5.834e-11
  1.34031    -36.0 8.855e+03 5.414e-11
  1.38155    -34.9 8.907e+03 5.612e-11
  1.42279    -34.1 8.888e+03 7.497e-11
  1.45173    -32.9 8.897e+03 1.110e-10
  1.47235    -33.5 8.957e+03 1.202e-10
  1.49193    -32.4 9.262e+03 1.795e-10
  1.51255    -32.1 9.365e+03 2.129e-10
  1.54652    -30.8 9.703e+03 3.147e-10
  1.58491    -29.3 9.990e+03 3.988e-10
  1.60553    -30.0 1.006e+04 3.840e-10
  1.62900    -28.6 1.004e+04 3.772e-10
  1.67024    -27.1 9.968e+03 2.528e-10
  1.71148    -27.0 9.749e+03 1.654e-10
  1.73276    -26.9 9.566e+03 1.468e-10
  1.73937    -27.4 9.754e+03 1.691e-10
  1.75932    -28.2 9.827e+03 1.831e-10
  1.79396    -27.9 9.887e+03 2.469e-10
  1.83520    -26.6 1.001e+04 3.295e-10
  1.87187    -25.1 1.020e+04 3.957e-10
  1.89249    -25.3 1.016e+04 3.767e-10
  1.91768    -24.5 1.041e+04 3.819e-10
  1.95297    -24.8 1.085e+04 4.185e-10
  1.97350    -26.4 1.076e+04 5.877e-10
  1.98965    -26.1 1.079e+04 7.685e-10
  2.01027    -25.9 1.088e+04 8.058e-10
  2.02547    -25.3 1.104e+04 9.401e-10
  2.04619    -25.6 1.116e+04 1.028e-09
  2.08264    -24.5 1.080e+04 9.114e-10
  2.12388    -23.3 1.026e+04 5.075e-10
  2.15884    -23.2 9.763e+03 2.619e-10
  2.17946    -23.7 9.992e+03 2.622e-10
  2.19380    -24.1 9.760e+03 2.038e-10
  2.21442    -23.6 9.405e+03 1.641e-10
  2.24760    -23.2 9.311e+03 2.112e-10
  2.28884    -22.1 9.510e+03 2.943e-10
  2.31263    -21.2 1.012e+04 3.401e-10
  2.33325    -22.3 1.124e+04 8.676e-10
  2.37132    -21.7 1.134e+04 9.541e-10
  2.41256    -20.9 1.107e+04 9.209e-10
  2.43463    -20.1 1.082e+04 8.384e-10
  2.44725    -19.2 1.072e+04 5.467e-10
  2.46642    -20.5 1.104e+04 7.797e-10
  2.49504    -20.3 1.076e+04 6.582e-10
  2.53628    -19.7 1.050e+04 6.214e-10
  2.57752    -18.5 1.020e+04 5.943e-10
  2.59959    -16.3 9.718e+03 4.695e-10
  2.62021    -16.9 9.351e+03 3.385e-10
  2.65484    -16.0 9.157e+03 2.138e-10
  2.67546    -15.6 9.292e+03 2.008e-10
  2.70124    -15.0 9.072e+03 1.863e-10
  2.73277    -14.6 9.147e+03 2.408e-10
  2.75339    -15.2 9.148e+03 2.520e-10
  2.78373    -13.8 9.474e+03 4.045e-10
  2.82497    -12.1 9.866e+03 5.590e-10
  2.86594    -11.1 1.018e+04 6.473e-10
  2.88656    -11.5 1.020e+04 6.578e-10
  2.89567    -11.4 1.036e+04 6.856e-10
  2.91629    -10.9 1.017e+04 5.661e-10
  2.94869    -10.9 1.007e+04 5.311e-10
  2.98993    -10.4 9.754e+03 4.313e-10
  3.01973    -10.5 9.442e+03 3.237e-10
  3.04035    -10.8 9.309e+03 2.601e-10
  3.07241    -11.1 9.129e+03 2.314e-10
  3.11365    -11.4 9.244e+03 2.643e-10
  3.13650    -11.4 9.488e+03 3.377e-10
  3.15514    -11.4 9.646e+03 4.145e-10
  3.17352    -12.6 9.670e+03 4.157e-10
  3.19613    -12.3 1.002e+04 5.300e-10
  3.23737    -12.0 9.975e+03 4.886e-10
  3.27861    -11.5 9.684e+03 3.498e-10
  3.30670    -11.1 9.356e+03 2.147e-10
  3.32732    -12.1 9.375e+03 2.152e-10
  3.35671    -12.2 9.177e+03 1.408e-10
  3.37733    -11.3 9.066e+03 1.437e-10
  3.40233    -10.9 8.901e+03 1.129e-10
  3.43987     -9.9 8.776e+03 1.136e-10
  3.46049    -10.6 8.807e+03 1.220e-10
  3.48481     -9.1 8.761e+03 1.235e-10
  3.52605     -7.5 8.746e+03 1.223e-10
  3.56729     -6.0 8.825e+03 1.191e-10
  3.59366     -5.0 8.971e+03 1.245e-10
  3.60329     -6.0 9.022e+03 1.152e-10
  3.61816     -5.3 8.881e+03 8.621e-11
  3.64977     -4.6 9.052e+03 1.069e-10
  3.69101     -3.6 9.212e+03 1.477e-10
  3.72683     -2.6 9.374e+03 1.940e-10
  3.74745     -3.2 9.296e+03 1.843e-10
  3.77349     -2.2 9.471e+03 2.091e-10
  3.81473     -1.3 9.542e+03 2.091e-10
  3.83837     -0.6 9.539e+03 2.007e-10
  3.85899      0.0 9.669e+03 2.361e-10
  3.88063      0.9 9.584e+03 1.962e-10
  3.90125      0.8 9.557e+03 1.776e-10
  3.93845      1.7 9.510e+03 1.404e-10
  3.97970      2.4 9.473e+03 1.177e-10
  4.01380      3.0 9.553e+03 1.190e-10
  4.03442      2.5 9.703e+03 1.481e-10
  4.05858      2.9 9.892e+03 2.039e-10
  4.07920      3.1 9.879e+03 1.708e-10
  4.10342      3.8 1.005e+04 2.555e-10
  4.14466      4.7 1.032e+04 3.703e-10
  4.16759      5.4 1.074e+04 5.094e-10
  4.18821      4.6 1.096e+04 5.698e-10
  4.22714      4.2 1.145e+04 7.587e-10
  4.26838      3.5 1.206e+04 1.106e-09
  4.29941      2.5 1.260e+04 1.427e-09
  4.31118      3.0 1.279e+04 1.498e-09
  4.32139      1.4 1.319e+04 1.825e-09
  4.34045      0.8 1.317e+04 1.807e-09
  4.36097      0.4 1.308e+04 1.762e-09
  4.37747      0.4 1.281e+04 1.558e-09
  4.38778     -0.2 1.289e+04 1.605e-09
  4.40221     -0.9 1.260e+04 1.304e-09
  4.41963     -1.5 1.210e+04 1.030e-09
  4.42994     -1.5 1.251e+04 1.266e-09
  4.44345     -1.8 1.198e+04 9.999e-10
  4.45436     -1.7 1.144e+04 7.884e-10
  4.46467     -1.9 1.130e+04 7.479e-10
  4.48469     -1.7 1.099e+04 5.648e-10
  4.51572     -1.9 1.075e+04 3.727e-10
  4.54024     -1.3 1.031e+04 2.467e-10
  4.56086     -0.9 1.029e+04 2.398e-10
  4.58773     -0.2 9.977e+03 1.652e-10
  4.60835     -0.6 9.948e+03 1.593e-10
  4.63954      0.3 9.727e+03 1.328e-10
  4.68078      1.6 9.697e+03 1.331e-10
  4.72090      2.9 9.743e+03 1.423e-10
  4.74152      2.8 9.857e+03 1.502e-10
  4.76045      3.9 9.974e+03 1.858e-10
  4.78107      4.8 9.874e+03 1.535e-10
  4.80450      5.6 1.008e+04 2.238e-10
  4.84574      6.5 1.045e+04 3.881e-10
  4.87470      7.4 1.095e+04 6.370e-10
  4.89532      7.5 1.100e+04 6.760e-10
  4.92822      8.5 1.130e+04 8.228e-10
  4.96946      9.1 1.137e+04 8.174e-10
  5.00128      9.7 1.130e+04 7.127e-10
  5.01906     10.4 1.143e+04 7.944e-10
  5.02839     10.2 1.131e+04 7.550e-10
  5.04144     10.2 1.130e+04 7.058e-10
  5.06206     10.1 1.128e+04 6.538e-10
  5.08268     10.0 1.123e+04 6.027e-10
  5.09488      9.9 1.115e+04 5.578e-10
  5.10519      9.9 1.118e+04 5.953e-10
  5.12150      9.9 1.107e+04 5.564e-10
  5.13181     10.3 1.119e+04 6.360e-10
  5.14454     10.2 1.113e+04 6.150e-10
  5.16156     10.2 1.089e+04 5.190e-10
  5.18228     10.2 1.102e+04 5.707e-10
  5.21691     10.5 1.082e+04 5.085e-10
  5.24211     10.8 1.064e+04 4.505e-10
  5.26273     11.0 1.102e+04 6.472e-10
  5.29483     11.3 1.077e+04 5.475e-10
  5.31545     11.0 1.086e+04 5.657e-10
  5.34063     11.3 1.068e+04 4.647e-10
  5.38187     11.7 1.053e+04 3.688e-10
  5.42311     12.2 1.042e+04 2.806e-10
  5.44863     12.5 1.031e+04 2.133e-10
  5.46721     11.8 1.061e+04 2.618e-10
  5.48294     11.5 1.011e+04 2.026e-10
  5.50559     11.9 9.955e+03 1.654e-10
  5.54683     12.5 9.802e+03 1.598e-10
  5.58180     13.2 9.819e+03 1.684e-10
  5.60242     12.5 9.879e+03 1.718e-10
  5.62931     13.3 9.856e+03 2.033e-10
  5.67055     14.1 9.942e+03 2.580e-10
  5.70315     14.7 1.007e+04 3.068e-10
  5.72377     15.0 9.732e+03 1.947e-10
  5.73559     15.4 9.725e+03 1.904e-10
  5.75621     15.3 9.814e+03 1.913e-10
  5.79427     15.6 9.731e+03 1.796e-10
  5.83551     16.0 9.703e+03 1.808e-10
  5.86876     16.4 9.732e+03 1.889e-10
  5.88938     16.8 9.752e+03 1.882e-10
  5.91799     17.5 9.770e+03 2.048e-10
  5.94397     18.5 9.780e+03 2.184e-10
  5.96459     19.1 9.636e+03 1.632e-10
  6.00047     20.1 9.647e+03 1.734e-10
  6.02256     21.0 9.693e+03 1.728e-10
  6.04318     21.4 9.853e+03 1.854e-10
  6.08295     21.7 9.936e+03 2.115e-10
  6.12419     21.9 1.006e+04 2.730e-10
  6.15503     22.3 1.017e+04 3.274e-10
  6.16584     22.1 1.035e+04 3.814e-10
  6.17490     22.3 1.051e+04 4.381e-10
  6.18461     23.0 1.052e+04 4.406e-10
  6.19617     21.7 1.113e+04 5.914e-10
  6.21679     19.9 1.186e+04 9.119e-10
  6.23243     18.5 1.229e+04 1.382e-09
  6.24274     18.6 1.248e+04 1.608e-09
  6.25803     18.0 1.240e+04 1.791e-09
  6.27865     17.6 1.223e+04 1.715e-09
  6.29471     17.2 1.186e+04 1.460e-09
  6.30477     17.4 1.200e+04 1.521e-09
  6.30933     17.6 1.182e+04 1.327e-09
  6.31989     16.5 1.135e+04 9.577e-10
  6.34051     15.2 1.092e+04 7.125e-10
  6.36113     13.9 1.061e+04 5.932e-10
  6.37591     13.2 1.057e+04 5.886e-10
  6.38622     12.9 1.040e+04 5.202e-10
  6.40237     12.5 1.050e+04 5.627e-10
  6.41513     12.2 1.065e+04 6.502e-10
  6.42544     11.5 1.086e+04 7.854e-10
  6.44250     11.6 1.100e+04 9.255e-10
  6.45281     11.6 1.083e+04 8.379e-10
  6.46423     11.9 1.092e+04 9.277e-10
  6.48485     12.2 1.097e+04 9.544e-10
  6.50547     12.6 1.096e+04 9.398e-10
  6.51939     13.0 1.087e+04 8.819e-10
  6.52885     12.7 1.059e+04 7.513e-10
  6.53554     12.2 1.058e+04 7.405e-10
  6.54671     12.4 1.037e+04 6.446e-10
  6.56733     12.6 1.015e+04 5.502e-10
  6.58598     12.7 9.946e+03 4.850e-10
  6.59629     12.5 9.749e+03 4.195e-10
  6.60857     13.1 9.624e+03 3.867e-10
  6.62919     13.5 9.629e+03 3.850e-10
  6.64565     14.4 9.649e+03 3.865e-10
  6.66637     14.1 9.683e+03 3.611e-10
  6.69115     15.1 9.728e+03 3.679e-10
  6.71167     15.6 9.790e+03 3.845e-10
  6.72946     16.4 9.888e+03 4.291e-10
  6.73977     15.9 9.810e+03 3.819e-10
  6.75291     16.5 9.983e+03 4.463e-10
  6.76606     17.0 1.028e+04 5.702e-10
  6.77637     16.6 1.026e+04 5.687e-10
  6.79415     17.2 1.053e+04 7.183e-10
  6.80636     18.1 1.079e+04 8.883e-10
  6.81667     18.0 1.049e+04 7.792e-10
  6.83539     19.1 1.070e+04 8.846e-10
  6.85601     20.1 1.081e+04 9.121e-10
  6.87295     21.1 1.079e+04 8.803e-10
  6.88279     20.9 1.043e+04 6.696e-10
  6.88648     20.2 1.020e+04 5.414e-10
  6.89725     21.0 1.003e+04 4.568e-10
  6.91787     21.3 9.899e+03 4.012e-10
  6.94890     22.0 9.539e+03 3.058e-10
  6.99024     23.7 9.362e+03 2.691e-10
  7.01662     25.8 9.247e+03 2.523e-10
  7.03724     25.8 8.939e+03 1.929e-10
  7.07272     28.1 8.893e+03 1.911e-10
  7.10688     30.4 8.904e+03 1.957e-10
  7.12750     30.0 9.046e+03 2.250e-10
  7.14980     32.5 9.124e+03 2.418e-10
  7.17042     32.3 8.958e+03 2.007e-10
  7.19644     34.8 9.044e+03 2.129e-10
  7.23768     37.3 9.189e+03 2.323e-10
  7.27892     39.8 9.441e+03 2.673e-10
  7.30359     42.0 9.677e+03 3.131e-10
  7.32421     41.9 9.508e+03 2.525e-10
  7.34761     43.0 9.590e+03 2.806e-10
  7.35783     43.0 9.595e+03 2.756e-10
  7.36998     43.9 9.695e+03 3.193e-10
  7.38029     43.1 9.718e+03 3.177e-10
  7.39214     42.7 1.051e+04 4.222e-10
  7.41276     41.4 1.227e+04 7.669e-10
  7.43338     39.8 1.443e+04 1.440e-09
  7.44683     36.0 1.734e+04 2.691e-09
  7.45193     33.6 1.819e+04 4.204e-09
  7.45906     30.2 1.999e+04 8.150e-09
  7.46783     28.1 2.059e+04 1.492e-08
  7.47299     26.9 2.004e+04 2.318e-08
  7.47968     26.9 2.027e+04 3.619e-08
  7.48523     27.2 2.032e+04 5.275e-08
  7.49038     28.3 2.000e+04 4.834e-08
  7.50030     28.7 2.025e+04 4.998e-08
  7.51061     28.9 2.041e+04 4.811e-08
  7.51852     28.9 2.082e+04 4.198e-08
  7.52368     29.3 2.069e+04 3.151e-08
  7.52804     28.6 2.134e+04 2.514e-08
  7.53320     27.3 2.147e+04 2.308e-08
  7.54154     24.5 2.181e+04 1.698e-08
  7.55181     20.8 2.117e+04 1.226e-08
  7.56212     16.8 1.845e+04 8.316e-09
  7.57247     14.6 1.765e+04 7.351e-09
  7.58278     12.9 1.732e+04 6.898e-09
  7.58825     11.7 1.734e+04 6.910e-09
  7.59063     10.1 1.803e+04 6.178e-09
  7.60067     11.3 1.819e+04 7.180e-09
  7.61896     10.2 1.739e+04 5.694e-09
  7.63958      9.6 1.668e+04 4.493e-09
  7.65695      9.2 1.609e+04 3.587e-09
  7.66726     10.6 1.636e+04 4.306e-09
  7.68082      9.9 1.535e+04 3.209e-09
  7.69845      9.0 1.433e+04 2.450e-09
  7.70876      6.9 1.296e+04 1.713e-09
  7.72206      6.6 1.299e+04 1.695e-09
  7.73384      6.4 1.304e+04 1.782e-09
  7.74415      7.7 1.299e+04 1.602e-09
  7.76330      7.4 1.323e+04 1.736e-09
  7.78392      6.7 1.355e+04 2.031e-09
  7.80043      6.2 1.372e+04 2.565e-09
  7.81074      7.6 1.355e+04 1.869e-09
  7.81887      7.7 1.373e+04 2.490e-09
  7.82918      7.7 1.363e+04 2.873e-09
  7.84578      8.6 1.392e+04 3.378e-09
  7.86640      9.2 1.441e+04 3.774e-09
  7.87732      8.8 1.583e+04 4.447e-09
  7.88763     10.8 1.432e+04 3.013e-09
  7.90764      9.2 1.680e+04 4.247e-09
  7.92306      6.6 1.936e+04 5.761e-09
  7.93332      4.4 2.049e+04 7.703e-09
  7.93918      2.0 2.090e+04 1.110e-08
  7.94434      1.3 1.987e+04 1.162e-08
  7.94897     -0.3 1.989e+04 1.568e-08
  7.95412      0.7 2.024e+04 1.369e-08
  7.96425     -0.3 1.971e+04 1.848e-08
  7.97456     -0.7 1.970e+04 2.484e-08
  7.98226     -1.7 2.120e+04 3.466e-08
  7.98742     -0.3 2.047e+04 2.966e-08
  7.99423     -1.4 2.224e+04 3.927e-08
  7.99939     -3.0 2.299e+04 4.196e-08
  8.00549     -5.5 2.435e+04 4.630e-08
  8.01555     -7.1 2.404e+04 4.221e-08
  8.02071     -5.3 2.423e+04 4.264e-08
  8.02611     -7.0 2.414e+04 3.726e-08
  8.03642     -8.6 2.318e+04 2.838e-08
  8.04673    -10.7 2.161e+04 1.995e-08
  8.05400    -12.9 1.971e+04 1.425e-08
  8.05656    -11.7 2.179e+04 1.890e-08
  8.05960    -12.4 2.073e+04 1.457e-08
  8.07255    -15.8 1.855e+04 7.267e-09
  8.08739    -20.0 1.796e+04 3.252e-09
  8.09250    -17.0 2.044e+04 1.015e-08
  8.09828    -18.0 2.065e+04 7.610e-09
  8.10859    -18.6 2.129e+04 4.890e-09
  8.11465    -20.2 2.242e+04 3.382e-09
  8.11980    -23.1 2.202e+04 2.416e-09
  8.13441    -25.4 2.691e+04 2.577e-09
  8.15398    -32.3 3.030e+04 1.405e-09
  8.16424    -33.8 4.176e+04 8.105e-09
  8.16970    -36.2 5.427e+04 2.565e-09
  8.17486    -40.2 4.689e+04 4.255e-09
  8.18076    -41.8 4.523e+04 3.182e-09
  8.19107    -45.5 2.718e+04 6.275e-09
  8.19749    -50.9 2.234e+04 7.682e-09
  8.20264    -53.1 2.660e+04 2.108e-08
  8.21169    -57.2 2.359e+04 1.619e-08
  8.22200    -59.8 2.244e+04 1.368e-08
  8.23083    -60.8 2.092e+04 8.181e-09
  8.23598    -63.6 2.264e+04 1.587e-08
  8.24262    -64.3 2.169e+04 1.277e-08
  8.25814    -65.1 2.145e+04 1.122e-08
  8.27880    -63.4 1.955e+04 7.135e-09
  8.29021    -62.5 1.701e+04 4.547e-09
  8.29856    -62.4 1.667e+04 4.948e-09
  8.30777    -64.3 1.774e+04 6.682e-09
  8.32004    -63.1 1.608e+04 5.079e-09
  8.34067    -61.7 1.518e+04 4.057e-09
  8.36129    -60.2 1.463e+04 3.328e-09
  8.37436    -58.7 1.423e+04 2.789e-09
  8.38467    -59.8 1.416e+04 2.907e-09
  8.40032    -58.8 1.374e+04 2.344e-09
  8.41063    -58.1 1.387e+04 2.594e-09
  8.42315    -57.1 1.348e+04 2.119e-09
  8.44094    -56.5 1.310e+04 1.764e-09
  8.45125    -57.8 1.298e+04 1.718e-09
  8.46439    -57.9 1.258e+04 1.499e-09
  8.48501    -57.4 1.251e+04 1.382e-09
  8.50563    -56.5 1.270e+04 1.351e-09
  8.51784    -55.7 1.276e+04 1.414e-09
  8.52264    -57.8 1.273e+04 1.406e-09
  8.53104    -56.9 1.286e+04 1.431e-09
  8.54687    -56.2 1.289e+04 1.558e-09
  8.56749    -55.9 1.324e+04 1.860e-09
  8.58443    -55.8 1.409e+04 2.515e-09
  8.59474    -57.3 1.305e+04 1.882e-09
  8.60873    -57.4 1.392e+04 2.451e-09
  8.62935    -57.9 1.509e+04 3.529e-09
  8.64115    -58.3 1.594e+04 5.056e-09
  8.65146    -57.5 1.621e+04 5.053e-09
  8.66132    -57.7 1.716e+04 7.397e-09
  8.67163    -60.6 1.590e+04 5.286e-09
  8.68600    -59.4 1.714e+04 7.906e-09
  8.69452    -59.5 1.718e+04 8.158e-09
  8.69951    -60.8 1.684e+04 7.758e-09
  8.70126    -60.8 1.680e+04 7.771e-09
  8.70658    -59.9 1.758e+04 1.024e-08
  8.71689    -59.9 1.767e+04 1.036e-08
  8.72786    -59.0 1.839e+04 1.181e-08
  8.73822    -60.7 1.807e+04 1.189e-08
  8.75125    -61.0 1.846e+04 1.050e-08
  8.76156    -61.0 1.847e+04 1.343e-08
  8.77369    -61.7 1.889e+04 9.333e-09
  8.79431    -65.3 1.841e+04 6.138e-09
  8.80481    -69.1 1.739e+04 4.626e-09
  8.81512    -69.8 1.606e+04 3.212e-09
  8.83555    -73.5 1.495e+04 2.520e-09
  8.85617    -74.3 1.451e+04 2.585e-09
  8.87139    -74.8 1.370e+04 2.686e-09
  8.87658    -75.6 1.270e+04 2.045e-09
  8.88198    -75.2 1.303e+04 2.170e-09
  8.89741    -74.9 1.259e+04 2.031e-09
  8.91803    -74.5 1.262e+04 1.892e-09
  8.93798    -75.3 1.307e+04 1.818e-09
  8.94829    -73.9 1.239e+04 1.442e-09
  8.95927    -75.6 1.255e+04 1.360e-09
  8.97989    -77.5 1.250e+04 1.412e-09
  8.99208    -78.0 1.226e+04 1.672e-09
  9.00239    -78.6 1.193e+04 1.571e-09
  9.01488    -77.5 1.188e+04 1.731e-09
  9.02519    -76.8 1.172e+04 1.577e-09
  9.04175    -75.1 1.166e+04 1.618e-09
  9.06237    -73.3 1.168e+04 1.459e-09
  9.08146    -72.0 1.171e+04 1.050e-09
  9.09177    -71.1 1.163e+04 1.192e-09
  9.10219    -70.3 1.162e+04 8.026e-10
  9.11250    -71.0 1.113e+04 5.822e-10
  9.12423    -71.3 1.050e+04 3.682e-10
  9.14485    -71.4 9.878e+03 2.739e-10
  9.15836    -71.1 9.585e+03 2.454e-10
  9.16867    -70.0 9.762e+03 2.611e-10
  9.18609    -69.6 9.573e+03 2.411e-10
  9.21239    -67.9 9.375e+03 2.288e-10
  9.23311    -67.7 9.466e+03 2.601e-10
  9.25846    -65.3 9.239e+03 2.530e-10
  9.29173    -62.7 9.082e+03 2.420e-10
  9.31235    -61.4 8.962e+03 2.240e-10
  9.34094    -58.8 8.838e+03 1.992e-10
  9.38218    -56.1 8.759e+03 1.762e-10
  9.42342    -53.8 8.670e+03 1.609e-10
  9.44552    -51.6 8.659e+03 1.617e-10
  9.45480    -50.7 8.675e+03 1.524e-10
  9.47394    -50.4 9.093e+03 2.641e-10
  9.50590    -48.5 9.182e+03 3.018e-10
  9.54714    -46.3 9.193e+03 3.723e-10
  9.57869    -43.0 9.353e+03 4.588e-10
  9.59931    -42.1 9.255e+03 3.945e-10
  9.62962    -39.2 9.187e+03 3.811e-10
  9.67086    -36.0 9.009e+03 3.012e-10
  9.69415    -33.9 8.997e+03 2.448e-10
  9.71453    -33.9 9.050e+03 2.489e-10
  9.73248    -33.1 8.828e+03 1.893e-10
  9.75334    -30.8 8.719e+03 1.883e-10
  9.79458    -28.2 8.735e+03 2.031e-10
  9.83582    -25.3 8.805e+03 2.167e-10
  9.86566    -22.4 8.830e+03 2.113e-10
  9.88628    -21.3 8.712e+03 1.753e-10
  9.91436    -18.5 8.756e+03 1.701e-10
  9.93498    -18.9 8.695e+03 1.389e-10
  9.95954    -16.3 8.703e+03 1.415e-10
  9.99883    -13.9 8.703e+03 1.447e-10
 10.01945    -12.7 8.707e+03 1.442e-10
 10.04202    -10.2 8.705e+03 1.481e-10
 10.08326     -7.7 8.723e+03 1.528e-10
 10.12450     -5.3 8.760e+03 1.573e-10
 10.15262     -3.0 8.824e+03 1.637e-10
 10.16268     -1.8 8.862e+03 1.648e-10
 10.17581     -1.8 8.844e+03 1.560e-10
 10.20699      0.5 8.904e+03 1.615e-10
 10.24823      2.7 9.227e+03 1.974e-10
 10.28579      3.7 9.836e+03 3.129e-10
 10.30641      5.1 9.815e+03 3.070e-10
 10.32030      5.4 1.015e+04 4.126e-10
 10.34082      5.7 1.054e+04 5.543e-10
 10.36144      5.8 1.101e+04 7.554e-10
 10.37280      5.7 1.148e+04 1.007e-09
 10.38311      6.6 1.137e+04 9.773e-10
 10.39582      6.5 1.185e+04 1.265e-09
 10.40613      7.0 1.167e+04 1.138e-09
 10.42330      6.8 1.215e+04 1.438e-09
 10.43939      6.4 1.260e+04 1.707e-09
 10.44970      7.6 1.258e+04 1.692e-09
 10.46454      7.0 1.290e+04 1.767e-09
 10.48516      6.4 1.285e+04 1.686e-09
 10.50578      5.9 1.250e+04 1.346e-09
 10.53681      5.6 1.232e+04 9.068e-10
 10.57276      2.4 1.142e+04 3.795e-10
 10.59328      2.3 1.111e+04 5.115e-10
 10.61613     -0.6 1.154e+04 3.662e-10
 10.63675     -4.0 1.177e+04 7.844e-10
 10.64946     -4.5 1.206e+04 8.806e-10
 10.65977     -4.3 1.180e+04 1.256e-09
 10.67074     -4.3 1.228e+04 1.345e-09
 10.69136     -4.0 1.246e+04 1.392e-09
 10.71198     -3.6 1.243e+04 1.387e-09
 10.72636     -3.1 1.236e+04 1.392e-09
 10.73667     -2.5 1.266e+04 1.716e-09
 10.74675     -1.9 1.259e+04 1.611e-09
 10.75706     -1.7 1.289e+04 2.264e-09
 10.78425     -0.7 1.281e+04 1.877e-09
 10.82559      0.5 1.263e+04 1.711e-09
 10.85705      1.9 1.222e+04 1.441e-09
 10.87057      2.1 1.232e+04 1.380e-09
 10.88034      3.4 1.304e+04 2.012e-09
 10.90807      4.9 1.239e+04 1.384e-09
 10.94931      6.2 1.151e+04 8.515e-10
 10.99055      7.4 1.081e+04 5.657e-10
 11.01352      8.7 1.046e+04 4.682e-10
 11.03414      9.5 1.060e+04 4.909e-10
 11.07303     11.2 1.042e+04 4.674e-10
 11.09788     13.2 1.041e+04 4.641e-10
 11.11850     13.9 1.040e+04 4.715e-10
 11.14669     15.9 1.041e+04 4.549e-10
 11.16731     16.9 1.065e+04 5.934e-10
 11.19675     18.8 1.063e+04 5.695e-10
 11.23799     20.6 1.050e+04 5.210e-10
 11.27923     22.3 1.026e+04 4.491e-10
 11.30048     23.9 9.950e+03 3.698e-10
 11.31872     25.1 1.007e+04 3.981e-10
 11.33871     26.4 1.065e+04 5.675e-10
 11.36171     27.7 1.028e+04 4.322e-10
 11.40296     28.7 9.903e+03 3.502e-10
 11.43365     29.7 9.816e+03 3.337e-10
 11.45427     30.7 9.815e+03 3.212e-10
 11.48544     31.5 9.858e+03 3.307e-10
 11.52668     32.1 9.924e+03 3.307e-10
 11.55892     32.6 9.929e+03 3.148e-10
 11.57845     33.5 1.010e+04 4.253e-10
 11.58745     34.4 1.014e+04 4.238e-10
 11.60916     34.8 1.004e+04 3.778e-10
 11.65040     35.1 9.886e+03 3.154e-10
 11.69164     35.4 9.698e+03 2.556e-10
 11.72062     35.8 9.567e+03 2.157e-10
 11.74124     36.5 9.939e+03 3.633e-10
 11.77412     37.2 9.817e+03 3.060e-10
 11.79975     38.0 9.739e+03 2.560e-10
 11.82037     39.6 9.431e+03 2.267e-10
 11.85379     40.9 9.524e+03 2.290e-10
 11.87441     41.2 9.820e+03 3.369e-10
 11.89784     42.0 1.003e+04 3.537e-10
 11.93908     42.4 1.046e+04 4.272e-10
 11.98032     42.8 1.090e+04 6.004e-10
 12.00758     43.4 1.128e+04 8.222e-10
 12.02661     42.9 1.146e+04 9.332e-10
 12.04058     45.3 1.186e+04 1.209e-09
 12.06280     45.9 1.225e+04 1.341e-09
 12.10404     46.1 1.222e+04 1.260e-09
 12.14076     46.1 1.189e+04 1.087e-09
 12.16138     45.0 1.111e+04 6.505e-10
 12.18652     44.9 1.078e+04 6.077e-10
 12.22776     44.9 1.075e+04 6.118e-10
 12.26079     45.2 1.081e+04 6.179e-10
 12.28141     45.7 1.131e+04 8.231e-10
 12.29455     46.2 1.118e+04 7.701e-10
 12.31517     45.3 1.085e+04 6.289e-10
 12.35148     46.0 1.107e+04 7.281e-10
 12.39272     47.1 1.128e+04 8.651e-10
 12.42772     48.5 1.156e+04 1.088e-09
 12.44834     48.3 1.194e+04 1.426e-09
 12.47520     50.1 1.227e+04 1.767e-09
 12.50162     52.3 1.267e+04 2.162e-09
 12.52224     52.5 1.261e+04 2.074e-09
 12.54728     53.6 1.298e+04 2.563e-09
 12.56780     54.6 1.341e+04 3.006e-09
 12.58132     55.7 1.386e+04 3.472e-09
 12.59163     55.1 1.432e+04 3.507e-09
 12.60904     55.3 1.521e+04 4.481e-09
 12.62184     55.4 1.609e+04 6.095e-09
 12.63215     56.0 1.560e+04 5.620e-09
 12.64791     56.4 1.664e+04 8.217e-09
 12.65822     55.0 1.680e+04 8.865e-09
 12.67090     55.9 1.762e+04 1.248e-08
 12.69152     56.8 1.847e+04 1.822e-08
 12.70694     57.2 1.867e+04 2.249e-08
 12.71720     57.7 1.863e+04 2.544e-08
 12.72470     58.4 1.863e+04 2.688e-08
 12.72986     58.4 1.881e+04 1.873e-08
 12.73700     58.6 1.965e+04 1.807e-08
 12.74216     57.4 1.956e+04 2.163e-08
 12.74813     56.8 2.099e+04 2.266e-08
 12.75800     55.9 2.284e+04 2.323e-08
 12.76315     52.1 2.429e+04 1.468e-08
 12.76875     50.1 2.455e+04 1.310e-08
 12.77906     47.8 2.416e+04 9.876e-09
 12.78937     45.1 2.204e+04 6.927e-09
 12.79645     42.1 1.871e+04 5.170e-09
 12.79913     39.2 1.606e+04 4.484e-09
 12.80236     39.3 1.623e+04 6.019e-09
 12.80999     38.3 1.501e+04 4.669e-09
 12.82030     37.5 1.457e+04 4.013e-09
 12.83581     37.7 1.418e+04 3.215e-09
 12.85236     37.5 1.350e+04 2.383e-09
 12.86267     36.6 1.367e+04 2.570e-09
 12.86828     35.5 1.289e+04 1.842e-09
 12.87859     35.5 1.253e+04 1.632e-09
 12.89772     35.4 1.210e+04 1.429e-09
 12.91834     36.2 1.178e+04 1.327e-09
 12.93487     37.4 1.170e+04 1.288e-09
 12.94518     38.2 1.148e+04 1.153e-09
 12.95958     39.4 1.153e+04 1.144e-09
 12.97277     40.5 1.156e+04 1.116e-09
 12.98308     40.4 1.155e+04 8.526e-10
 13.00082     41.3 1.154e+04 7.903e-10
 13.01177     42.2 1.148e+04 7.221e-10
 13.02208     42.7 1.138e+04 5.929e-10
 13.04206     43.6 1.128e+04 5.323e-10
 13.06268     44.2 1.122e+04 4.794e-10
 13.09371     45.0 1.098e+04 3.991e-10
 13.13483     46.7 1.077e+04 3.546e-10
 13.15545     48.0 1.068e+04 3.198e-10
 13.17629     49.6 1.050e+04 2.928e-10
 13.20349     51.1 1.041e+04 2.835e-10
 13.22411     51.0 1.036e+04 2.453e-10
 13.25877     52.4 1.041e+04 2.682e-10
 13.28862     53.9 1.052e+04 3.260e-10
 13.30924     54.5 1.062e+04 3.379e-10
 13.34125     55.9 1.092e+04 4.959e-10
 13.38249     57.5 1.127e+04 6.931e-10
 13.42179     58.7 1.148e+04 7.528e-10
 13.44238     59.3 1.167e+04 9.702e-10
 13.46494     60.3 1.163e+04 8.504e-10
 13.50621     61.4 1.148e+04 7.022e-10
 13.54745     62.4 1.127e+04 5.270e-10
 13.57558     63.5 1.109e+04 4.046e-10
 13.59620     63.9 1.127e+04 5.370e-10
 13.62993     65.2 1.116e+04 4.630e-10
 13.66453     66.6 1.119e+04 4.384e-10
 13.68515     66.9 1.105e+04 3.981e-10
 13.70876     68.6 1.109e+04 4.169e-10
 13.72938     68.8 1.110e+04 4.270e-10
 13.75365     70.2 1.114e+04 4.528e-10
 13.78449     70.9 1.121e+04 4.869e-10
 13.79506     71.8 1.133e+04 5.328e-10
 13.79612     72.0 1.127e+04 5.312e-10
 13.80608     71.9 1.107e+04 5.088e-10
 13.82563     72.8 1.122e+04 5.789e-10
 13.84625     73.4 1.142e+04 6.458e-10
 13.86235     74.0 1.157e+04 6.959e-10
 13.87266     73.8 1.142e+04 6.806e-10
 13.88749     74.4 1.159e+04 7.383e-10
 13.90516     74.8 1.182e+04 8.156e-10
 13.91547     75.1 1.173e+04 8.344e-10
 13.92873     75.2 1.198e+04 9.214e-10
 13.93925     74.9 1.237e+04 1.090e-09
 13.94956     74.1 1.243e+04 1.238e-09
 13.96997     73.7 1.289e+04 1.645e-09
 13.99059     73.5 1.339e+04 2.279e-09
 14.00584     73.6 1.396e+04 3.156e-09
 14.01615     73.5 1.359e+04 3.175e-09
 14.02558     74.0 1.357e+04 3.155e-09
 14.03589     74.0 1.312e+04 2.422e-09
 14.05245     74.4 1.303e+04 2.340e-09
 14.07242     74.7 1.277e+04 2.054e-09
 14.08273     74.4 1.192e+04 1.283e-09
 14.09369     74.2 1.154e+04 9.522e-10
 14.11431     73.9 1.113e+04 6.660e-10
 14.13493     73.4 1.076e+04 4.615e-10
 14.14599     73.1 1.037e+04 3.266e-10
 14.15017     73.8 1.076e+04 5.833e-10
 14.17013     74.5 9.916e+03 3.035e-10
 14.20730     75.4 9.449e+03 2.045e-10
 14.24854     76.4 9.270e+03 1.674e-10
 14.28269     77.6 9.274e+03 1.687e-10
 14.30331     78.3 8.979e+03 1.220e-10
 14.33102     79.8 8.981e+03 1.417e-10
 14.36640     81.5 9.060e+03 1.808e-10
 14.38702     81.7 9.165e+03 2.235e-10
 14.41350     83.5 9.249e+03 2.576e-10
 14.43648     85.3 9.342e+03 2.833e-10
 14.45710     85.7 9.258e+03 2.653e-10
 14.49598     87.2 9.347e+03 2.835e-10
 14.53722     88.6 9.435e+03 2.973e-10
 14.56965     90.2 9.564e+03 3.220e-10
 14.59027     90.4 9.541e+03 3.249e-10
 14.60723     91.9 9.690e+03 3.783e-10
 14.62785     91.5 9.164e+03 2.288e-10
 14.66094     93.0 9.301e+03 2.827e-10
 14.70218     94.5 9.482e+03 3.601e-10
 14.72344     95.9 9.629e+03 4.376e-10
 14.74406     96.5 9.392e+03 3.754e-10
 14.78466     97.8 9.398e+03 3.789e-10
 14.82590     99.2 9.336e+03 3.652e-10
 14.84806    100.7 9.192e+03 3.319e-10
 14.85815    101.7 9.045e+03 3.061e-10
 14.87724    102.5 8.846e+03 2.580e-10
 14.90838    104.0 8.847e+03 2.649e-10
 14.94962    105.5 8.879e+03 2.806e-10
 14.98979    107.0 8.909e+03 2.950e-10
 15.01041    107.9 8.947e+03 3.077e-10
 15.03210    109.1 8.969e+03 3.134e-10
 15.06826    110.1 8.955e+03 3.104e-10
 15.08888    111.3 9.025e+03 3.289e-10
 15.11459    112.1 9.002e+03 3.230e-10
 15.14358    112.9 8.895e+03 2.984e-10
 15.16420    113.6 9.044e+03 3.333e-10
 15.19707    114.3 8.796e+03 2.651e-10
 15.23831    114.7 8.482e+03 1.936e-10
 15.27675    114.9 8.151e+03 1.354e-10
 15.29737    115.5 8.365e+03 1.512e-10
 15.30909    115.6 7.932e+03 1.002e-10
 15.32971    116.8 8.424e+03 1.616e-10
 15.36203    116.8 7.947e+03 1.128e-10
 15.40327    117.0 7.822e+03 1.079e-10
 15.43055    117.5 7.835e+03 1.113e-10
 15.45117    117.7 8.093e+03 1.401e-10
 15.48575    118.4 8.270e+03 1.744e-10
 15.52699    118.9 8.739e+03 2.594e-10
 15.54992    118.9 9.169e+03 3.634e-10
 15.56014    118.1 9.346e+03 4.087e-10
 15.57383    117.8 9.627e+03 5.082e-10
 15.58414    117.8 9.794e+03 5.784e-10
 15.59896    117.5 1.012e+04 7.531e-10
 15.61958    117.4 1.041e+04 9.387e-10
 15.64020    117.3 1.071e+04 1.108e-09
 15.65073    117.2 1.096e+04 1.239e-09
 15.66005    117.3 1.088e+04 1.179e-09
 15.67014    117.0 1.090e+04 1.141e-09
 15.68144    116.6 1.095e+04 1.143e-09
 15.70206    116.0 1.099e+04 1.125e-09
 15.71732    115.2 1.104e+04 1.111e-09
 15.72763    115.3 1.092e+04 1.046e-09
 15.74330    114.0 1.108e+04 1.063e-09
 15.76392    112.0 1.154e+04 1.176e-09
 15.78025    109.4 1.221e+04 1.500e-09
 15.78992    107.8 1.215e+04 1.558e-09
 15.79421    107.6 1.236e+04 1.733e-09
 15.80517    105.8 1.291e+04 2.409e-09
 15.82579    104.6 1.337e+04 3.062e-09
 15.84641    103.6 1.353e+04 3.165e-09
 15.86080    102.4 1.349e+04 3.070e-09
 15.87111    102.8 1.419e+04 4.237e-09
 15.88765    101.7 1.396e+04 3.648e-09
 15.90066    100.5 1.332e+04 2.591e-09
 15.91097     99.9 1.219e+04 1.480e-09
 15.92739     98.9 1.179e+04 1.164e-09
 15.93770     99.3 1.227e+04 1.394e-09
 15.94951     98.2 1.152e+04 9.528e-10
 15.98053     96.7 1.047e+04 5.923e-10
 16.00448     96.0 9.523e+03 3.655e-10
 16.01419     96.0 9.744e+03 4.028e-10
 16.03158     97.0 9.838e+03 4.427e-10
 16.06311     97.6 9.805e+03 4.115e-10
 16.10435     98.8 9.797e+03 3.817e-10
 16.13765    100.3 9.739e+03 3.432e-10
 16.15827    100.5 9.947e+03 3.928e-10
 16.18683    102.0 9.724e+03 3.269e-10
 16.22807    103.3 9.491e+03 2.752e-10
 16.25179    104.8 9.379e+03 2.557e-10
 16.27241    106.0 9.812e+03 3.289e-10
 16.29144    107.2 9.691e+03 2.981e-10
 16.31206    107.4 9.601e+03 2.877e-10
 16.35180    108.8 9.617e+03 2.922e-10
 16.39304    110.0 9.706e+03 3.179e-10
 16.42461    111.0 9.935e+03 3.932e-10
 16.44523    111.5 9.846e+03 3.849e-10
 16.47200    112.4 1.018e+04 5.237e-10
 16.49262    112.4 1.076e+04 7.786e-10
 16.51676    113.3 1.098e+04 9.559e-10
 16.55779    114.3 1.097e+04 9.572e-10
 16.57841    114.4 1.066e+04 8.038e-10
 16.59924    115.5 1.039e+04 6.712e-10
 16.64048    116.9 9.966e+03 4.801e-10
 16.68172    118.3 9.479e+03 3.242e-10
 16.71158    119.8 9.034e+03 2.333e-10
 16.72207    119.4 8.734e+03 1.871e-10
 16.73345    119.4 9.002e+03 2.305e-10
 16.76420    121.4 9.010e+03 2.332e-10
 16.80544    123.6 9.108e+03 2.572e-10
 16.84475    125.8 9.420e+03 3.180e-10
 16.86537    125.6 9.528e+03 3.511e-10
 16.87751    126.3 9.719e+03 4.129e-10
 16.89803    126.8 9.970e+03 5.181e-10
 16.91865    127.4 1.039e+04 7.127e-10
 16.93176    128.0 1.097e+04 9.968e-10
 16.94207    128.0 1.120e+04 1.107e-09
 16.95347    128.2 1.191e+04 1.525e-09
 16.96378    127.9 1.240e+04 1.903e-09
 16.98051    128.0 1.310e+04 2.465e-09
 16.99835    127.9 1.369e+04 3.085e-09
 17.00866    127.3 1.373e+04 3.136e-09
 17.02176    127.0 1.421e+04 3.607e-09
 17.04238    126.4 1.474e+04 3.803e-09
 17.05779    125.9 1.491e+04 3.818e-09
 17.06805    125.4 1.505e+04 3.824e-09
 17.07378    124.8 1.539e+04 3.897e-09
 17.07572    120.6 1.951e+04 5.610e-09
 17.08030    120.7 1.953e+04 5.862e-09
 17.08867    117.7 2.264e+04 7.653e-09
 17.09898    114.7 2.468e+04 1.054e-08
 17.10844    112.2 2.490e+04 1.478e-08
 17.11360    112.9 2.493e+04 1.489e-08
 17.11960    111.5 2.389e+04 2.075e-08
 17.12883    110.5 2.229e+04 2.878e-08
 17.13399    109.4 1.979e+04 3.309e-08
 17.14022    109.2 1.964e+04 4.370e-08
 17.14689    109.2 1.981e+04 5.665e-08
 17.15204    110.3 2.010e+04 5.800e-08
 17.16084    110.4 2.053e+04 7.103e-08
 17.17115    110.3 2.168e+04 7.321e-08
 17.18018    109.4 2.234e+04 7.022e-08
 17.18534    110.5 2.323e+04 7.558e-08
 17.18904    108.2 2.433e+04 6.383e-08
 17.19420    104.1 2.815e+04 2.170e-08
 17.20729     95.3 3.085e+04 5.004e-09
 17.21873     82.3 2.614e+04 1.134e-09
 17.22904     81.4 2.675e+04 1.147e-09
 17.24858     67.5 1.171e+04 7.057e-10
 17.26920     63.3 1.037e+04 7.204e-10
 17.28532     62.3 1.036e+04 7.610e-10
 17.29563     62.8 1.030e+04 7.259e-10
 17.30440     62.2 1.036e+04 8.071e-10
 17.31471     62.5 9.948e+03 6.789e-10
 17.33106     62.0 1.025e+04 8.045e-10
 17.35168     61.5 1.051e+04 8.731e-10
 17.36221     60.8 1.057e+04 8.714e-10
 17.37252     62.0 1.052e+04 8.296e-10
 17.39292     61.2 1.055e+04 8.217e-10
 17.41354     60.3 1.057e+04 8.052e-10
 17.42481     59.3 1.058e+04 8.067e-10
 17.42976     60.3 1.022e+04 6.591e-10
 17.43911     61.4 1.026e+04 6.822e-10
 17.45478     60.4 1.028e+04 6.922e-10
 17.47540     59.6 1.032e+04 7.389e-10
 17.49538     59.1 1.044e+04 8.324e-10
 17.50569     60.3 1.051e+04 8.725e-10
 17.51664     60.1 1.062e+04 9.603e-10
 17.53492     59.9 1.072e+04 9.866e-10
 17.54523     60.3 1.033e+04 7.636e-10
 17.55788     60.1 1.037e+04 7.683e-10
 17.57228     59.9 1.034e+04 7.457e-10
 17.58259     60.7 1.036e+04 7.474e-10
 17.59912     60.4 1.024e+04 6.977e-10
 17.63015     60.5 1.001e+04 5.850e-10
 17.65553     60.6 9.396e+03 3.689e-10
 17.67615     61.5 9.178e+03 3.408e-10
 17.70565     61.4 8.815e+03 2.423e-10
 17.72627     62.7 8.839e+03 2.431e-10
 17.75397     62.7 8.625e+03 1.919e-10
 17.79521     63.1 8.565e+03 1.852e-10
 17.83645     63.8 8.563e+03 1.868e-10
 17.85944     64.8 8.615e+03 1.943e-10
 17.87811     65.8 8.436e+03 1.567e-10
 17.89636     66.6 8.474e+03 1.632e-10
 17.91893     67.6 8.498e+03 1.631e-10
 17.96017     68.6 8.596e+03 1.665e-10
 17.99261     69.3 8.765e+03 1.767e-10
 18.01323     69.9 8.760e+03 1.806e-10
 18.04265     70.2 8.962e+03 2.012e-10
 18.08389     70.1 9.141e+03 2.187e-10
 18.11657     69.8 9.309e+03 2.331e-10
 18.13719     70.0 9.220e+03 2.181e-10
 18.14641     69.3 9.358e+03 2.358e-10
 18.16703     69.5 9.580e+03 2.904e-10
 18.20761     68.8 9.584e+03 2.843e-10
 18.24885     68.1 9.612e+03 2.933e-10
 18.27958     67.7 9.679e+03 3.152e-10
 18.30020     67.9 9.481e+03 2.744e-10
 18.33133     67.5 9.485e+03 2.735e-10
 18.35740     67.1 9.492e+03 2.708e-10
 18.37802     66.6 9.426e+03 2.598e-10
 18.41275     65.9 9.400e+03 2.633e-10
 18.43337     66.0 9.361e+03 2.635e-10
 18.45505     65.2 9.303e+03 2.630e-10
 18.49629     64.2 9.257e+03 2.638e-10
 18.53753     62.9 9.293e+03 2.752e-10
 18.56654     61.6 9.461e+03 3.175e-10
 18.58600     61.5 9.461e+03 3.211e-10
 18.59823     61.4 9.330e+03 3.067e-10
 18.60961     59.6 9.618e+03 4.202e-10
 18.63013     57.0 1.044e+04 6.547e-10
 18.64324     53.3 1.204e+04 1.228e-09
 18.65355     53.2 1.205e+04 1.224e-09
 18.67137     49.6 1.339e+04 2.271e-09
 18.69199     47.0 1.381e+04 3.141e-09
 18.70814     44.6 1.376e+04 3.161e-09
 18.71567     44.4 1.375e+04 3.433e-09
 18.72014     43.7 1.367e+04 3.223e-09
 18.73323     39.7 1.395e+04 2.846e-09
 18.75385     32.8 1.440e+04 2.372e-09
 18.77447     24.5 1.396e+04 1.996e-09
 18.78673     17.7 1.280e+04 1.603e-09
 18.79704     17.5 1.201e+04 1.192e-09
 18.81571     11.8 1.137e+04 8.804e-10
 18.82855      6.5 1.067e+04 6.074e-10
 18.83886      6.0 1.046e+04 5.563e-10
 18.85331     -0.1 1.060e+04 5.983e-10
 18.86362      1.7 1.009e+04 4.625e-10
 18.87757     -0.7 9.840e+03 5.031e-10
 18.90860     -6.0 1.107e+04 9.760e-10
 18.94994    -10.7 1.201e+04 1.756e-09
 18.98668    -14.0 1.192e+04 1.251e-09
 19.00730    -12.0 1.246e+04 1.673e-09
 19.03242    -19.2 1.213e+04 6.230e-10
 19.05927    -28.7 1.009e+04 3.944e-10
 19.07989    -28.0 1.102e+04 6.907e-10
 19.11490    -33.6 1.115e+04 6.989e-10
 19.14047    -38.5 1.164e+04 1.016e-09
 19.16109    -37.6 1.193e+04 1.231e-09
 19.19738    -40.9 1.203e+04 1.374e-09
 19.23862    -44.1 1.195e+04 1.283e-09
 19.27365    -47.5 1.147e+04 9.657e-10
 19.29388    -46.1 1.098e+04 7.385e-10
 19.30010    -46.1 1.112e+04 8.341e-10
 19.32110    -48.9 1.102e+04 7.835e-10
 19.36234    -50.9 1.091e+04 7.630e-10
 19.39317    -51.7 1.050e+04 5.997e-10
 19.41000    -52.2 1.035e+04 4.985e-10
 19.42031    -51.6 1.058e+04 5.835e-10
 19.42724    -52.5 1.009e+04 3.987e-10
 19.44796    -51.9 9.964e+03 3.383e-10
 19.48606    -52.7 9.452e+03 2.229e-10
 19.52030    -53.2 9.243e+03 1.806e-10
 19.54093    -53.0 9.263e+03 1.737e-10
 19.56061    -53.3 9.242e+03 1.704e-10
 19.58123    -52.7 9.255e+03 1.702e-10
 19.60978    -54.3 9.837e+03 2.818e-10
 19.65102    -55.7 1.104e+04 6.937e-10
 19.69226    -56.7 1.199e+04 1.277e-09
 19.71440    -58.2 1.237e+04 1.513e-09
 19.73502    -57.6 1.234e+04 1.467e-09
 19.76113    -59.7 1.200e+04 1.197e-09
 19.78175    -59.1 1.190e+04 1.126e-09
 19.81598    -60.8 1.104e+04 7.004e-10
 19.84758    -62.1 1.020e+04 4.206e-10
 19.86820    -61.3 1.014e+04 3.947e-10
 19.89846    -61.8 9.653e+03 2.731e-10
 19.93970    -62.0 9.516e+03 2.063e-10
 19.98075    -62.7 9.703e+03 1.705e-10
 20.00177    -64.0 1.021e+04 2.094e-10
 20.02258    -63.2 1.034e+04 4.090e-10
 20.06342    -64.3 1.075e+04 5.217e-10
 20.10467    -65.3 1.102e+04 6.043e-10
 20.13454    -66.3 1.113e+04 6.478e-10
 20.15516    -65.9 1.114e+04 6.570e-10
 20.18715    -66.8 1.118e+04 6.628e-10
 20.22217    -67.6 1.119e+04 6.602e-10
 20.24279    -66.9 1.133e+04 8.291e-10
 20.26771    -67.5 1.113e+04 6.070e-10
 20.28833    -66.7 1.096e+04 5.752e-10
 20.31087    -67.4 1.090e+04 3.856e-10
 20.35211    -68.5 1.090e+04 2.549e-10
 20.39335    -69.6 1.092e+04 2.176e-10
 20.42151    -70.4 1.094e+04 2.168e-10
 20.44213    -68.9 1.100e+04 2.463e-10
 20.46300    -69.6 1.113e+04 2.854e-10
 20.48362    -67.6 1.072e+04 2.057e-10
 20.51707    -68.1 1.091e+04 2.747e-10
 20.55468    -68.5 1.121e+04 3.626e-10
 20.57530    -67.4 1.146e+04 4.056e-10
 20.59955    -67.8 1.163e+04 5.035e-10
 20.64079    -68.1 1.179e+04 5.551e-10
 20.68203    -68.3 1.199e+04 6.126e-10
 20.70383    -68.4 1.239e+04 7.775e-10
 20.70965    -67.7 1.268e+04 8.992e-10
 20.72909    -67.4 1.272e+04 1.178e-09
 20.75410    -68.1 1.326e+04 1.449e-09
 20.77463    -68.6 1.375e+04 2.038e-09
 20.78517    -68.9 1.431e+04 2.985e-09
 20.79548    -68.5 1.445e+04 3.526e-09
 20.81374    -68.3 1.523e+04 4.699e-09
 20.82405    -67.8 1.515e+04 4.556e-09
 20.83649    -67.6 1.617e+04 5.728e-09
 20.85176    -67.8 1.730e+04 6.700e-09
 20.86207    -67.6 1.620e+04 5.943e-09
 20.87773    -68.2 1.662e+04 6.023e-09
 20.89835    -68.9 1.701e+04 5.993e-09
 20.91835    -69.6 1.727e+04 6.121e-09
 20.92866    -69.2 1.644e+04 5.616e-09
 20.93416    -69.5 1.648e+04 5.914e-09
 20.94447    -69.7 1.660e+04 4.206e-09
 20.96021    -69.7 1.679e+04 4.383e-09
 20.98083    -69.6 1.680e+04 4.623e-09
 20.99524    -69.4 1.672e+04 4.752e-09
 21.00555    -69.3 1.656e+04 4.800e-09
 21.02207    -69.3 1.640e+04 4.911e-09
 21.04269    -69.2 1.620e+04 4.992e-09
 21.05457    -68.8 1.601e+04 5.213e-09
 21.06340    -68.7 1.505e+04 4.329e-09
 21.07214    -68.8 1.495e+04 4.986e-09
 21.08393    -67.9 1.501e+04 5.255e-09
 21.10455    -66.9 1.500e+04 5.290e-09
 21.12517    -65.6 1.501e+04 5.143e-09
 21.13872    -64.6 1.523e+04 4.795e-09
 21.14903    -64.6 1.506e+04 4.254e-09
 21.16468    -64.3 1.540e+04 3.981e-09
 21.17499    -63.2 1.388e+04 2.939e-09
 21.18703    -63.0 1.452e+04 2.806e-09
 21.20531    -63.0 1.546e+04 2.804e-09
 21.21562    -63.4 1.524e+04 2.491e-09
 21.22827    -63.4 1.557e+04 2.708e-09
 21.24889    -63.2 1.548e+04 2.964e-09
 21.26951    -62.8 1.532e+04 3.061e-09
 21.28221    -62.3 1.470e+04 3.044e-09
 21.28748    -62.6 1.418e+04 2.527e-09
 21.29540    -62.2 1.411e+04 2.060e-09
 21.31075    -61.8 1.386e+04 2.044e-09
 21.33137    -61.4 1.348e+04 1.898e-09
 21.34879    -61.0 1.310e+04 1.700e-09
 21.35910    -61.2 1.287e+04 1.579e-09
 21.37261    -60.9 1.258e+04 1.436e-09
 21.39323    -60.5 1.230e+04 1.289e-09
 21.40551    -60.1 1.203e+04 1.139e-09
 21.41582    -59.6 1.279e+04 1.509e-09
 21.42569    -59.3 1.245e+04 1.313e-09
 21.43600    -59.2 1.236e+04 1.280e-09
 21.45509    -58.8 1.200e+04 1.086e-09
 21.47571    -58.3 1.158e+04 9.080e-10
 21.49228    -57.7 1.121e+04 7.645e-10
 21.50259    -57.4 1.114e+04 6.881e-10
 21.51561    -56.8 1.086e+04 5.746e-10
 21.52592    -56.6 1.099e+04 6.035e-10
 21.53757    -56.1 1.082e+04 5.099e-10
 21.55819    -55.6 1.074e+04 4.508e-10
 21.56917    -55.2 1.070e+04 4.195e-10
 21.58989    -54.7 1.034e+04 3.217e-10
 21.62591    -53.5 1.021e+04 3.044e-10
 21.64653    -53.9 1.035e+04 3.681e-10
 21.67180    -52.6 1.018e+04 3.737e-10
 21.70254    -50.9 9.807e+03 3.403e-10
 21.72316    -50.0 9.426e+03 2.378e-10
 21.75428    -48.1 9.220e+03 2.266e-10
 21.79552    -46.2 9.059e+03 2.021e-10
 21.83571    -44.5 9.001e+03 1.737e-10
 21.85633    -43.7 9.094e+03 1.490e-10
 21.86674    -42.5 9.164e+03 1.483e-10
 21.88736    -43.2 9.263e+03 1.994e-10
 21.91924    -42.3 9.456e+03 2.547e-10
 21.96048    -41.3 9.693e+03 3.431e-10
 21.98951    -40.2 9.924e+03 4.349e-10
 22.01013    -39.7 1.054e+04 8.407e-10
 22.04296    -38.7 1.077e+04 9.570e-10
 22.08420    -38.0 1.079e+04 9.885e-10
 22.10757    -37.5 1.055e+04 8.908e-10
 22.12543    -37.0 9.868e+03 5.428e-10
 22.14330    -36.1 1.029e+04 7.834e-10
 22.16668    -35.9 9.948e+03 5.467e-10
 22.20792    -36.2 9.683e+03 3.782e-10
 22.24916    -37.0 9.521e+03 3.018e-10
 22.27647    -37.5 9.448e+03 2.856e-10
 22.29709    -37.9 9.797e+03 3.791e-10
 22.32778    -37.5 9.627e+03 3.541e-10
 22.34840    -37.2 9.451e+03 2.796e-10
 22.37288    -36.6 9.286e+03 2.742e-10
 22.40964    -35.9 9.150e+03 2.318e-10
 22.43026    -36.0 9.254e+03 2.548e-10
 22.45536    -35.7 9.141e+03 2.020e-10
 22.49660    -35.5 9.047e+03 1.719e-10
 22.53784    -35.1 8.975e+03 1.548e-10
 22.56344    -35.0 8.943e+03 1.436e-10
 22.57358    -35.6 9.052e+03 1.764e-10
 22.58923    -35.2 8.887e+03 1.327e-10
 22.62033    -35.5 8.886e+03 1.580e-10
 22.66157    -35.8 9.067e+03 2.016e-10
 22.69661    -36.5 9.381e+03 2.633e-10
 22.71723    -37.6 9.487e+03 3.212e-10
 22.74405    -38.2 9.505e+03 3.652e-10
 22.78529    -38.5 9.451e+03 3.639e-10
 22.80944    -38.8 9.210e+03 2.635e-10
 22.83006    -37.1 9.302e+03 3.154e-10
 22.85040    -37.6 9.008e+03 1.861e-10
 22.87102    -38.9 8.886e+03 1.686e-10
 22.90901    -40.0 8.630e+03 1.239e-10
 22.95025    -40.4 8.440e+03 1.114e-10
 22.98357    -40.0 8.372e+03 1.091e-10
 23.00419    -40.5 8.420e+03 1.206e-10
 23.02965    -40.0 8.415e+03 1.085e-10
 23.05027    -38.6 8.376e+03 9.537e-11
 23.07397    -38.2 8.412e+03 8.338e-11
 23.11521    -38.2 8.466e+03 7.797e-11
 23.13737    -38.4 8.604e+03 7.865e-11
 23.15799    -39.5 8.697e+03 1.127e-10
 23.19769    -39.8 8.876e+03 1.589e-10
 23.23893    -39.6 9.061e+03 2.165e-10
 23.27048    -39.2 9.226e+03 2.489e-10
 23.29110    -39.0 9.970e+03 4.277e-10
 23.32141    -39.1 1.009e+04 4.326e-10
 23.36265    -39.3 1.012e+04 3.947e-10
 23.39079    -39.7 1.011e+04 3.694e-10
 23.40101    -40.0 1.035e+04 4.477e-10
 23.41383    -40.2 1.050e+04 4.747e-10
 23.42414    -41.5 1.075e+04 5.515e-10
 23.43463    -42.0 1.111e+04 6.161e-10
 23.45525    -42.8 1.155e+04 7.320e-10
 23.47587    -43.8 1.202e+04 9.205e-10
 23.49072    -44.7 1.254e+04 1.209e-09
 23.50103    -45.8 1.234e+04 1.154e-09
 23.51111    -46.3 1.264e+04 1.311e-09
 23.52142    -46.1 1.224e+04 1.023e-09
 23.53773    -46.6 1.238e+04 1.087e-09
 23.55731    -47.2 1.245e+04 1.098e-09
 23.57803    -48.9 1.170e+04 8.343e-10
 23.61009    -50.6 1.128e+04 6.618e-10
 23.63162    -52.3 1.112e+04 5.595e-10
 23.63521    -51.2 1.112e+04 5.731e-10
 23.64452    -51.8 1.098e+04 5.335e-10
 23.66145    -52.6 1.100e+04 5.249e-10
 23.68207    -54.0 1.112e+04 5.392e-10
 23.70079    -54.8 1.135e+04 6.279e-10
 23.71120    -55.5 1.135e+04 6.428e-10
 23.73152    -56.5 1.181e+04 1.000e-09
 23.75204    -55.6 1.170e+04 9.240e-10
 23.77496    -55.9 1.178e+04 1.042e-09
 23.80589    -56.2 1.158e+04 9.999e-10
 23.82641    -55.7 1.120e+04 7.315e-10
 23.84437    -55.3 1.065e+04 3.881e-10
 23.86509    -56.0 1.057e+04 3.583e-10
 23.89878    -56.1 1.008e+04 1.991e-10
 23.94002    -55.3 9.682e+03 1.372e-10
 23.97235    -54.3 9.584e+03 1.242e-10
 23.98935    -53.5 9.583e+03 1.265e-10
 23.99826    -55.4 1.007e+04 1.529e-10
 24.02250    -55.9 1.073e+04 2.748e-10
 24.06374    -56.0 1.129e+04 5.920e-10
 24.09266    -55.6 1.174e+04 1.025e-09
 24.10287    -55.9 1.188e+04 1.088e-09
 24.11509    -55.5 1.206e+04 1.288e-09
 24.13124    -54.9 1.211e+04 1.400e-09
 24.14155    -55.9 1.232e+04 1.514e-09
 24.15633    -55.3 1.202e+04 1.338e-09
 24.17695    -54.8 1.173e+04 1.086e-09
 24.19757    -54.6 1.140e+04 8.513e-10
 24.20814    -54.4 1.106e+04 6.791e-10
 24.21323    -55.9 1.099e+04 6.339e-10
 24.22329    -56.1 1.113e+04 6.696e-10
 24.23881    -55.9 1.088e+04 5.726e-10
 24.25943    -55.5 1.069e+04 5.055e-10
 24.27472    -55.1 1.052e+04 4.677e-10
 24.28503    -56.1 1.071e+04 5.680e-10
 24.30067    -55.3 1.058e+04 5.462e-10
 24.32129    -54.4 1.043e+04 5.153e-10
 24.33339    -53.5 1.028e+04 4.734e-10
 24.34310    -53.8 1.069e+04 6.403e-10
 24.35162    -54.3 1.091e+04 7.402e-10
 24.36253    -53.3 1.068e+04 6.336e-10
 24.38315    -52.3 1.043e+04 5.255e-10
 24.40377    -51.2 1.021e+04 4.385e-10
 24.41830    -49.8 9.972e+03 3.488e-10
 24.43750    -50.9 1.003e+04 3.499e-10
 24.45391    -50.1 1.016e+04 4.127e-10
 24.47604    -48.9 1.008e+04 3.692e-10
 24.51738    -47.1 9.843e+03 3.018e-10
 24.55157    -44.9 9.509e+03 2.437e-10
 24.57219    -45.6 9.453e+03 2.387e-10
 24.59986    -43.3 9.344e+03 2.222e-10
 24.64110    -41.1 9.340e+03 2.223e-10
 24.67421    -38.9 9.459e+03 2.541e-10
 24.69483    -38.4 9.680e+03 2.881e-10
 24.70536    -36.2 9.881e+03 3.435e-10
 24.72599    -36.8 1.007e+04 3.838e-10
 24.75442    -35.2 1.020e+04 4.689e-10
 24.77176    -34.9 1.020e+04 4.993e-10
 24.78207    -35.2 1.044e+04 5.568e-10
 24.79443    -34.5 1.090e+04 7.408e-10
 24.80474    -33.9 1.103e+04 7.606e-10
 24.81618    -33.8 1.152e+04 9.872e-10
 24.83680    -33.8 1.211e+04 1.385e-09
 24.84865    -34.1 1.258e+04 1.964e-09
 24.85896    -34.8 1.265e+04 2.062e-09
 24.87804    -35.6 1.361e+04 2.909e-09
 24.89866    -37.3 1.507e+04 4.327e-09
 24.91485    -39.9 1.670e+04 6.215e-09
 24.92112    -41.1 1.868e+04 1.014e-08
 24.92550    -42.4 1.770e+04 7.070e-09
 24.93465    -44.7 1.791e+04 7.558e-09
 24.94496    -46.4 1.787e+04 7.672e-09
 24.95359    -48.7 1.694e+04 7.044e-09
 24.95874    -49.6 1.581e+04 5.273e-09
 24.96558    -50.7 1.565e+04 4.941e-09
 24.97496    -52.6 1.553e+04 4.431e-09
 24.98011    -52.8 1.572e+04 4.424e-09
 24.98620    -53.7 1.573e+04 4.161e-09
 24.99209    -56.0 1.596e+04 3.835e-09
 25.00244    -56.4 1.496e+04 2.675e-09
 25.02238    -60.1 1.397e+04 1.908e-09
 25.03526    -63.1 1.263e+04 1.508e-09
 25.04557    -64.3 1.209e+04 1.383e-09
 25.05872    -64.5 1.192e+04 1.346e-09
 25.06903    -63.5 1.177e+04 1.267e-09
 25.08424    -63.1 1.182e+04 1.271e-09
 25.10486    -62.8 1.170e+04 1.139e-09
 25.12531    -62.7 1.154e+04 9.761e-10
 25.13562    -61.5 1.154e+04 1.016e-09
 25.14537    -61.5 1.137e+04 8.839e-10
 25.15568    -61.4 1.130e+04 8.317e-10
 25.16672    -61.2 1.113e+04 7.331e-10
 25.18734    -61.0 1.103e+04 6.562e-10
 25.20220    -60.8 1.087e+04 5.729e-10
 25.21251    -59.7 1.094e+04 6.231e-10
 25.22858    -59.4 1.085e+04 5.574e-10
 25.24920    -59.2 1.070e+04 5.056e-10
 25.26578    -58.9 1.052e+04 4.745e-10
 25.27506    -59.1 1.052e+04 4.779e-10
 25.27910    -58.0 1.062e+04 4.814e-10
 25.29044    -57.8 1.042e+04 4.594e-10
 25.31106    -57.4 1.026e+04 4.473e-10
 25.33168    -56.7 1.016e+04 4.327e-10
 25.34569    -55.9 1.014e+04 4.171e-10
 25.35600    -55.5 1.015e+04 4.166e-10
 25.37598    -54.7 1.015e+04 4.061e-10
 25.39660    -54.5 1.025e+04 4.483e-10
 25.41237    -53.9 1.030e+04 4.778e-10
 25.42268    -53.3 1.050e+04 5.130e-10
 25.43478    -52.9 1.064e+04 6.019e-10
 25.46581    -52.2 1.097e+04 7.791e-10
 25.50715    -51.1 1.139e+04 1.028e-09
 25.54564    -50.4 1.184e+04 1.284e-09
 25.56626    -49.6 1.209e+04 1.536e-09
 25.58963    -49.2 1.235e+04 1.727e-09
 25.61681    -49.4 1.218e+04 1.576e-09
 25.62703    -49.1 1.183e+04 1.330e-09
 25.63265    -49.1 1.188e+04 1.376e-09
 25.64296    -48.7 1.166e+04 1.300e-09
 25.66160    -48.3 1.176e+04 1.406e-09
 25.68223    -48.3 1.183e+04 1.456e-09
 25.69924    -48.3 1.205e+04 1.542e-09
 25.70955    -47.6 1.174e+04 1.434e-09
 25.72347    -47.8 1.203e+04 1.521e-09
 25.73713    -48.4 1.242e+04 1.686e-09
 25.74744    -48.0 1.233e+04 1.565e-09
 25.76471    -49.2 1.287e+04 1.946e-09
 25.77613    -50.1 1.303e+04 2.469e-09
 25.78644    -49.1 1.284e+04 2.094e-09
 25.80595    -49.6 1.285e+04 2.512e-09
 25.82657    -49.7 1.276e+04 2.698e-09
 25.84272    -49.5 1.266e+04 2.712e-09
 25.85303    -48.9 1.228e+04 2.257e-09
 25.86781    -48.2 1.216e+04 2.232e-09
 25.88843    -47.9 1.164e+04 1.623e-09
 25.90905    -48.3 1.109e+04 1.096e-09
 25.91962    -49.5 1.054e+04 7.717e-10
 25.92993    -49.1 1.054e+04 7.712e-10
 25.95029    -50.1 1.014e+04 6.091e-10
 25.96765    -50.8 9.938e+03 5.495e-10
 25.97796    -51.1 1.003e+04 5.535e-10
 25.98620    -51.7 9.979e+03 5.443e-10
 25.99651    -51.6 1.037e+04 6.548e-10
 26.01215    -52.5 1.044e+04 6.799e-10
 26.03277    -53.8 1.093e+04 8.643e-10
 26.05279    -55.7 1.175e+04 1.221e-09
 26.06310    -56.4 1.240e+04 1.557e-09
 26.07401    -58.8 1.341e+04 2.383e-09
 26.08807    -60.7 1.422e+04 3.490e-09
 26.09838    -62.5 1.522e+04 5.266e-09
 26.11525    -63.6 1.556e+04 6.039e-09
 26.12969    -64.6 1.559e+04 6.093e-09
 26.14000    -64.9 1.577e+04 7.153e-09
 26.15649    -65.3 1.499e+04 4.856e-09
 26.17711    -66.8 1.392e+04 2.948e-09
 26.19627    -69.0 1.274e+04 1.918e-09
 26.20658    -69.1 1.253e+04 1.706e-09
 26.20848    -70.3 1.185e+04 1.353e-09
 26.21879    -71.1 1.173e+04 1.224e-09
 26.23897    -71.3 1.156e+04 1.148e-09
 26.25959    -71.0 1.150e+04 1.115e-09
 26.27317    -70.5 1.149e+04 1.104e-09
 26.28348    -70.8 1.145e+04 1.096e-09
 26.30083    -70.4 1.159e+04 1.178e-09
 26.31858    -70.0 1.174e+04 1.286e-09
 26.32889    -70.6 1.171e+04 1.243e-09
 26.33975    -70.1 1.192e+04 1.381e-09
 26.35006    -70.3 1.195e+04 1.421e-09
 26.36269    -69.9 1.216e+04 1.563e-09
 26.38331    -69.8 1.230e+04 1.624e-09
 26.40644    -69.9 1.236e+04 1.621e-09
 26.42706    -70.0 1.251e+04 1.760e-09
 26.45558    -70.4 1.251e+04 1.695e-09
 26.49692    -69.9 1.231e+04 1.495e-09
 26.53816    -69.1 1.194e+04 1.163e-09
 26.55961    -68.0 1.143e+04 8.360e-10
 26.56116    -68.6 1.103e+04 5.906e-10
 26.58095    -69.3 1.074e+04 4.188e-10
 26.62064    -67.7 1.033e+04 2.633e-10
 26.66188    -65.9 1.005e+04 1.745e-10
 26.69350    -64.1 9.893e+03 1.264e-10
 26.71412    -65.1 9.756e+03 7.179e-11
 26.74436    -63.2 9.773e+03 6.681e-11
 26.77982    -62.5 9.982e+03 6.838e-11
 26.80044    -61.9 9.878e+03 6.466e-11
 26.82667    -62.1 1.043e+04 1.068e-10
 26.86791    -62.8 1.082e+04 3.143e-10
 26.90932    -61.9 1.141e+04 6.084e-10
 26.95056    -61.5 1.187e+04 7.722e-10
 26.98047    -62.0 1.197e+04 7.859e-10
 27.00109    -62.7 1.150e+04 5.117e-10
 27.02065    -63.9 1.139e+04 4.453e-10
 27.04127    -62.3 1.143e+04 4.688e-10
 27.07428    -63.6 1.164e+04 5.153e-10
 27.11364    -65.4 1.232e+04 9.025e-10
 27.13426    -65.8 1.215e+04 7.696e-10
 27.15676    -67.2 1.322e+04 1.650e-09
 27.18759    -68.1 1.398e+04 2.505e-09
 27.20065    -69.4 1.420e+04 2.774e-09
 27.21096    -69.7 1.429e+04 2.998e-09
 27.22874    -70.9 1.433e+04 3.073e-09
 27.24936    -72.1 1.400e+04 2.709e-09
 27.26128    -73.3 1.343e+04 1.977e-09
 27.26885    -72.7 1.350e+04 2.033e-09
 27.27755    -72.8 1.350e+04 2.067e-09
 27.29060    -74.0 1.281e+04 1.382e-09
 27.31122    -75.1 1.219e+04 9.400e-10
 27.33184    -75.8 1.172e+04 6.787e-10
 27.34413    -76.2 1.138e+04 5.203e-10
 27.35444    -76.3 1.130e+04 4.843e-10
 27.37139    -76.5 1.104e+04 4.023e-10
 27.38170    -76.3 1.107e+04 4.030e-10
 27.40051    -76.6 1.090e+04 3.633e-10
 27.42122    -76.6 1.082e+04 3.421e-10
 27.44544    -76.4 1.062e+04 3.215e-10
 27.48169    -75.5 1.057e+04 3.203e-10
 27.50231    -74.8 1.053e+04 2.812e-10
 27.52793    -73.9 1.053e+04 3.024e-10
 27.55440    -72.9 1.060e+04 3.297e-10
 27.57502    -73.3 1.057e+04 3.237e-10
 27.61041    -72.3 1.059e+04 3.299e-10
 27.65165    -71.5 1.060e+04 3.205e-10
 27.68757    -70.8 1.065e+04 3.066e-10
 27.70819    -71.3 1.063e+04 3.272e-10
 27.72252    -71.1 1.074e+04 3.275e-10
 27.74314    -70.0 1.058e+04 3.029e-10
 27.77537    -70.0 1.065e+04 2.957e-10
 27.81661    -70.1 1.070e+04 3.113e-10
 27.84136    -70.2 1.072e+04 3.596e-10
 27.86198    -70.3 1.067e+04 3.383e-10
 27.89909    -72.8 1.163e+04 4.833e-10
 27.92992    -76.3 1.267e+04 6.968e-10
 27.95044    -80.2 1.412e+04 1.324e-09
 27.96315    -83.2 1.499e+04 2.676e-09
 27.97346    -80.6 1.413e+04 1.658e-09
 27.98465    -82.9 1.468e+04 3.033e-09
 27.99496    -83.2 1.469e+04 3.351e-09
 28.01230    -84.3 1.469e+04 4.387e-09
 28.03292    -85.1 1.456e+04 4.528e-09
 28.05124    -86.2 1.397e+04 3.466e-09
 28.06155    -86.2 1.364e+04 2.957e-09
 28.07326    -88.8 1.292e+04 1.807e-09
 28.08357    -87.1 1.315e+04 2.187e-09
 28.09478    -90.7 1.282e+04 1.612e-09
 28.11540    -94.8 1.278e+04 1.510e-09
 28.12813    -98.8 1.334e+04 1.786e-09
 28.13844    -98.3 1.287e+04 1.537e-09
 28.15665   -101.1 1.350e+04 2.272e-09
 28.17727   -103.2 1.389e+04 2.825e-09
 28.19367   -105.3 1.396e+04 2.928e-09
 28.20081   -104.6 1.340e+04 2.275e-09
 28.20503   -103.7 1.301e+04 2.012e-09
 28.21851   -105.8 1.286e+04 1.827e-09
 28.23913   -107.7 1.225e+04 1.287e-09
 28.25975   -109.7 1.163e+04 8.679e-10
 28.27161   -111.3 1.111e+04 6.390e-10
 28.28192   -110.3 1.094e+04 6.042e-10
 28.30099   -111.3 1.061e+04 4.764e-10
 28.31409   -111.8 1.035e+04 3.997e-10
 28.32440   -111.4 1.025e+04 3.723e-10
 28.35263   -112.0 1.011e+04 3.451e-10
 28.39397   -112.1 9.917e+03 3.187e-10
 28.41529   -111.8 9.729e+03 3.020e-10
 28.42509   -111.1 9.456e+03 2.553e-10
 28.44501   -109.7 9.348e+03 2.504e-10
 28.47645   -109.3 9.337e+03 2.483e-10
 28.51769   -108.7 9.385e+03 2.703e-10
 28.54846   -108.0 9.613e+03 3.381e-10
 28.56908   -107.8 9.260e+03 2.667e-10
 28.60017   -107.1 9.376e+03 3.010e-10
 28.64141   -106.3 9.448e+03 3.275e-10
 28.66521   -105.6 9.447e+03 3.425e-10
 28.68482   -105.1 9.508e+03 3.696e-10
 28.70226   -104.6 9.109e+03 2.675e-10
 28.72389   -103.7 9.072e+03 2.619e-10
 28.76514   -102.7 9.040e+03 2.594e-10
 28.80638   -101.6 9.024e+03 2.596e-10
 28.83543   -100.4 9.064e+03 2.744e-10
 28.85605    -99.4 8.896e+03 2.233e-10
 28.88542    -98.1 9.072e+03 2.506e-10
 28.90604    -97.6 9.021e+03 2.472e-10
 28.93010    -96.3 9.167e+03 2.613e-10
 28.96860    -95.2 9.363e+03 2.713e-10
 28.98922    -94.4 9.466e+03 3.345e-10
 29.01258    -93.8 9.783e+03 3.874e-10
 29.05382    -93.5 1.018e+04 4.675e-10
 29.09506    -93.6 1.070e+04 6.160e-10
 29.12239    -94.2 1.125e+04 8.616e-10
 29.13297    -94.1 1.193e+04 1.301e-09
 29.14687    -93.1 1.148e+04 9.868e-10
 29.17754    -94.3 1.198e+04 1.312e-09
 29.21878    -95.6 1.212e+04 1.449e-09
 29.25557    -96.8 1.202e+04 1.403e-09
 29.27619    -97.7 1.193e+04 1.340e-09
 29.30126    -98.7 1.141e+04 9.631e-10
 29.34250    -99.5 1.093e+04 6.639e-10
 29.36708   -100.1 1.054e+04 4.594e-10
 29.38770    -99.8 1.055e+04 4.738e-10
 29.40936   -100.2 1.021e+04 3.353e-10
 29.42998   -100.6 9.856e+03 2.357e-10
 29.46622   -100.7 9.645e+03 1.758e-10
 29.50746   -100.4 9.465e+03 1.457e-10
 29.54253    -99.8 9.356e+03 1.356e-10
 29.56315    -99.5 9.224e+03 9.591e-11
 29.58729    -98.9 9.170e+03 9.313e-11
 29.60791    -98.6 9.177e+03 9.406e-11
 29.63118    -97.8 9.165e+03 9.422e-11
 29.67242    -97.0 9.175e+03 1.028e-10
 29.69633    -96.2 9.226e+03 1.180e-10
 29.71695    -95.6 9.096e+03 8.896e-11
 29.75490    -94.5 9.155e+03 1.034e-10
 29.79614    -93.4 9.223e+03 1.157e-10
 29.82812    -92.4 9.289e+03 1.228e-10
 29.84086    -92.5 9.307e+03 1.291e-10
 29.85012    -91.6 9.246e+03 1.212e-10
 29.87862    -90.6 9.358e+03 1.352e-10
 29.91986    -89.6 9.443e+03 1.454e-10
 29.96110    -88.7 9.464e+03 1.539e-10
 29.98329    -87.6 9.443e+03 1.571e-10
 30.00391    -86.7 9.538e+03 1.890e-10
 30.04359    -85.5 9.519e+03 1.898e-10
 30.06895    -83.9 9.316e+03 1.796e-10
 30.08957    -84.1 9.348e+03 2.015e-10
 30.11646    -82.3 9.164e+03 1.381e-10
 30.13708    -81.3 9.385e+03 1.990e-10
 30.16731    -79.4 9.198e+03 1.309e-10
 30.20855    -77.5 9.089e+03 8.107e-11
 30.24964    -75.8 9.049e+03 5.102e-11
 30.28901    -72.8 9.192e+03 6.080e-11
 30.30978    -73.4 9.195e+03 6.343e-11
 30.33227    -71.7 9.218e+03 4.996e-11
 30.37351    -70.1 9.213e+03 4.638e-11
 30.40343    -68.5 9.179e+03 5.413e-11
 30.42405    -67.0 9.446e+03 8.241e-11
 30.45599    -65.6 9.561e+03 9.125e-11
 30.49723    -64.5 9.794e+03 1.462e-10
 30.52999    -63.2 1.006e+04 2.540e-10
 30.54874    -64.7 1.025e+04 3.381e-10
 30.55722    -63.6 1.097e+04 5.315e-10
 30.57971    -63.4 1.164e+04 8.400e-10
 30.61054    -62.3 1.204e+04 1.052e-09
 30.62361    -63.4 1.264e+04 1.250e-09
 30.63392    -63.1 1.264e+04 1.362e-09
 30.65021    -65.0 1.420e+04 2.184e-09
 30.66052    -68.3 1.503e+04 2.760e-09
 30.67231    -71.6 1.650e+04 4.509e-09
 30.69020    -74.6 1.729e+04 6.233e-09
 30.70051    -74.3 1.746e+04 5.673e-09
 30.71355    -77.5 1.761e+04 6.197e-09
 30.73417    -80.6 1.687e+04 5.034e-09
 30.75479    -84.4 1.548e+04 2.495e-09
 30.76709    -89.7 1.291e+04 9.355e-10
 30.77262    -89.8 1.270e+04 9.584e-10
 30.78094    -93.7 1.102e+04 6.131e-10
 30.79603    -96.8 1.049e+04 4.196e-10
 30.81665    -97.8 1.032e+04 3.776e-10
 30.83368    -98.3 1.028e+04 3.640e-10
 30.84399    -98.5 1.031e+04 3.517e-10
 30.85789    -99.1 1.032e+04 3.502e-10
 30.87851    -99.7 1.034e+04 3.510e-10
 30.90953   -100.4 1.039e+04 3.571e-10
 30.95087   -101.3 1.046e+04 3.682e-10
 30.97736   -103.1 1.064e+04 3.501e-10
 30.99690   -104.8 1.165e+04 8.022e-10
 31.01165   -107.1 1.122e+04 5.793e-10
 31.03335   -108.5 1.079e+04 4.531e-10
 31.07459   -110.0 1.021e+04 2.846e-10
 31.11053   -111.5 9.954e+03 2.243e-10
 31.13115   -112.9 1.019e+04 2.968e-10
 31.15707   -114.1 1.008e+04 2.805e-10
 31.19831   -115.3 1.019e+04 2.987e-10
 31.23186   -117.1 1.099e+04 4.988e-10
 31.25248   -119.2 1.138e+04 6.890e-10
 31.26432   -121.0 1.205e+04 1.101e-09
 31.28494   -123.4 1.271e+04 1.660e-09
 31.32204   -125.0 1.302e+04 1.990e-09
 31.36328   -126.6 1.308e+04 2.076e-09
 31.39750   -127.9 1.287e+04 1.969e-09
 31.41812   -130.2 1.272e+04 1.610e-09
 31.44576   -130.9 1.232e+04 1.303e-09
 31.47269   -130.6 1.186e+04 1.031e-09
 31.49331   -131.0 1.147e+04 8.761e-10
 31.52824   -130.0 1.107e+04 6.543e-10
 31.55129   -128.6 1.077e+04 5.081e-10
 31.57191   -129.5 1.146e+04 7.880e-10
 31.61072   -127.8 1.124e+04 6.753e-10
 31.65196   -126.1 1.111e+04 6.042e-10
 31.68446   -124.4 1.108e+04 5.708e-10
 31.70478   -124.6 1.146e+04 8.137e-10
 31.71352   -125.4 1.112e+04 5.743e-10
 31.73444   -124.4 1.121e+04 5.663e-10
 31.77568   -124.0 1.190e+04 7.399e-10
 31.81692   -123.8 1.261e+04 1.190e-09
 31.83825   -123.6 1.318e+04 1.933e-09
 31.85887   -122.9 1.269e+04 1.312e-09
 31.89940   -122.5 1.312e+04 1.949e-09
 31.93023   -122.4 1.324e+04 2.389e-09
 31.94384   -121.7 1.329e+04 2.561e-09
 31.95425   -123.3 1.293e+04 1.751e-09
 31.97133   -122.1 1.311e+04 1.871e-09
 31.98154   -122.2 1.330e+04 2.344e-09
 31.99200   -121.9 1.336e+04 2.161e-09
 32.01262   -121.7 1.338e+04 1.832e-09
 32.03324   -121.8 1.322e+04 1.449e-09
 32.04813   -122.2 1.290e+04 1.203e-09
 32.05844   -121.4 1.347e+04 1.662e-09
 32.07448   -123.4 1.247e+04 1.072e-09
 32.09510   -123.6 1.237e+04 1.058e-09
 32.11471   -123.5 1.227e+04 1.098e-09
 32.12502   -124.3 1.237e+04 1.095e-09
 32.14674   -124.9 1.232e+04 1.151e-09
 32.17456   -125.8 1.212e+04 1.289e-09
 32.19518   -127.5 1.204e+04 1.255e-09
 32.22932   -127.6 1.199e+04 1.261e-09
 32.25839   -127.3 1.161e+04 1.087e-09
 32.27901   -127.8 1.112e+04 9.512e-10
 32.31180   -127.2 1.075e+04 7.570e-10
 32.35304   -126.7 1.052e+04 6.376e-10
 32.39156   -126.3 1.047e+04 6.090e-10
 32.41218   -126.3 1.016e+04 4.805e-10
 32.41539   -126.4 1.033e+04 5.484e-10
 32.43601   -127.6 1.030e+04 4.778e-10
 32.47677   -128.0 1.063e+04 6.490e-10
 32.51801   -128.4 1.093e+04 8.427e-10
 32.54536   -129.0 1.112e+04 9.985e-10
 32.56598   -129.0 1.089e+04 9.024e-10
 32.60049   -129.5 1.088e+04 9.168e-10
 32.63560   -129.8 1.074e+04 8.722e-10
 32.65622   -131.5 1.084e+04 8.963e-10
 32.67853   -131.6 1.064e+04 8.618e-10
 32.69915   -131.7 1.014e+04 5.766e-10
 32.72421   -131.7 9.924e+03 5.314e-10
 32.76545   -131.4 9.672e+03 4.584e-10
 32.80669   -131.1 9.400e+03 3.703e-10
 32.83232   -130.7 9.247e+03 3.044e-10
 32.85294   -131.4 9.221e+03 2.956e-10
 32.87643   -131.6 9.245e+03 2.806e-10
 32.89705   -133.8 9.440e+03 3.013e-10
 32.93041   -135.0 9.677e+03 3.143e-10
 32.96549   -137.2 1.036e+04 4.859e-10
 32.98611   -138.2 1.029e+04 4.667e-10
 33.01289   -139.9 1.103e+04 7.991e-10
 33.05413   -141.1 1.189e+04 1.297e-09
 33.08496   -141.7 1.206e+04 1.387e-09
 33.10548   -142.2 1.222e+04 1.471e-09
 33.11706   -143.1 1.230e+04 1.571e-09
 33.12036   -143.3 1.171e+04 1.095e-09
 33.13981   -143.6 1.133e+04 8.978e-10
 33.16744   -144.2 1.147e+04 1.069e-09
 33.18568   -144.5 1.142e+04 1.116e-09
 33.19599   -144.1 1.126e+04 9.922e-10
 33.20859   -144.3 1.121e+04 1.041e-09
 33.22716   -144.4 1.115e+04 1.051e-09
 33.23747   -144.3 1.119e+04 9.971e-10
 33.24983   -144.4 1.116e+04 1.010e-09
 33.26257   -144.5 1.101e+04 1.016e-09
 33.27288   -144.1 1.091e+04 9.601e-10
 33.29107   -144.1 1.072e+04 8.966e-10
 33.31169   -143.9 1.050e+04 7.804e-10
 33.32916   -143.5 1.029e+04 6.347e-10
 33.33947   -143.0 1.018e+04 5.764e-10
 33.34758   -142.7 1.002e+04 4.625e-10
 33.35789   -142.5 1.014e+04 5.128e-10
 33.38395   -142.2 1.000e+04 4.182e-10
 33.40625   -142.1 9.889e+03 3.438e-10
 33.42687   -141.5 9.797e+03 3.172e-10
 33.46653   -140.9 9.770e+03 2.841e-10
 33.50777   -140.7 9.822e+03 2.826e-10
 33.53943   -141.1 1.050e+04 3.947e-10
 33.56005   -140.7 1.066e+04 4.596e-10
 33.57829   -141.3 1.140e+04 8.299e-10
 33.59891   -141.2 1.126e+04 6.573e-10
 33.63149   -142.0 1.176e+04 1.002e-09
 33.67260   -142.8 1.204e+04 1.250e-09
 33.71384   -142.8 1.212e+04 1.317e-09
 33.75522   -143.3 1.201e+04 1.216e-09
 33.78605   -143.2 1.186e+04 1.086e-09
 33.80657   -143.4 1.184e+04 1.059e-09
 33.81893   -143.7 1.185e+04 1.035e-09
 33.82824   -143.5 1.184e+04 9.503e-10
 33.83651   -142.9 1.174e+04 9.064e-10
 33.84781   -143.3 1.172e+04 8.729e-10
 33.86843   -143.6 1.169e+04 8.369e-10
 33.88905   -144.1 1.166e+04 8.023e-10
 33.90309   -144.5 1.162e+04 7.752e-10
 33.91340   -143.6 1.156e+04 7.630e-10
 33.92903   -144.0 1.156e+04 7.519e-10
 33.93934   -143.9 1.146e+04 6.828e-10
 33.95091   -144.3 1.141e+04 6.682e-10
 33.96968   -144.7 1.135e+04 6.557e-10
 33.97999   -143.6 1.136e+04 6.543e-10
 33.99215   -143.9 1.129e+04 6.410e-10
 34.01277   -144.1 1.120e+04 6.265e-10
 34.03339   -144.2 1.110e+04 6.122e-10
 34.04657   -144.0 1.099e+04 6.010e-10
 34.05232   -143.3 1.097e+04 5.893e-10
 34.05976   -143.2 1.068e+04 4.506e-10
 34.08504   -143.4 1.051e+04 4.203e-10
 34.11336   -143.0 1.021e+04 3.756e-10
 34.13398   -141.5 1.010e+04 3.228e-10
 34.16762   -140.7 9.814e+03 2.817e-10
 34.20886   -139.4 9.548e+03 2.390e-10
 34.24653   -138.0 9.326e+03 1.967e-10
 34.26715   -137.2 9.326e+03 1.920e-10
 34.28016   -136.0 9.190e+03 1.730e-10
 34.30078   -135.3 8.982e+03 1.061e-10
 34.33258   -134.2 8.951e+03 1.020e-10
 34.37382   -133.0 8.944e+03 1.014e-10
 34.40032   -132.0 8.947e+03 1.052e-10
 34.42094   -131.6 9.013e+03 1.255e-10
 34.45630   -130.8 8.995e+03 1.331e-10
 34.49754   -130.1 8.951e+03 1.375e-10
 34.52099   -129.3 8.916e+03 1.384e-10
 34.53632   -129.0 9.013e+03 1.642e-10
 34.55411   -128.9 9.083e+03 1.859e-10
 34.58002   -128.0 9.043e+03 1.865e-10
 34.62126   -126.9 8.896e+03 1.773e-10
 34.66250   -125.7 8.760e+03 1.619e-10
 34.68729   -124.4 8.652e+03 1.494e-10
 34.70791   -124.1 8.609e+03 1.374e-10
 34.74120   -122.7 8.525e+03 1.273e-10
 34.76182   -122.5 8.607e+03 1.362e-10
 34.78622   -121.1 8.580e+03 1.341e-10
 34.82046   -119.6 8.574e+03 1.346e-10
 34.84108   -119.1 8.539e+03 1.202e-10
 34.86870   -117.7 8.555e+03 1.265e-10
 34.90994   -116.2 8.607e+03 1.406e-10
 34.95119   -114.7 8.677e+03 1.594e-10
 34.97425   -113.4 8.783e+03 1.853e-10
 34.98448   -113.2 8.795e+03 1.843e-10
 35.00265   -113.6 8.981e+03 2.144e-10
 35.03367   -112.4 9.183e+03 2.764e-10
 35.07491   -111.2 9.418e+03 3.524e-10
 35.10742   -110.1 9.654e+03 4.218e-10
 35.12804   -110.3 9.704e+03 4.297e-10
 35.15739   -109.6 9.841e+03 4.573e-10
 35.19863   -109.1 9.869e+03 4.607e-10
 35.22286   -108.5 9.862e+03 4.237e-10
 35.24348   -108.6 9.626e+03 3.165e-10
 35.26122   -107.8 9.536e+03 2.597e-10
 35.28184   -108.3 9.710e+03 3.044e-10
 35.32235   -107.3 9.662e+03 2.356e-10
 35.36359   -106.4 9.702e+03 1.815e-10
 35.39439   -105.7 9.799e+03 1.569e-10
 35.41501   -106.3 1.007e+04 3.122e-10
 35.44307   -105.6 1.014e+04 3.356e-10
 35.46369   -104.9 1.007e+04 2.099e-10
 35.48731   -104.3 1.011e+04 2.475e-10
 35.52756   -103.6 1.010e+04 2.947e-10
 35.54818   -103.9 1.062e+04 6.558e-10
 35.56979   -102.9 1.057e+04 6.574e-10
 35.61103   -101.8 1.036e+04 5.641e-10
 35.65227   -100.6 1.019e+04 4.462e-10
 35.68135    -99.4 1.012e+04 3.474e-10
 35.69236    -99.7 1.029e+04 4.678e-10
 35.70452    -99.3 1.059e+04 6.883e-10
 35.73475    -98.0 1.044e+04 5.697e-10
 35.77599    -96.8 1.031e+04 4.646e-10
 35.81453    -95.5 1.022e+04 3.753e-10
 35.83515    -95.7 1.022e+04 4.145e-10
 35.85847    -94.5 1.024e+04 3.782e-10
 35.89971    -93.4 1.030e+04 3.746e-10
 35.92473    -92.7 1.060e+04 4.382e-10
 35.94535    -92.0 1.090e+04 6.761e-10
 35.96832    -91.3 1.119e+04 7.870e-10
 35.98894    -91.9 1.141e+04 9.169e-10
 36.02343    -91.5 1.148e+04 9.465e-10
 36.06467    -90.9 1.138e+04 8.695e-10
 36.10149    -89.8 1.112e+04 6.687e-10
 36.12211    -90.1 1.095e+04 5.614e-10
 36.14494    -88.8 1.067e+04 3.740e-10
 36.16556    -88.7 1.076e+04 3.630e-10
 36.18840    -87.5 1.062e+04 3.252e-10
 36.22964    -86.1 1.057e+04 3.200e-10
 36.25528    -84.8 1.056e+04 3.324e-10
 36.27590    -84.7 1.045e+04 2.417e-10
 36.31212    -83.4 1.056e+04 3.135e-10
 36.35336    -81.8 1.068e+04 3.967e-10
 36.38577    -80.1 1.080e+04 4.530e-10
 36.40025    -79.5 1.109e+04 7.633e-10
 36.40908    -79.3 1.112e+04 7.898e-10
 36.43584    -77.5 1.129e+04 9.241e-10
 36.47708    -75.8 1.142e+04 1.012e-09
 36.51832    -74.1 1.156e+04 1.100e-09
 36.54225    -72.7 1.188e+04 1.291e-09
 36.56287    -72.9 1.201e+04 1.395e-09
 36.60080    -71.7 1.272e+04 1.826e-09
 36.62650    -70.2 1.295e+04 2.388e-09
 36.63671    -70.4 1.297e+04 2.346e-09
 36.65215    -69.7 1.315e+04 2.580e-09
 36.67277    -70.1 1.408e+04 3.027e-09
 36.68554    -75.0 1.984e+04 5.218e-09
 36.69585    -77.6 2.051e+04 7.743e-09
 36.70881    -80.0 2.111e+04 1.687e-08
 36.71873    -81.7 2.060e+04 3.276e-08
 36.72389    -82.2 2.045e+04 3.846e-08
 36.72938    -82.8 1.986e+04 6.229e-08
 36.73969    -83.1 1.936e+04 7.375e-08
 36.74672    -83.4 1.910e+04 7.553e-08
 36.75187    -82.6 1.995e+04 6.456e-08
 36.75718    -82.3 1.916e+04 5.558e-08
 36.76234    -82.6 1.890e+04 5.278e-08
 36.77062    -82.7 1.850e+04 3.251e-08
 36.78093    -84.2 1.804e+04 1.884e-08
 36.79047    -86.8 1.704e+04 1.148e-08
 36.79563    -87.2 1.674e+04 1.077e-08
 36.80155    -88.5 1.582e+04 7.681e-09
 36.81707    -89.2 1.532e+04 5.552e-09
 36.82902    -89.8 1.450e+04 2.488e-09
 36.83933    -89.4 1.472e+04 2.272e-09
 36.85692    -90.0 1.466e+04 1.051e-09
 36.86723    -89.6 1.429e+04 2.337e-09
 36.87898    -90.0 1.408e+04 1.160e-09
 36.89561    -91.2 1.364e+04 6.145e-10
 36.90592    -91.3 1.341e+04 5.595e-10
 36.92022    -91.7 1.263e+04 3.827e-10
 36.94084    -91.7 1.217e+04 3.199e-10
 36.96146    -91.6 1.194e+04 2.965e-10
 36.97250    -91.2 1.178e+04 2.838e-10
 36.97807    -90.9 1.182e+04 2.832e-10
 36.98765    -90.9 1.219e+04 3.971e-10
 37.00270    -90.6 1.215e+04 3.874e-10
 37.02332    -90.4 1.217e+04 3.887e-10
 37.03909    -90.3 1.225e+04 4.181e-10
 37.04940    -90.0 1.230e+04 4.307e-10
 37.06456    -90.0 1.227e+04 5.008e-10
 37.08518    -89.9 1.218e+04 5.953e-10
 37.09775    -89.6 1.206e+04 7.012e-10
 37.10794    -89.5 1.225e+04 1.054e-09
 37.11598    -89.1 1.227e+04 1.055e-09
 37.12642    -88.5 1.221e+04 1.095e-09
 37.14704    -87.8 1.207e+04 1.103e-09
 37.16766    -86.8 1.185e+04 9.734e-10
 37.18257    -85.9 1.173e+04 8.238e-10
 37.19288    -85.8 1.185e+04 8.824e-10
 37.20786    -85.0 1.180e+04 7.397e-10
 37.21817    -85.0 1.188e+04 5.633e-10
 37.22952    -84.6 1.192e+04 4.852e-10
 37.24925    -84.3 1.188e+04 4.467e-10
 37.26997    -83.7 1.202e+04 5.126e-10
 37.30188    -83.1 1.193e+04 4.254e-10
 37.32847    -82.1 1.180e+04 3.433e-10
 37.34909    -82.6 1.151e+04 2.525e-10
 37.38252    -81.6 1.132e+04 2.520e-10
 37.40315    -81.4 1.145e+04 2.891e-10
 37.42561    -80.4 1.131e+04 2.995e-10
 37.46685    -79.8 1.139e+04 3.126e-10
 37.50809    -79.7 1.153e+04 3.496e-10
 37.53632    -79.8 1.175e+04 5.072e-10
 37.55629    -79.6 1.184e+04 6.433e-10
 37.56930    -78.6 1.170e+04 5.288e-10
 37.59057    -79.1 1.197e+04 8.025e-10
 37.61312    -81.5 1.340e+04 1.396e-09
 37.62333    -80.7 1.317e+04 1.250e-09
 37.64192    -82.9 1.454e+04 2.642e-09
 37.66254    -83.6 1.510e+04 3.459e-09
 37.67920    -85.0 1.622e+04 6.068e-09
 37.68596    -85.7 1.650e+04 1.077e-08
 37.68991    -84.3 1.586e+04 6.940e-09
 37.70378    -84.8 1.641e+04 9.474e-09
 37.72440    -85.5 1.657e+04 1.016e-08
 37.74502    -86.6 1.652e+04 9.171e-09
 37.75650    -88.6 1.602e+04 5.784e-09
 37.76681    -89.3 1.566e+04 5.203e-09
 37.78626    -92.9 1.535e+04 4.267e-09
 37.79962    -96.8 1.528e+04 4.096e-09
 37.80993    -95.7 1.491e+04 2.739e-09
 37.82309    -98.6 1.477e+04 2.927e-09
 37.83340    -99.3 1.553e+04 4.570e-09
 37.84812   -101.1 1.543e+04 5.579e-09
 37.86874   -102.1 1.534e+04 5.839e-09
 37.88936   -102.6 1.496e+04 5.495e-09
 37.89998   -102.9 1.454e+04 4.320e-09
 37.91003   -103.2 1.513e+04 4.360e-09
 37.92003   -102.4 1.537e+04 6.157e-09
 37.93060   -102.9 1.493e+04 4.142e-09
 37.95122   -103.9 1.451e+04 2.743e-09
 37.96657   -105.0 1.410e+04 1.921e-09
 37.97688   -107.3 1.362e+04 1.594e-09
 37.99246   -108.0 1.282e+04 1.246e-09
 38.01308   -108.4 1.227e+04 1.079e-09
 38.03014   -108.2 1.195e+04 9.863e-10
 38.03990   -107.8 1.320e+04 1.547e-09
 38.04347   -109.3 1.221e+04 1.298e-09
 38.05432   -108.8 1.190e+04 1.152e-09
 38.07495   -108.3 1.168e+04 1.042e-09
 38.09557   -107.6 1.154e+04 9.386e-10
 38.11005   -106.8 1.144e+04 8.338e-10
 38.12036   -107.1 1.124e+04 7.263e-10
 38.13681   -106.4 1.119e+04 6.166e-10
 38.15055   -105.7 1.112e+04 5.250e-10
 38.16086   -106.6 1.160e+04 6.409e-10
 38.17664   -106.1 1.164e+04 5.893e-10
 38.18695   -106.5 1.150e+04 5.088e-10
 38.19867   -106.3 1.156e+04 5.057e-10
 38.21929   -106.8 1.189e+04 5.215e-10
 38.23991   -107.4 1.209e+04 6.653e-10
 38.25354   -108.3 1.234e+04 1.008e-09
 38.26385   -109.2 1.217e+04 1.098e-09
 38.27097   -110.1 1.291e+04 1.870e-09
 38.28128   -110.0 1.306e+04 2.500e-09
 38.30177   -111.2 1.402e+04 3.638e-09
 38.32012   -112.8 1.502e+04 5.166e-09
 38.33043   -114.4 1.511e+04 5.165e-09
 38.34301   -116.6 1.566e+04 6.214e-09
 38.36363   -119.2 1.580e+04 6.581e-09
 38.38107   -121.8 1.568e+04 6.480e-09
 38.39138   -121.3 1.575e+04 6.862e-09
 38.39702   -123.3 1.537e+04 6.284e-09
 38.40733   -124.5 1.454e+04 4.395e-09
 38.42549   -126.4 1.388e+04 3.281e-09
 38.44611   -128.1 1.325e+04 2.321e-09
 38.46360   -129.8 1.281e+04 1.676e-09
 38.47391   -130.8 1.272e+04 1.484e-09
 38.48735   -132.5 1.280e+04 1.373e-09
 38.50149   -134.6 1.309e+04 1.372e-09
 38.51180   -132.5 1.268e+04 1.232e-09
 38.52859   -135.2 1.342e+04 1.308e-09
 38.54050   -138.2 1.443e+04 2.001e-09
 38.55081   -139.3 1.471e+04 2.828e-09
 38.56983   -141.3 1.545e+04 4.691e-09
 38.59045   -143.0 1.607e+04 6.995e-09
 38.60709   -144.6 1.642e+04 8.759e-09
 38.61740   -145.2 1.623e+04 8.281e-09
 38.62190   -146.9 1.618e+04 8.402e-09
 38.63221   -145.9 1.605e+04 7.693e-09
 38.65231   -147.2 1.547e+04 6.927e-09
 38.67293   -147.9 1.461e+04 4.864e-09
 38.68398   -148.4 1.367e+04 3.057e-09
 38.69429   -148.6 1.327e+04 2.506e-09
 38.71417   -148.8 1.249e+04 1.572e-09
 38.73201   -148.9 1.190e+04 1.012e-09
 38.74232   -148.6 1.200e+04 9.469e-10
 38.75057   -148.4 1.154e+04 6.696e-10
 38.76088   -148.2 1.139e+04 6.012e-10
 38.77603   -147.4 1.116e+04 4.837e-10
 38.79665   -147.0 1.111e+04 4.496e-10
 38.81725   -146.7 1.106e+04 4.155e-10
 38.83797   -146.4 1.085e+04 3.680e-10
 38.86902   -144.8 1.055e+04 2.990e-10
 38.91026   -143.0 1.043e+04 2.686e-10
 38.95052   -141.2 1.039e+04 2.591e-10
 38.97114   -140.6 1.028e+04 2.335e-10
 38.97303   -138.7 1.029e+04 2.383e-10
 38.99365   -138.5 1.053e+04 3.177e-10
 39.03398   -136.8 1.057e+04 3.295e-10
 39.07522   -135.1 1.058e+04 3.310e-10
 39.10432   -133.4 1.054e+04 3.195e-10
 39.12494   -132.8 1.049e+04 3.108e-10
 39.15770   -130.9 1.041e+04 2.754e-10
 39.19324   -129.0 1.032e+04 2.361e-10
 39.21386   -129.0 1.030e+04 2.219e-10
 39.23749   -127.1 1.023e+04 1.850e-10
 39.25811   -126.3 1.021e+04 1.898e-10
 39.28142   -124.4 1.016e+04 1.630e-10
 39.32266   -122.4 1.012e+04 1.435e-10
 39.36390   -120.4 1.009e+04 1.314e-10
 39.39128   -118.4 1.010e+04 1.265e-10
 39.41190   -117.9 1.010e+04 1.353e-10
 39.43407   -116.2 1.012e+04 1.348e-10
 39.45469   -116.3 1.030e+04 1.356e-10
 39.48762   -115.4 1.056e+04 1.834e-10
 39.52445   -114.5 1.076e+04 3.001e-10
 39.54507   -114.0 1.073e+04 3.683e-10
 39.57010   -113.0 1.102e+04 5.362e-10
 39.61134   -112.4 1.131e+04 6.956e-10
 39.65258   -111.9 1.141e+04 7.728e-10
 39.67490   -111.5 1.139e+04 7.780e-10
 39.67994   -112.1 1.140e+04 7.440e-10
 39.69887   -111.8 1.122e+04 6.948e-10
 39.73506   -110.9 1.098e+04 5.402e-10
 39.77630   -110.0 1.073e+04 3.762e-10
 39.81142   -109.0 1.050e+04 2.541e-10
 39.83204   -108.7 1.048e+04 2.571e-10
 39.85878   -107.7 1.028e+04 1.857e-10
 39.89511   -106.5 1.014e+04 1.402e-10
 39.91573   -106.6 1.012e+04 1.375e-10
 39.94127   -105.3 1.002e+04 1.139e-10
 39.96521   -104.0 9.999e+03 1.006e-10
 39.98583   -103.6 9.936e+03 1.020e-10
 40.02375   -102.3 9.949e+03 9.432e-11
 40.06499   -101.3 9.967e+03 9.286e-11
 40.09838   -100.6 1.012e+04 9.665e-11
 40.11900    -99.8 9.972e+03 8.950e-11
 40.13594    -99.2 1.015e+04 1.034e-10
 40.15656   -100.0 1.023e+04 1.345e-10
 40.18871    -99.8 1.036e+04 1.817e-10
 40.22995    -99.7 1.055e+04 2.393e-10
 40.25218    -99.8 1.076e+04 2.976e-10
 40.27280    -98.6 1.061e+04 2.470e-10
 40.31243    -98.9 1.086e+04 2.940e-10
 40.35367    -99.6 1.109e+04 3.325e-10
 40.37677   -100.5 1.119e+04 3.528e-10
 40.38783   -101.9 1.109e+04 3.271e-10
 40.40597   -101.4 1.127e+04 3.633e-10
 40.43615   -102.3 1.130e+04 3.724e-10
 40.47739   -102.9 1.129e+04 3.716e-10
 40.51852   -103.2 1.120e+04 3.834e-10
 40.55976   -102.8 1.122e+04 5.294e-10
 40.59698   -102.8 1.111e+04 4.952e-10
 40.61760   -103.1 1.108e+04 4.313e-10
 40.64235   -103.2 1.106e+04 4.208e-10
 40.67231   -103.3 1.105e+04 4.239e-10
 40.69293   -102.9 1.109e+04 4.818e-10
 40.72483   -103.0 1.106e+04 4.693e-10
 40.76607   -103.1 1.099e+04 4.427e-10
 40.80549   -102.7 1.083e+04 3.770e-10
 40.82611   -102.2 1.082e+04 3.619e-10
 40.83781   -101.5 1.061e+04 2.690e-10
 40.85843   -101.4 1.058e+04 2.159e-10
 40.88979   -100.4 1.043e+04 1.598e-10
 40.93103    -99.4 1.033e+04 1.266e-10
 40.95928    -98.2 1.027e+04 1.129e-10
 40.97990    -97.6 1.031e+04 1.129e-10
 41.01351    -96.7 1.032e+04 1.116e-10
 41.05475    -96.6 1.061e+04 1.156e-10
 41.07864    -97.0 1.109e+04 1.776e-10
 41.09572    -96.5 1.107e+04 2.061e-10
 41.11307    -97.1 1.139e+04 4.042e-10
 41.13724    -96.7 1.164e+04 6.393e-10
 41.17848    -96.4 1.182e+04 7.934e-10
 41.21972    -96.3 1.184e+04 8.131e-10
 41.24624    -96.2 1.177e+04 7.329e-10
 41.26686    -96.8 1.160e+04 6.404e-10
 41.29885    -96.7 1.141e+04 5.048e-10
 41.31947    -96.1 1.160e+04 5.810e-10
 41.34344    -96.3 1.157e+04 5.645e-10
 41.37942    -96.4 1.170e+04 6.339e-10
 41.40004    -97.0 1.145e+04 5.454e-10
 41.42592    -96.8 1.169e+04 7.124e-10
 41.46716    -96.3 1.187e+04 8.737e-10
 41.50840    -95.5 1.192e+04 9.338e-10
 41.53321    -94.4 1.192e+04 9.318e-10
 41.54387    -94.3 1.170e+04 8.343e-10
 41.56020    -94.0 1.185e+04 9.224e-10
 41.58037    -93.3 1.176e+04 8.276e-10
 41.59960    -92.8 1.164e+04 7.436e-10
 41.60991    -92.7 1.158e+04 7.480e-10
 41.62161    -92.0 1.146e+04 6.779e-10
 41.64223    -91.4 1.142e+04 6.320e-10
 41.66628    -90.7 1.145e+04 5.827e-10
 41.68691    -89.8 1.127e+04 5.966e-10
 41.70409    -89.1 1.145e+04 6.246e-10
 41.72471    -88.4 1.155e+04 6.619e-10
 41.75574    -87.7 1.158e+04 7.032e-10
 41.78051    -86.4 1.155e+04 6.783e-10
 41.80113    -86.3 1.129e+04 4.474e-10
 41.82018    -84.8 1.119e+04 3.792e-10
 41.84080    -84.2 1.134e+04 5.228e-10
 41.87956    -82.6 1.118e+04 4.140e-10
 41.92080    -81.0 1.108e+04 3.360e-10
 41.95335    -79.3 1.103e+04 3.007e-10
 41.97397    -78.6 1.105e+04 3.363e-10
 42.00072    -76.7 1.104e+04 3.234e-10
 42.02134    -76.3 1.085e+04 2.092e-10
 42.04452    -74.3 1.087e+04 2.223e-10
 42.08576    -72.3 1.090e+04 2.435e-10
 42.10714    -70.3 1.093e+04 2.699e-10
 42.12776    -69.8 1.102e+04 3.366e-10
 42.16824    -67.8 1.107e+04 3.855e-10
 42.20948    -65.9 1.114e+04 4.227e-10
 42.24031    -64.0 1.121e+04 4.443e-10
 42.25175    -63.5 1.127e+04 4.903e-10
 42.26217    -63.0 1.108e+04 3.373e-10
 42.29196    -61.0 1.112e+04 3.514e-10
 42.33320    -59.0 1.115e+04 3.590e-10
 42.37349    -57.1 1.118e+04 3.614e-10
 42.39411    -56.4 1.109e+04 3.195e-10
 42.41569    -54.5 1.112e+04 3.171e-10
 42.45693    -52.6 1.114e+04 3.301e-10
 42.48237    -50.7 1.115e+04 3.529e-10
 42.50299    -50.3 1.110e+04 3.295e-10
 42.52728    -48.4 1.105e+04 3.679e-10
 42.54790    -47.6 1.099e+04 2.974e-10
 42.58065    -45.7 1.092e+04 3.196e-10
 42.62189    -43.9 1.084e+04 3.365e-10
 42.66045    -41.9 1.078e+04 3.418e-10
 42.68107    -41.1 1.070e+04 2.664e-10
 42.70258    -38.9 1.071e+04 2.496e-10
 42.72320    -38.7 1.071e+04 2.091e-10
 42.74561    -36.6 1.069e+04 1.917e-10
 42.78685    -34.6 1.067e+04 1.750e-10
 42.81424    -32.8 1.060e+04 1.602e-10
 42.83486    -31.9 1.052e+04 1.518e-10
 42.86933    -30.1 1.051e+04 1.434e-10
 42.91057    -28.3 1.052e+04 1.431e-10
 42.94341    -26.6 1.052e+04 1.606e-10
 42.95964    -26.1 1.058e+04 1.707e-10
 42.96804    -25.2 1.057e+04 1.487e-10
 42.99305    -23.5 1.051e+04 1.697e-10
 43.03429    -21.5 1.042e+04 1.947e-10
 43.07553    -19.5 1.036e+04 2.029e-10
 43.10121    -17.3 1.022e+04 1.838e-10
 43.12183    -16.8 1.022e+04 1.813e-10
 43.15801    -14.7 1.026e+04 1.448e-10
 43.18424    -13.2 1.034e+04 1.149e-10
 43.20486    -12.8 1.040e+04 1.261e-10
 43.23438    -11.6 1.036e+04 1.163e-10
 43.25500    -11.0 1.044e+04 1.414e-10
 43.28173     -9.6 1.038e+04 1.558e-10
 43.32297     -7.9 1.026e+04 2.090e-10
 43.36421     -5.8 1.044e+04 2.440e-10
 43.38817     -4.3 1.065e+04 2.695e-10
 43.40779     -3.7 1.060e+04 2.304e-10
 43.42507     -3.3 1.066e+04 2.442e-10
 43.44669     -2.0 1.077e+04 2.448e-10
 43.48793     -0.6 1.070e+04 3.106e-10
 43.52135      1.2 1.083e+04 4.067e-10
 43.54197      1.5 1.072e+04 2.536e-10
 43.57041      2.0 1.134e+04 3.608e-10
 43.61166      1.1 1.254e+04 8.431e-10
 43.64249      0.3 1.271e+04 2.173e-09
 43.65540      1.2 1.289e+04 2.395e-09
 43.66571      1.5 1.314e+04 2.601e-09
 43.67494      2.0 1.297e+04 3.857e-09
 43.68525      1.1 1.304e+04 3.753e-09
 43.70425      2.2 1.406e+04 3.139e-09
 43.72487      0.5 1.459e+04 4.218e-09
 43.74153     -1.5 1.532e+04 6.152e-09
 43.75184     -3.1 1.546e+04 6.874e-09
 43.76550     -5.1 1.704e+04 9.385e-09
 43.77581     -4.6 1.633e+04 7.832e-09
 43.78673     -5.8 1.605e+04 9.704e-09
 43.80735     -5.5 1.516e+04 9.740e-09
 43.81843     -4.0 1.465e+04 5.586e-09
 43.82874     -5.5 1.428e+04 4.836e-09
 43.84859     -7.3 1.353e+04 2.443e-09
 43.86921     -9.4 1.217e+04 1.609e-09
 43.88501     -9.7 1.140e+04 1.301e-09
 43.89141     -8.6 1.156e+04 1.301e-09
 43.89623     -8.5 1.153e+04 1.171e-09
 43.91045     -5.6 1.143e+04 1.344e-09
 43.94139     -6.0 1.239e+04 6.118e-10
 43.98272     -6.0 1.123e+04 4.029e-10
 44.02406     -4.5 1.088e+04 3.528e-10
 44.06530     -2.7 1.094e+04 3.245e-10
 44.09528     -1.4 1.111e+04 3.004e-10
 44.11568     -0.7 1.097e+04 2.624e-10
 44.12694     -0.5 1.088e+04 2.970e-10
 44.14778      0.9 1.093e+04 2.805e-10
 44.18902      2.3 1.079e+04 2.936e-10
 44.22845      4.0 1.071e+04 2.775e-10
 44.24907      4.1 1.073e+04 1.964e-10
 44.27150      5.4 1.057e+04 1.980e-10
 44.31274      6.5 1.060e+04 1.869e-10
 44.34715      7.6 1.070e+04 1.904e-10
 44.36777      7.7 1.071e+04 2.102e-10
 44.38224      8.4 1.096e+04 2.352e-10
 44.40286      8.5 1.103e+04 2.721e-10
 44.43646      8.9 1.121e+04 3.881e-10
 44.47770      9.9 1.127e+04 5.341e-10
 44.51541     11.1 1.138e+04 6.161e-10
 44.53603     11.0 1.142e+04 6.349e-10
 44.56018     12.0 1.142e+04 5.695e-10
 44.58798     12.8 1.144e+04 4.808e-10
 44.60860     12.8 1.130e+04 3.487e-10
 44.64266     13.3 1.132e+04 3.381e-10
 44.66921     13.9 1.142e+04 3.728e-10
 44.68983     12.7 1.136e+04 3.543e-10
 44.72514     14.0 1.143e+04 4.645e-10
 44.76638     15.6 1.149e+04 5.654e-10
 44.80238     17.1 1.156e+04 5.425e-10
 44.82300     16.2 1.157e+04 4.217e-10
 44.82881     15.8 1.186e+04 4.878e-10
 44.84943     15.6 1.170e+04 3.571e-10
 44.89011     14.6 1.211e+04 5.636e-10
 44.93135     14.6 1.224e+04 9.467e-10
 44.95617     15.3 1.224e+04 1.081e-09
 44.97679     14.5 1.221e+04 1.125e-09
 45.01383     15.1 1.191e+04 7.790e-10
 45.04902     14.9 1.163e+04 5.086e-10
 45.06964     15.3 1.154e+04 4.957e-10
 45.08934     15.1 1.119e+04 3.299e-10
 45.10996     14.2 1.090e+04 2.315e-10
 45.13755     14.9 1.066e+04 1.877e-10
 45.17879     15.2 1.075e+04 1.966e-10
 45.22003     15.4 1.083e+04 2.321e-10
 45.24314     15.6 1.082e+04 2.885e-10
 45.26376     15.1 1.068e+04 2.406e-10
 45.28985     14.7 1.071e+04 3.109e-10
 45.30006     13.8 1.070e+04 3.188e-10
 45.30953     13.8 1.067e+04 3.553e-10
 45.31984     13.6 1.073e+04 3.579e-10
 45.33324     12.7 1.094e+04 5.592e-10
 45.35386     12.6 1.118e+04 8.900e-10
 45.37448     12.4 1.156e+04 1.323e-09
 45.38642     11.8 1.222e+04 1.857e-09
 45.39673     11.8 1.231e+04 2.033e-09
 45.41007     10.5 1.317e+04 2.842e-09
 45.42038      9.7 1.346e+04 3.237e-09
 45.43634      8.4 1.370e+04 3.725e-09
 45.45301      7.5 1.352e+04 3.595e-09
 45.46332      7.5 1.350e+04 3.506e-09
 45.47758      6.7 1.308e+04 2.937e-09
 45.49821      5.0 1.285e+04 2.550e-09
 45.51883      4.9 1.236e+04 2.050e-09
 45.53000      3.2 1.194e+04 1.559e-09
 45.53145      3.4 1.193e+04 1.598e-09
 45.55130      2.0 1.121e+04 1.035e-09
 45.59119      2.1 1.005e+04 5.346e-10
 45.63243      2.9 9.374e+03 2.824e-10
 45.66327      3.6 9.230e+03 1.618e-10
 45.68390      4.5 9.397e+03 2.389e-10
 45.71491      5.7 9.215e+03 1.843e-10
 45.75089      7.1 9.200e+03 1.824e-10
 45.77151      7.4 8.968e+03 1.676e-10
 45.79645      9.0 8.994e+03 1.805e-10
 45.81707     10.1 9.095e+03 1.836e-10
 45.83863     11.6 9.145e+03 1.766e-10
 45.87987     13.0 9.320e+03 1.909e-10
 45.92111     12.7 9.770e+03 2.756e-10
 45.95024     12.5 1.033e+04 5.376e-10
 45.97086     12.8 1.018e+04 4.096e-10
 45.99172     12.5 1.151e+04 1.157e-09
 46.01234     12.5 1.147e+04 1.166e-09
 46.04483     13.0 1.219e+04 1.958e-09
 46.08341     12.6 1.247e+04 1.953e-09
 46.10403     12.6 1.274e+04 2.264e-09
 46.12732     11.7 1.264e+04 2.106e-09
 46.16856     11.7 1.189e+04 1.425e-09
 46.20980     11.7 1.105e+04 7.621e-10
 46.23255     10.6 1.047e+04 4.118e-10
 46.23934      9.6 1.016e+04 3.578e-10
 46.25783     10.7 1.035e+04 2.885e-10
 46.29228      9.9 9.512e+03 2.218e-10
 46.33352     10.6 9.505e+03 2.323e-10
 46.37038     10.6 9.893e+03 3.035e-10
 46.39100     10.5 1.006e+04 3.022e-10
 46.41600     10.0 1.096e+04 7.809e-10
 46.45276     10.8 1.152e+04 1.375e-09
 46.47338     11.1 1.097e+04 9.207e-10
 46.49848     11.6 1.135e+04 1.260e-09
 46.52417     11.8 1.169e+04 1.477e-09
 46.54479     11.5 1.172e+04 1.462e-09
 46.58096     11.4 1.191e+04 1.537e-09
 46.62220     11.5 1.184e+04 1.458e-09
 46.65303     10.7 1.188e+04 1.398e-09
 46.66746     13.6 1.104e+04 1.082e-09
 46.67777     13.6 1.082e+04 8.958e-10
 46.69349     12.8 1.106e+04 7.912e-10
 46.71421     13.5 1.158e+04 1.236e-09
 46.74592     15.0 1.129e+04 1.104e-09
 46.78716     16.7 1.085e+04 7.474e-10
 46.81114     17.3 1.054e+04 4.844e-10
 46.83176     18.1 1.035e+04 3.707e-10
 46.86964     18.8 1.011e+04 3.150e-10
 46.91088     20.1 1.001e+04 3.083e-10
 46.93441     21.8 9.918e+03 2.956e-10
 46.94722     22.1 9.974e+03 3.539e-10
 46.96493     23.2 9.927e+03 3.051e-10
 46.99336     25.1 9.840e+03 2.849e-10
 47.03460     26.9 9.738e+03 2.463e-10
 47.07584     28.6 9.615e+03 2.126e-10
 47.09810     30.3 9.562e+03 2.000e-10
 47.11872     31.0 9.363e+03 1.628e-10
 47.15462     32.7 9.372e+03 1.740e-10
 47.17524     33.2 9.593e+03 2.386e-10
 47.19956     35.0 9.637e+03 2.501e-10
 47.23127     36.7 9.787e+03 2.809e-10
 47.25189     37.5 9.584e+03 2.405e-10
 47.28204     39.1 9.768e+03 2.695e-10
 47.32329     40.4 1.007e+04 3.400e-10
 47.36445     41.5 1.045e+04 4.961e-10
 47.39537     43.7 1.058e+04 5.603e-10
 47.41607     44.2 1.030e+04 3.035e-10
 47.44701     44.6 1.061e+04 4.638e-10
 47.48825     45.3 1.079e+04 6.247e-10
 47.51824     46.3 1.077e+04 6.270e-10
 47.53886     47.0 1.093e+04 7.512e-10
 47.57073     47.6 1.097e+04 7.432e-10
 47.61197     48.2 1.093e+04 5.596e-10
 47.63628     48.0 1.076e+04 3.428e-10
 47.65511     48.1 1.101e+04 5.210e-10
 47.67203     48.2 1.163e+04 9.699e-10
 47.69445     48.1 1.150e+04 7.023e-10
 47.73569     47.8 1.143e+04 5.772e-10
 47.77693     47.7 1.151e+04 5.835e-10
 47.80520     47.6 1.176e+04 6.224e-10
 47.82582     47.4 1.185e+04 4.976e-10
 47.85649     47.2 1.192e+04 5.250e-10
 47.87711     47.4 1.172e+04 4.322e-10
 47.90065     47.8 1.182e+04 4.997e-10
 47.93838     48.5 1.188e+04 4.871e-10
 47.95900     48.1 1.219e+04 9.444e-10
 47.98313     47.9 1.252e+04 1.161e-09
 48.02437     47.6 1.283e+04 1.376e-09
 48.06561     47.3 1.317e+04 1.887e-09
 48.09207     46.7 1.343e+04 2.299e-09
 48.10228     46.4 1.375e+04 3.067e-09
 48.10744     46.4 1.378e+04 3.220e-09
 48.11775     46.6 1.382e+04 3.177e-09
 48.13759     46.7 1.393e+04 3.159e-09
 48.15821     46.8 1.396e+04 3.059e-09
 48.16887     46.9 1.390e+04 2.734e-09
 48.17918     46.1 1.389e+04 2.253e-09
 48.19945     46.6 1.361e+04 1.770e-09
 48.21754     46.5 1.347e+04 1.395e-09
 48.22785     46.9 1.326e+04 1.177e-09
 48.23546     47.0 1.306e+04 8.963e-10
 48.24577     45.6 1.282e+04 6.201e-10
 48.27172     44.4 1.271e+04 6.456e-10
 48.31305     44.0 1.260e+04 7.651e-10
 48.33805     43.6 1.264e+04 7.943e-10
 48.35867     44.9 1.242e+04 6.201e-10
 48.37904     41.7 1.373e+04 1.152e-09
 48.38925     39.3 1.443e+04 1.763e-09
 48.40565     36.4 1.570e+04 5.316e-09
 48.42627     36.4 1.638e+04 1.152e-08
 48.44553     36.7 1.620e+04 1.202e-08
 48.45584     36.9 1.629e+04 1.221e-08
 48.45837     37.8 1.560e+04 8.711e-09
 48.46868     38.6 1.571e+04 9.625e-09
 48.48813     38.5 1.511e+04 5.251e-09
 48.50875     36.8 1.461e+04 2.188e-09
 48.52242     33.4 1.324e+04 9.038e-10
 48.53273     33.1 1.255e+04 8.767e-10
 48.54999     31.9 1.177e+04 5.455e-10
 48.56848     32.4 1.166e+04 4.144e-10
 48.57879     33.1 1.153e+04 5.392e-10
 48.58901     33.4 1.176e+04 4.479e-10
 48.59932     33.7 1.179e+04 4.904e-10
 48.61185     33.8 1.176e+04 4.568e-10
 48.64288     34.9 1.174e+04 4.265e-10
 48.66610     35.9 1.180e+04 4.036e-10
 48.68672     36.9 1.161e+04 5.905e-10
 48.72546     38.4 1.167e+04 5.882e-10
 48.76670     40.2 1.168e+04 5.869e-10
 48.79919     41.9 1.151e+04 4.867e-10
 48.81981     44.0 1.187e+04 9.368e-10
 48.84918     45.2 1.159e+04 6.091e-10
 48.89042     46.2 1.135e+04 4.248e-10
 48.93166     47.6 1.118e+04 3.868e-10
 48.95306     49.2 1.121e+04 3.970e-10
 48.97368     50.1 1.116e+04 4.488e-10
 49.01414     51.4 1.131e+04 5.382e-10
 49.04002     52.6 1.157e+04 7.762e-10
 49.06064     53.3 1.185e+04 9.690e-10
 49.08624     54.4 1.232e+04 1.510e-09
 49.10686     55.6 1.214e+04 1.495e-09
 49.13786     56.5 1.240e+04 1.639e-09
 49.17910     57.4 1.228e+04 1.486e-09
 49.21941     58.9 1.195e+04 9.602e-10
 49.24003     59.6 1.196e+04 1.124e-09
 49.26023     60.8 1.168e+04 6.421e-10
 49.28085     61.5 1.179e+04 7.756e-10
 49.30282     62.2 1.164e+04 3.010e-10
 49.34406     62.3 1.144e+04 1.368e-10
 49.37320     63.0 1.110e+04 1.288e-10
 49.39382     64.6 1.112e+04 1.504e-10
 49.42654     65.6 1.098e+04 1.487e-10
 49.46778     67.0 1.092e+04 1.645e-10
 49.50106     68.6 1.090e+04 2.102e-10
 49.51903     68.9 1.093e+04 2.156e-10
 49.52699     70.0 1.099e+04 2.018e-10
 49.55026     71.4 1.104e+04 2.431e-10
 49.59150     72.7 1.107e+04 2.872e-10
 49.63274     73.9 1.109e+04 3.155e-10
 49.66017     75.0 1.109e+04 3.267e-10
 49.68079     75.9 1.120e+04 2.951e-10
 49.71522     77.0 1.118e+04 3.139e-10
 49.74189     78.2 1.112e+04 3.353e-10
 49.76251     78.2 1.116e+04 3.623e-10
 49.79334     79.5 1.107e+04 3.280e-10
 49.81396     80.6 1.110e+04 3.082e-10
 49.83895     82.0 1.103e+04 2.470e-10
 49.88019     83.5 1.098e+04 1.732e-10
 49.92143     84.7 1.095e+04 1.117e-10
 49.94713     85.8 1.091e+04 7.446e-11
 49.96718     86.4 1.097e+04 7.058e-11
 49.98272     86.1 1.077e+04 6.708e-11
 50.00391     87.5 1.054e+04 6.428e-11
 50.04515     89.2 1.044e+04 6.290e-11
 50.08031     91.0 1.040e+04 6.224e-11
 50.10093     92.1 1.037e+04 7.189e-11
 50.12763     94.0 1.034e+04 7.107e-11
 50.16887     95.8 1.034e+04 6.902e-11
 50.20293     97.5 1.036e+04 6.548e-11
 50.22355     97.9 1.040e+04 7.437e-11
 50.23410     99.5 1.045e+04 7.162e-11
 50.25472    100.5 1.050e+04 7.382e-11
 50.29259    102.1 1.051e+04 7.434e-11
 50.33383    103.7 1.056e+04 7.683e-11
 50.36727    105.2 1.066e+04 8.776e-11
 50.38789    106.2 1.069e+04 9.403e-11
 50.41631    107.7 1.066e+04 1.272e-10
 50.44376    109.1 1.068e+04 1.936e-10
 50.46438    109.3 1.077e+04 2.183e-10
 50.49879    110.8 1.090e+04 3.478e-10
 50.52106    112.3 1.111e+04 5.241e-10
 50.54168    113.2 1.119e+04 5.564e-10
 50.58127    114.3 1.137e+04 6.868e-10
 50.62251    115.0 1.139e+04 6.956e-10
 50.65424    115.6 1.131e+04 6.682e-10
 50.67486    116.3 1.142e+04 7.055e-10
 50.68459    117.0 1.124e+04 6.045e-10
 50.70521    117.2 1.143e+04 6.827e-10
 50.74623    118.2 1.121e+04 5.604e-10
 50.78741    119.2 1.104e+04 4.798e-10
 50.82865    121.0 1.089e+04 4.837e-10
 50.86995    122.4 1.083e+04 4.438e-10
 50.90480    123.8 1.080e+04 4.148e-10
 50.92542    124.1 1.105e+04 5.620e-10
 50.94120    125.4 1.108e+04 5.512e-10
 50.96182    125.8 1.146e+04 7.150e-10
 50.99367    126.9 1.148e+04 6.899e-10
 51.03492    127.9 1.148e+04 6.794e-10
 51.07437    128.8 1.145e+04 6.878e-10
 51.09499    128.8 1.139e+04 6.959e-10
 51.11740    129.5 1.144e+04 7.161e-10
 51.14563    130.1 1.148e+04 7.230e-10
 51.16625    129.7 1.157e+04 8.126e-10
 51.19988    130.2 1.160e+04 8.067e-10
 51.22817    130.7 1.155e+04 7.681e-10
 51.24879    130.7 1.150e+04 7.309e-10
 51.28236    130.9 1.153e+04 7.041e-10
 51.32360    131.0 1.150e+04 6.695e-10
 51.36134    130.9 1.143e+04 6.573e-10
 51.38186    130.8 1.119e+04 6.364e-10
 51.38626    131.1 1.125e+04 6.692e-10
 51.39657    130.8 1.137e+04 7.619e-10
 51.41619    130.6 1.155e+04 8.556e-10
 51.43681    130.1 1.196e+04 1.042e-09
 51.44835    129.0 1.263e+04 1.443e-09
 51.45866    126.7 1.343e+04 2.234e-09
 51.47805    126.2 1.379e+04 3.409e-09
 51.49636    126.2 1.413e+04 4.811e-09
 51.50667    126.1 1.421e+04 4.916e-09
 51.51494    125.9 1.430e+04 5.165e-09
 51.52525    125.2 1.420e+04 5.173e-09
 51.53991    125.1 1.397e+04 4.551e-09
 51.56053    124.8 1.369e+04 3.527e-09
 51.58115    124.3 1.347e+04 2.717e-09
 51.60657    122.7 1.294e+04 1.467e-09
 51.62728    122.2 1.259e+04 1.384e-09
 51.64830    121.3 1.172e+04 7.373e-10
 51.66892    120.4 1.145e+04 4.157e-10
 51.69476    120.4 1.112e+04 3.009e-10
 51.73600    121.1 1.109e+04 2.779e-10
 51.77724    122.3 1.110e+04 2.771e-10
 51.80210    123.6 1.114e+04 2.781e-10
 51.82272    123.8 1.096e+04 2.410e-10
 51.84749    125.1 1.097e+04 2.700e-10
 51.86811    125.6 1.088e+04 2.369e-10
 51.90096    127.0 1.092e+04 2.758e-10
 51.93527    128.5 1.096e+04 3.075e-10
 51.95589    129.1 1.091e+04 2.969e-10
 51.98344    130.7 1.097e+04 3.199e-10
 52.02468    132.1 1.097e+04 3.167e-10
 52.06592    133.5 1.094e+04 2.996e-10
 52.08832    135.0 1.089e+04 2.631e-10
 52.09084    135.3 1.095e+04 2.851e-10
 52.10968    135.9 1.090e+04 2.624e-10
 52.14840    137.2 1.090e+04 2.259e-10
 52.18964    138.5 1.090e+04 1.875e-10
 52.22223    139.7 1.089e+04 1.598e-10
 52.24285    140.2 1.085e+04 1.633e-10
 52.27213    141.5 1.080e+04 1.604e-10
 52.30853    142.8 1.080e+04 1.604e-10
 52.32915    142.8 1.080e+04 1.534e-10
 52.35461    144.1 1.079e+04 1.548e-10
 52.37603    145.5 1.077e+04 1.570e-10
 52.39665    146.1 1.080e+04 1.768e-10
 52.43709    147.4 1.080e+04 1.756e-10
 52.47833    148.9 1.079e+04 1.706e-10
 52.50920    150.4 1.076e+04 1.627e-10
 52.52982    151.0 1.080e+04 1.839e-10
 52.54936    152.6 1.078e+04 1.716e-10
 52.56998    152.6 1.078e+04 1.653e-10
 52.60205    154.3 1.079e+04 1.570e-10
 52.64237    155.9 1.079e+04 1.503e-10
 52.66299    156.5 1.082e+04 1.695e-10
 52.68453    158.1 1.085e+04 1.613e-10
 52.72577    159.5 1.085e+04 1.524e-10
 52.76701    161.0 1.084e+04 1.435e-10
 52.79019    162.3 1.085e+04 1.358e-10
 52.79873    162.1 1.088e+04 1.348e-10
 52.81678    162.6 1.094e+04 1.857e-10
 52.84949    163.9 1.090e+04 1.789e-10
 52.89073    165.2 1.088e+04 1.755e-10
 52.92934    166.4 1.087e+04 1.731e-10
 52.94996    167.0 1.094e+04 2.392e-10
 52.97321    168.1 1.094e+04 2.362e-10
 53.01040    169.2 1.092e+04 2.287e-10
 53.03102    168.9 1.093e+04 2.377e-10
 53.05569    169.9 1.089e+04 2.349e-10
 53.08313    170.8 1.089e+04 2.355e-10
 53.10375    171.1 1.093e+04 2.777e-10
 53.13817    171.9 1.094e+04 2.787e-10
 53.17941    172.7 1.098e+04 2.876e-10
 53.21630    173.4 1.102e+04 3.148e-10
 53.23692    173.7 1.102e+04 3.023e-10
 53.25123    174.3 1.102e+04 3.064e-10
 53.27185    173.6 1.096e+04 2.328e-10
 53.30313    174.2 1.090e+04 2.120e-10
 53.34437    174.8 1.083e+04 1.893e-10
 53.37009    175.6 1.078e+04 1.677e-10
 53.39071    175.9 1.073e+04 1.149e-10
 53.42685    176.8 1.069e+04 1.049e-10
 53.46809    177.8 1.065e+04 1.017e-10
 53.49206    178.9 1.058e+04 1.039e-10
 53.50661    178.7 1.047e+04 1.040e-10
 53.52389    179.3 1.050e+04 9.526e-11
 53.55058    180.7 1.054e+04 1.057e-10
 53.59182    182.1 1.060e+04 1.142e-10
 53.63306    183.5 1.068e+04 1.203e-10
 53.65706    184.8 1.078e+04 1.251e-10
 53.67768    185.3 1.080e+04 1.328e-10
 53.71227    186.3 1.088e+04 1.423e-10
 53.73289    186.1 1.088e+04 1.429e-10
 53.75678    187.0 1.094e+04 1.536e-10
 53.79023    187.8 1.099e+04 1.666e-10
 53.81085    188.0 1.103e+04 1.972e-10
 53.83926    188.6 1.107e+04 2.127e-10
 53.88050    189.1 1.109e+04 2.266e-10
 53.92174    189.7 1.109e+04 2.386e-10
 53.94403    190.3 1.108e+04 2.452e-10
 53.95477    190.3 1.107e+04 2.350e-10
 53.97372    190.4 1.110e+04 2.556e-10
 54.00422    191.1 1.107e+04 2.422e-10
 54.04546    191.8 1.102e+04 2.346e-10
 54.07720    192.6 1.094e+04 2.319e-10
 54.09782    192.8 1.094e+04 2.035e-10
 54.12794    193.8 1.090e+04 2.062e-10
 54.16918    194.9 1.084e+04 2.142e-10
 54.19393    196.0 1.078e+04 2.303e-10
 54.21450    196.5 1.086e+04 2.363e-10
 54.25161    198.0 1.088e+04 2.244e-10
 54.29290    199.0 1.094e+04 2.693e-10
 54.33414    200.0 1.110e+04 3.314e-10
 54.36416    200.7 1.124e+04 4.108e-10
 54.38478    201.0 1.120e+04 3.759e-10
 54.41414    201.4 1.130e+04 4.518e-10
 54.43476    202.0 1.139e+04 4.522e-10
 54.45786    202.1 1.148e+04 5.461e-10
 54.49734    202.0 1.161e+04 6.574e-10
 54.51796    202.7 1.166e+04 6.717e-10
 54.54034    202.2 1.190e+04 8.442e-10
 54.57118    201.6 1.212e+04 1.019e-09
 54.58435    201.2 1.225e+04 1.150e-09
 54.59466    201.3 1.231e+04 1.165e-09
 54.61232    200.7 1.246e+04 1.306e-09
 54.63294    199.9 1.260e+04 1.441e-09
 54.65093    198.6 1.266e+04 1.465e-09
 54.66124    198.6 1.266e+04 1.415e-09
 54.66508    197.2 1.262e+04 1.380e-09
 54.67539    197.8 1.275e+04 1.477e-09
 54.69480    196.4 1.254e+04 1.298e-09
 54.71542    195.6 1.231e+04 1.143e-09
 54.74645    195.1 1.197e+04 8.829e-10
 54.78430    194.3 1.145e+04 6.359e-10
 54.80492    194.6 1.122e+04 5.252e-10
 54.82903    194.7 1.089e+04 4.193e-10
 54.87027    195.0 1.066e+04 3.462e-10
 54.89580    195.7 1.046e+04 2.836e-10
 54.91642    196.4 1.071e+04 3.748e-10
 54.93809    197.5 1.053e+04 3.132e-10
 54.95871    198.1 1.061e+04 3.281e-10
 54.99399    199.2 1.050e+04 2.947e-10
 55.03523    200.3 1.049e+04 2.902e-10
 55.07127    201.4 1.049e+04 2.918e-10
 55.09189    201.9 1.055e+04 3.085e-10
 55.11601    203.0 1.056e+04 3.150e-10
 55.13663    203.3 1.086e+04 3.874e-10
 55.15895    204.4 1.086e+04 3.920e-10
 55.20019    205.6 1.088e+04 4.091e-10
 55.22506    206.7 1.097e+04 4.427e-10
 55.24568    207.3 1.082e+04 3.883e-10
 55.28267    208.3 1.093e+04 4.251e-10
 55.32391    209.2 1.106e+04 4.749e-10
 55.35684    209.9 1.124e+04 5.328e-10
 55.37054    209.9 1.127e+04 5.353e-10
 55.37885    210.7 1.118e+04 4.817e-10
 55.40639    211.4 1.130e+04 5.135e-10
 55.44763    212.1 1.139e+04 5.186e-10
 55.48887    212.7 1.138e+04 5.084e-10
 55.51202    213.5 1.133e+04 4.760e-10
 55.53264    214.2 1.117e+04 4.287e-10
 55.57135    215.1 1.109e+04 4.028e-10
 55.59767    216.1 1.101e+04 3.709e-10
 55.61829    216.1 1.121e+04 4.170e-10
 55.64520    217.3 1.117e+04 3.971e-10
 55.66582    217.8 1.117e+04 4.075e-10
 55.69507    219.0 1.116e+04 3.842e-10
 55.73631    220.1 1.118e+04 3.620e-10
 55.77755    221.3 1.123e+04 3.456e-10
 55.79899    222.4 1.125e+04 3.457e-10
 55.81869    222.6 1.136e+04 3.598e-10
 55.83850    222.4 1.160e+04 4.341e-10
 55.86003    223.5 1.162e+04 4.252e-10
 55.90127    224.4 1.164e+04 4.289e-10
 55.93216    225.0 1.165e+04 4.475e-10
 55.94846    225.5 1.164e+04 4.594e-10
 55.95871    225.7 1.168e+04 4.582e-10
 55.97325    226.6 1.181e+04 4.866e-10
 55.99387    227.3 1.203e+04 5.775e-10
 56.00886    227.8 1.226e+04 7.324e-10
 56.01917    228.0 1.231e+04 6.977e-10
 56.03511    228.2 1.257e+04 8.969e-10
 56.05573    228.4 1.283e+04 1.201e-09
 56.06882    228.4 1.311e+04 1.664e-09
 56.07823    228.3 1.311e+04 1.333e-09
 56.08576    228.2 1.317e+04 1.226e-09
 56.09697    228.1 1.355e+04 1.734e-09
 56.11759    227.9 1.400e+04 2.576e-09
 56.13821    227.8 1.458e+04 3.918e-09
 56.15234    227.9 1.527e+04 5.913e-09
 56.16265    228.0 1.497e+04 4.491e-09
 56.17892    228.0 1.557e+04 6.238e-09
 56.18923    227.8 1.521e+04 4.314e-09
 56.20007    227.6 1.562e+04 5.353e-09
 56.21893    227.1 1.543e+04 5.947e-09
 56.22924    227.4 1.493e+04 3.192e-09
 56.24131    226.8 1.470e+04 3.349e-09
 56.26193    226.4 1.454e+04 3.349e-09
 56.28255    226.3 1.422e+04 3.280e-09
 56.29583    226.3 1.392e+04 3.102e-09
 56.30230    226.1 1.355e+04 2.130e-09
 56.30965    225.9 1.322e+04 1.298e-09
 56.32379    226.0 1.312e+04 1.603e-09
 56.34441    226.2 1.315e+04 1.927e-09
 56.36241    226.6 1.328e+04 2.242e-09
 56.37272    226.6 1.315e+04 1.900e-09
 56.38565    226.9 1.338e+04 2.263e-09
 56.40627    227.0 1.354e+04 2.558e-09
 56.41975    227.1 1.387e+04 2.679e-09
 56.43006    227.1 1.366e+04 2.810e-09
 56.43931    227.1 1.399e+04 3.130e-09
 56.44962    227.3 1.384e+04 2.904e-09
 56.46813    226.9 1.421e+04 2.913e-09
 56.48875    225.9 1.425e+04 2.858e-09
 56.50590    224.2 1.434e+04 2.639e-09
 56.51621    224.4 1.421e+04 2.479e-09
 56.52986    222.2 1.420e+04 2.129e-09
 56.54017    222.8 1.452e+04 2.642e-09
 56.55061    219.5 1.447e+04 2.098e-09
 56.57123    217.1 1.417e+04 1.715e-09
 56.58279    214.4 1.390e+04 1.486e-09
 56.59310    214.5 1.386e+04 1.431e-09
 56.61247    212.0 1.355e+04 1.249e-09
 56.63917    208.0 1.324e+04 1.152e-09
 56.65988    208.4 1.304e+04 1.043e-09
 56.68484    205.4 1.257e+04 9.707e-10
 56.72608    203.7 1.234e+04 9.049e-10
 56.76057    203.2 1.210e+04 7.977e-10
 56.78119    202.5 1.239e+04 9.407e-10
 56.79306    202.5 1.216e+04 7.723e-10
 56.81368    203.1 1.209e+04 7.752e-10
 56.84980    203.4 1.178e+04 5.722e-10
 56.89104    203.8 1.147e+04 3.580e-10
 56.92623    204.3 1.123e+04 2.042e-10
 56.94685    205.1 1.118e+04 2.251e-10
 56.97352    205.5 1.098e+04 1.339e-10
 57.00140    206.1 1.069e+04 1.002e-10
 57.02202    205.9 1.067e+04 1.101e-10
 57.05600    206.7 1.055e+04 1.065e-10
 57.08002    207.8 1.055e+04 1.056e-10
 57.10064    208.6 1.050e+04 1.065e-10
 57.13848    209.8 1.051e+04 1.074e-10
 57.17972    210.9 1.058e+04 1.167e-10
 57.21319    211.3 1.075e+04 1.419e-10
 57.23381    212.0 1.076e+04 1.460e-10
 57.24223    211.9 1.098e+04 2.008e-10
 57.26285    210.8 1.138e+04 2.783e-10
 57.30345    210.0 1.182e+04 4.567e-10
 57.34469    208.9 1.247e+04 8.913e-10
 57.36699    206.8 1.321e+04 1.583e-09
 57.38761    206.5 1.333e+04 1.693e-09
 57.42717    203.0 1.370e+04 1.851e-09
 57.46244    199.0 1.359e+04 1.683e-09
 57.48306    197.5 1.328e+04 1.465e-09
 57.50016    194.5 1.242e+04 7.767e-10
 57.52078    193.9 1.207e+04 6.220e-10
 57.55089    191.2 1.057e+04 2.348e-10
 57.59213    189.3 9.828e+03 1.549e-10
 57.63333    189.0 9.786e+03 1.530e-10
 57.67457    188.8 9.737e+03 1.718e-10
 57.70327    188.8 9.903e+03 2.286e-10
 57.72389    187.5 1.006e+04 3.080e-10
 57.75709    187.1 1.044e+04 4.441e-10
 57.78712    186.6 1.080e+04 5.870e-10
 57.80774    185.7 1.098e+04 6.891e-10
 57.83957    184.8 1.116e+04 7.098e-10
 57.88081    183.6 1.114e+04 6.829e-10
 57.92030    182.4 1.097e+04 5.804e-10
 57.94092    181.1 1.098e+04 6.252e-10
 57.94410    180.3 1.061e+04 5.025e-10
 57.96472    178.7 1.076e+04 6.369e-10
 58.00453    178.3 1.041e+04 5.098e-10
 58.04577    178.0 1.011e+04 4.103e-10
 58.07409    177.7 9.859e+03 3.253e-10
 58.09471    177.2 9.757e+03 2.959e-10
 58.12825    176.8 9.455e+03 2.139e-10
 58.16431    176.4 9.056e+03 1.599e-10
 58.18493    175.2 8.793e+03 1.506e-10
 58.20726    175.0 8.508e+03 1.403e-10
 58.22788    175.4 8.527e+03 1.414e-10
 58.25197    176.0 8.485e+03 1.412e-10
 58.29321    176.7 8.481e+03 1.424e-10
 58.33445    177.6 8.481e+03 1.484e-10
 58.36106    178.6 8.509e+03 1.600e-10
 58.38168    179.2 8.464e+03 1.576e-10
 58.40514    180.3 8.492e+03 1.709e-10
 58.42576    180.7 8.526e+03 1.850e-10
 58.45818    182.1 8.596e+03 2.048e-10
 58.49423    183.4 8.682e+03 2.265e-10
 58.51485    184.2 8.539e+03 2.057e-10
 58.54066    185.7 8.601e+03 2.208e-10
 58.58190    187.2 8.662e+03 2.341e-10
 58.62314    188.7 8.727e+03 2.452e-10
 58.64597    190.2 8.798e+03 2.544e-10
 58.65023    190.9 9.183e+03 3.378e-10
 58.66864    191.8 8.865e+03 2.772e-10
 58.70562    193.3 8.974e+03 2.933e-10
 58.74686    194.9 9.112e+03 3.172e-10
 58.77769    195.8 9.213e+03 3.370e-10
 58.79131    196.5 9.189e+03 3.463e-10
 58.80172    197.4 8.965e+03 2.965e-10
 58.82934    198.8 9.061e+03 3.210e-10
 58.85799    199.6 9.059e+03 3.337e-10
 58.86820    199.7 9.104e+03 3.371e-10
 58.87629    200.7 9.079e+03 3.396e-10
 58.88660    201.3 9.196e+03 3.761e-10
 58.90131    202.5 9.197e+03 3.771e-10
 58.92193    202.9 9.242e+03 3.849e-10
 58.93479    202.9 9.723e+03 4.262e-10
 58.94510    204.7 9.192e+03 3.668e-10
 58.96317    204.8 9.538e+03 3.962e-10
 58.98379    204.2 1.096e+04 5.480e-10
 58.99671    203.3 1.270e+04 9.859e-10
 59.00398    204.0 1.284e+04 1.033e-09
 59.01169    207.0 1.075e+04 5.366e-10
 59.02503    206.4 1.240e+04 8.917e-10
 59.04565    206.2 1.359e+04 1.618e-09
 59.06627    207.1 1.434e+04 2.704e-09
 59.07827    208.0 1.485e+04 3.917e-09
 59.08858    209.4 1.422e+04 2.495e-09
 59.10681    210.3 1.490e+04 3.842e-09
 59.11712    211.1 1.488e+04 3.695e-09
 59.12814    212.1 1.533e+04 4.804e-09
 59.14355    212.6 1.550e+04 5.194e-09
 59.14992    212.8 1.577e+04 5.555e-09
 59.15512    214.2 1.534e+04 4.749e-09
 59.16417    214.1 1.575e+04 5.526e-09
 59.17208    214.0 1.628e+04 6.439e-09
 59.17723    214.4 1.613e+04 6.140e-09
 59.18321    214.4 1.668e+04 7.055e-09
 59.18836    215.1 1.634e+04 6.547e-09
 59.19505    215.1 1.681e+04 7.512e-09
 59.20536    215.1 1.709e+04 8.184e-09
 59.21567    214.6 1.771e+04 9.035e-09
 59.22166    211.8 2.061e+04 1.218e-08
 59.22681    213.7 1.946e+04 1.138e-08
 59.23228    205.4 2.548e+04 3.147e-08
 59.23744    199.4 2.656e+04 7.598e-08
 59.24660    189.1 2.488e+04 3.220e-07
 59.25495    181.2 2.291e+04 5.312e-07
 59.26011    181.7 2.260e+04 7.414e-07
 59.26722    174.0 2.262e+04 7.074e-07
 59.27753    165.8 2.508e+04 4.217e-07
 59.28734    153.5 3.472e+04 1.004e-07
 59.29249    147.3 4.011e+04 3.896e-08
 59.29340    128.1 3.655e+04 1.341e-08
 59.29855    126.0 3.643e+04 1.486e-08
 59.30846    114.3 2.115e+04 1.947e-08
 59.31877    112.7 2.096e+04 2.100e-08
 59.32669    112.4 2.125e+04 2.559e-08
 59.33185    111.1 2.131e+04 2.395e-08
 59.33939    110.9 2.184e+04 2.653e-08
 59.34754    110.7 2.213e+04 2.715e-08
 59.35270    110.8 2.164e+04 2.324e-08
 59.35999    110.1 2.174e+04 2.222e-08
 59.37550    106.7 2.082e+04 9.195e-09
 59.39620    104.5 1.973e+04 5.681e-09
 59.41682    101.8 1.786e+04 3.453e-09
 59.43182     99.2 1.580e+04 2.317e-09
 59.44213     96.5 1.358e+04 1.720e-09
 59.45775     95.5 1.278e+04 1.563e-09
 59.46806     96.5 1.365e+04 1.730e-09
 59.47868     96.0 1.334e+04 1.601e-09
 59.49841     95.6 1.310e+04 1.475e-09
 59.50872     94.5 1.226e+04 1.434e-09
 59.51992     94.1 1.197e+04 1.295e-09
 59.54054     93.5 1.169e+04 1.171e-09
 59.56116     92.8 1.149e+04 1.071e-09
 59.57531     91.8 1.139e+04 9.781e-10
 59.58200     91.6 1.129e+04 1.004e-09
 59.58847     91.4 1.167e+04 1.099e-09
 59.60240     90.1 1.153e+04 9.845e-10
 59.62302     88.8 1.122e+04 8.591e-10
 59.64189     87.7 1.085e+04 7.292e-10
 59.65220     88.2 1.065e+04 7.252e-10
 59.66426     87.3 1.036e+04 5.935e-10
 59.68488     87.0 1.008e+04 4.896e-10
 59.69858     87.0 9.881e+03 4.192e-10
 59.70889     85.2 1.157e+04 6.293e-10
 59.71879     83.8 1.359e+04 7.688e-10
 59.72910     85.7 1.136e+04 4.607e-10
 59.74674     84.0 1.385e+04 6.251e-10
 59.76736     82.1 1.661e+04 1.192e-09
 59.78538     81.0 1.808e+04 2.612e-09
 59.79569     82.4 1.709e+04 1.189e-09
 59.80860     81.1 1.833e+04 2.746e-09
 59.82922     79.9 1.775e+04 1.135e-08
 59.84984     80.5 1.761e+04 1.178e-08
 59.86227     81.4 1.758e+04 1.176e-08
 59.87258     81.2 1.721e+04 1.000e-08
 59.89108     82.2 1.694e+04 9.561e-09
 59.91170     83.2 1.656e+04 7.715e-09
 59.92886     83.9 1.647e+04 4.766e-09
 59.93594     83.7 1.620e+04 4.927e-09
 59.93941     81.9 1.744e+04 1.149e-09
 59.95294     80.3 1.921e+04 3.756e-10
 59.97356     78.5 1.990e+04 1.609e-10
 59.99418     77.2 1.965e+04 1.174e-10
 60.02521     76.1 1.956e+04 9.734e-11
 60.04971     70.3 1.088e+04 6.261e-11
 60.06600     68.7 8.260e+03 6.802e-11
 60.08285     70.1 8.351e+03 7.600e-11
 60.10779     69.8 8.469e+03 8.994e-11
 60.14903     69.4 8.849e+03 1.404e-10
 60.19027     68.9 9.418e+03 2.465e-10
 60.21602     68.4 9.859e+03 3.683e-10
 60.22623     69.1 9.868e+03 3.536e-10
 60.24162     68.7 9.994e+03 4.416e-10
 60.26224     68.7 1.019e+04 5.593e-10
 60.28003     68.8 1.047e+04 6.632e-10
 60.28989     69.2 1.040e+04 5.789e-10
 60.29272     69.4 1.055e+04 6.367e-10
 60.31389     69.2 1.083e+04 6.796e-10
 60.34482     69.1 1.102e+04 7.451e-10
 60.35931     68.6 1.125e+04 8.100e-10
 60.36962     68.7 1.136e+04 8.733e-10
 60.38597     67.9 1.170e+04 9.840e-10
 60.40044     66.9 1.234e+04 1.162e-09
 60.41075     67.2 1.164e+04 9.794e-10
 60.42589     65.9 1.208e+04 1.150e-09
 60.43620     65.7 1.248e+04 1.244e-09
 60.44783     63.1 1.359e+04 1.760e-09
 60.46845     61.1 1.406e+04 2.568e-09
 60.48907     61.2 1.400e+04 3.380e-09
 60.50279     61.8 1.382e+04 3.388e-09
 60.51310     61.6 1.418e+04 4.025e-09
 60.52086     62.0 1.395e+04 3.557e-09
 60.53117     62.2 1.384e+04 3.300e-09
 60.55093     62.5 1.325e+04 2.440e-09
 60.56937     61.9 1.283e+04 1.903e-09
 60.57969     61.4 1.282e+04 1.886e-09
 60.60257     61.5 1.212e+04 1.301e-09
 60.63616     60.9 1.130e+04 8.096e-10
 60.65678     60.4 1.104e+04 7.808e-10
 60.68515     60.5 1.082e+04 7.334e-10
 60.72639     60.7 1.096e+04 8.269e-10
 60.75148     61.1 1.113e+04 9.586e-10
 60.77210     61.8 1.087e+04 8.425e-10
 60.78985     61.8 1.114e+04 9.872e-10
 60.80006     61.6 1.120e+04 1.014e-09
 60.81899     61.7 1.132e+04 1.073e-09
 60.83961     62.0 1.125e+04 1.039e-09
 60.85634     62.5 1.106e+04 9.166e-10
 60.86665     62.4 1.106e+04 9.161e-10
 60.87179     62.8 1.077e+04 6.671e-10
 60.88210     63.1 1.065e+04 5.404e-10
 60.90147     62.6 1.069e+04 3.757e-10
 60.92302     61.4 1.043e+04 3.160e-10
 60.94374     60.9 1.029e+04 2.895e-10
 60.97178     59.5 9.903e+03 2.691e-10
 60.99240     60.3 9.770e+03 2.261e-10
 61.01508     59.8 9.680e+03 2.558e-10
 61.05629     59.6 9.780e+03 2.680e-10
 61.09753     58.3 1.004e+04 2.947e-10
 61.13880     57.2 9.988e+03 3.247e-10
 61.18004     57.0 9.857e+03 3.206e-10
 61.21009     57.4 9.587e+03 2.764e-10
 61.22204     57.5 9.609e+03 2.848e-10
 61.23323     58.2 9.470e+03 2.068e-10
 61.26252     58.2 9.355e+03 1.692e-10
 61.30376     58.3 9.265e+03 1.555e-10
 61.34326     58.6 9.223e+03 1.610e-10
 61.36388     58.4 9.204e+03 1.711e-10
 61.38624     59.2 9.200e+03 1.971e-10
 61.42748     60.3 9.263e+03 2.086e-10
 61.45344     61.3 9.297e+03 2.063e-10
 61.47406     62.1 9.268e+03 1.766e-10
 61.49705     62.8 9.319e+03 1.805e-10
 61.51767     63.0 9.316e+03 1.894e-10
 61.55120     63.6 9.348e+03 1.849e-10
 61.59244     64.3 9.352e+03 1.824e-10
 61.63022     65.2 9.308e+03 1.760e-10
 61.65084     65.4 9.259e+03 1.544e-10
 61.67365     66.5 9.158e+03 1.425e-10
 61.69427     67.4 9.176e+03 1.434e-10
 61.71616     68.7 9.054e+03 1.164e-10
 61.75740     70.0 8.915e+03 9.115e-11
 61.78402     71.3 8.794e+03 7.329e-11
 61.80464     71.8 8.785e+03 7.419e-11
 61.83988     73.1 8.710e+03 6.213e-11
 61.88112     74.5 8.650e+03 5.531e-11
 61.91448     76.0 8.627e+03 5.437e-11
 61.92993     76.7 8.626e+03 5.187e-11
 61.93781     77.2 8.623e+03 5.171e-11
 61.96360     78.9 8.631e+03 5.205e-11
 62.00484     80.5 8.674e+03 5.366e-11
 62.04608     82.0 8.740e+03 5.871e-11
 62.07098     83.4 8.815e+03 6.872e-11
 62.09160     83.9 8.857e+03 7.194e-11
 62.12856     85.2 8.954e+03 9.509e-11
 62.15531     86.5 9.108e+03 1.326e-10
 62.17593     87.2 9.064e+03 1.114e-10
 62.20415     88.3 9.324e+03 1.635e-10
 62.22478     88.9 9.436e+03 1.902e-10
 62.25229     89.8 9.756e+03 2.517e-10
 62.29353     90.0 9.969e+03 2.879e-10
 62.33477     89.9 9.988e+03 3.070e-10
 62.35795     89.5 9.954e+03 3.071e-10
 62.37808     90.1 9.916e+03 2.895e-10
 62.39614     90.7 9.745e+03 2.293e-10
 62.41725     90.5 9.588e+03 2.180e-10
 62.45849     90.7 9.410e+03 2.030e-10
 62.49112     91.1 9.240e+03 1.763e-10
 62.51174     92.2 9.229e+03 1.787e-10
 62.54097     92.9 9.107e+03 1.454e-10
 62.58221     93.5 9.108e+03 1.280e-10
 62.61635     94.2 9.147e+03 1.293e-10
 62.63697     94.3 9.229e+03 1.022e-10
 62.64491     95.0 9.431e+03 1.358e-10
 62.66553     96.5 9.242e+03 1.055e-10
 62.70593     97.4 9.439e+03 1.492e-10
 62.74717     98.7 9.584e+03 2.130e-10
 62.77809    100.2 9.705e+03 2.565e-10
 62.79871    101.5 9.564e+03 2.275e-10
 62.82965    103.0 9.647e+03 2.414e-10
 62.85718    104.6 9.644e+03 2.347e-10
 62.87780    105.0 9.928e+03 3.076e-10
 62.91126    106.5 9.877e+03 2.819e-10
 62.93188    107.8 9.910e+03 2.893e-10
 62.95337    109.3 9.850e+03 2.623e-10
 62.99461    110.9 9.897e+03 2.575e-10
 63.03585    112.3 1.007e+04 2.725e-10
 63.06505    113.2 1.034e+04 3.114e-10
 63.08567    114.3 1.039e+04 3.316e-10
 63.09791    114.6 1.043e+04 3.508e-10
 63.10812    114.6 1.054e+04 3.949e-10
 63.12845    115.1 1.063e+04 4.337e-10
 63.14175    115.7 1.076e+04 4.847e-10
 63.15206    116.4 1.080e+04 4.782e-10
 63.16969    116.7 1.092e+04 5.158e-10
 63.19031    116.7 1.107e+04 5.734e-10
 63.20792    116.5 1.126e+04 6.791e-10
 63.21564    116.4 1.121e+04 6.966e-10
 63.21865    117.2 1.112e+04 6.017e-10
 63.23155    117.0 1.124e+04 7.012e-10
 63.25217    116.8 1.138e+04 8.331e-10
 63.27279    116.7 1.143e+04 9.391e-10
 63.28523    116.8 1.134e+04 9.580e-10
 63.29554    117.4 1.123e+04 8.662e-10
 63.31403    117.6 1.114e+04 8.591e-10
 63.32833    117.8 1.094e+04 8.005e-10
 63.33864    117.8 1.074e+04 7.229e-10
 63.35182    117.9 1.052e+04 5.853e-10
 63.36213    118.7 1.056e+04 6.407e-10
 63.37589    118.7 1.042e+04 5.481e-10
 63.39651    118.8 1.020e+04 4.419e-10
 63.41713    118.7 1.009e+04 4.024e-10
 63.44816    119.9 9.948e+03 3.820e-10
 63.48519    121.0 9.737e+03 3.531e-10
 63.50571    121.4 9.865e+03 3.881e-10
 63.53064    123.0 9.802e+03 3.788e-10
 63.55905    124.6 9.538e+03 3.147e-10
 63.57967    125.0 9.581e+03 3.308e-10
 63.61322    126.7 9.313e+03 2.681e-10
 63.63898    128.5 9.060e+03 2.142e-10
 63.65960    129.0 9.308e+03 2.546e-10
 63.69570    131.0 9.091e+03 2.186e-10
 63.73694    133.2 9.009e+03 2.079e-10
 63.77215    135.6 9.002e+03 2.070e-10
 63.79277    136.4 9.195e+03 2.373e-10
 63.79988    139.0 9.177e+03 2.344e-10
 63.82050    138.5 9.269e+03 2.515e-10
 63.86066    141.0 9.182e+03 2.371e-10
 63.90190    143.4 9.073e+03 2.205e-10
 63.92595    145.9 8.937e+03 2.040e-10
 63.94657    147.2 8.995e+03 2.232e-10
 63.98438    149.8 8.911e+03 2.179e-10
 64.02009    152.6 8.921e+03 2.202e-10
 64.04071    151.5 8.745e+03 2.026e-10
 64.05912    154.2 8.775e+03 2.069e-10
 64.07974    156.1 8.906e+03 2.392e-10
 64.10810    159.2 9.119e+03 2.661e-10
 64.14934    161.7 9.459e+03 3.160e-10
 64.18017    162.9 9.555e+03 3.490e-10
 64.20070    164.1 9.675e+03 3.933e-10
 64.21272    165.8 9.949e+03 4.974e-10
 64.22303    167.3 1.000e+04 5.122e-10
 64.24194    168.3 1.050e+04 7.035e-10
 64.26072    168.5 1.162e+04 1.079e-09
 64.27103    166.7 1.205e+04 1.266e-09
 64.27930    166.4 1.356e+04 2.119e-09
 64.28961    168.5 1.360e+04 2.072e-09
 64.29859    168.4 1.413e+04 2.554e-09
 64.30885    168.3 1.444e+04 2.934e-09
 64.31765    167.4 1.566e+04 3.803e-09
 64.32281    169.1 1.531e+04 3.516e-09
 64.32599    165.7 1.855e+04 5.651e-09
 64.33114    161.5 2.102e+04 7.403e-09
 64.33978    152.1 2.587e+04 2.700e-08
 64.35009    145.2 2.579e+04 8.319e-08
 64.35610    140.7 2.442e+04 1.273e-07
 64.36126    141.0 2.442e+04 1.511e-07
 64.37071    137.1 2.404e+04 1.462e-07
 64.38102    132.9 2.407e+04 1.055e-07
 64.38939    123.2 2.988e+04 2.792e-08
 64.39455    123.7 3.015e+04 3.614e-08
 64.40165    103.0 4.015e+04 1.508e-08
 64.41196     81.1 3.334e+04 1.380e-08
 64.42227     62.1 2.855e+04 2.392e-08
 64.42784     54.1 2.526e+04 5.608e-08
 64.43300     52.6 2.492e+04 5.673e-08
 64.44125     50.8 2.318e+04 1.220e-07
 64.44640     51.7 2.310e+04 1.223e-07
 64.45320     50.1 2.254e+04 1.620e-07
 64.46114     49.3 2.277e+04 1.016e-07
 64.46629     48.3 2.289e+04 9.606e-08
 64.47382     46.9 2.345e+04 4.046e-08
 64.48413     44.1 2.300e+04 1.992e-08
 64.49443     38.9 2.229e+04 9.186e-09
 64.50149     28.4 1.815e+04 4.340e-09
 64.51186     29.6 1.785e+04 3.919e-09
 64.53062     23.3 1.490e+04 2.126e-09
 64.55124     21.3 1.356e+04 1.588e-09
 64.56627     21.2 1.316e+04 1.389e-09
 64.57658     23.4 1.446e+04 2.181e-09
 64.59248     22.4 1.350e+04 1.546e-09
 64.60467     20.1 1.227e+04 9.313e-10
 64.60977     19.9 1.356e+04 1.144e-09
 64.61671     18.8 1.488e+04 1.192e-09
 64.62187     19.2 1.417e+04 1.026e-09
 64.62847     15.8 1.602e+04 8.852e-10
 64.63791     12.8 1.910e+04 1.304e-09
 64.64307      3.2 2.613e+04 1.164e-08
 64.64909     -1.4 2.595e+04 2.566e-08
 64.65940     -4.2 2.539e+04 4.713e-08
 64.66971     -6.1 2.464e+04 6.921e-08
 64.67636     -5.7 2.395e+04 8.581e-08
 64.67842     -7.1 2.225e+04 1.286e-07
 64.68208     -6.8 2.223e+04 1.771e-07
 64.69033     -4.8 2.185e+04 1.467e-07
 64.70064     -2.1 2.183e+04 1.314e-07
 64.70965      0.8 2.185e+04 1.289e-07
 64.71481     -0.1 2.146e+04 1.050e-07
 64.72126      1.1 2.241e+04 1.038e-07
 64.73157     -0.8 2.568e+04 1.442e-07
 64.73713     -6.2 2.628e+04 3.592e-07
 64.74228     -6.4 2.468e+04 3.722e-07
 64.74810    -13.8 2.325e+04 7.415e-07
 64.75326    -12.2 3.880e+04 2.509e-08
 64.76250    -17.8 3.543e+04 3.283e-08
 64.77281    -18.6 2.651e+04 7.722e-08
 64.78139    -17.4 2.693e+04 3.349e-08
 64.78660    -16.8 4.033e+04 2.479e-09
 64.79868    -19.5 3.595e+04 1.131e-09
 64.81930    -24.5 2.789e+04 7.600e-10
 64.83992    -26.7 2.203e+04 1.131e-09
 64.85249    -26.2 2.039e+04 1.971e-09
 64.85549    -24.2 2.171e+04 3.975e-09
 64.86354    -25.3 2.176e+04 7.664e-10
 64.88116    -24.4 2.244e+04 1.116e-09
 64.90178    -23.6 2.228e+04 1.561e-09
 64.91982    -23.1 2.174e+04 2.028e-09
 64.93013    -23.7 1.696e+04 9.035e-10
 64.94302    -23.2 1.799e+04 1.019e-09
 64.96259    -24.5 1.888e+04 1.422e-09
 64.97290    -25.6 2.186e+04 2.692e-09
 64.98426    -28.5 2.133e+04 5.584e-09
 64.99672    -30.3 2.111e+04 1.154e-08
 65.00703    -29.6 2.082e+04 9.030e-09
 65.02030    -31.0 2.048e+04 1.356e-08
 65.02785    -31.3 2.058e+04 1.755e-08
 65.03236    -31.5 2.123e+04 2.388e-08
 65.03507    -30.8 2.147e+04 2.152e-08
 65.04087    -31.0 2.131e+04 2.716e-08
 65.05118    -30.9 2.103e+04 3.162e-08
 65.06149    -30.8 2.087e+04 3.255e-08
 65.06836    -30.3 2.015e+04 3.019e-08
 65.07351    -29.9 2.037e+04 2.266e-08
 65.08296    -29.9 1.935e+04 1.627e-08
 65.09327    -30.3 1.938e+04 1.621e-08
 65.10793    -31.2 1.845e+04 1.085e-08
 65.12860    -31.7 1.674e+04 5.390e-09
 65.14020    -32.4 1.554e+04 2.895e-09
 65.15051    -33.0 1.434e+04 2.998e-09
 65.16984    -33.3 1.329e+04 1.719e-09
 65.19046    -33.2 1.220e+04 1.080e-09
 65.20342    -32.9 1.131e+04 7.549e-10
 65.20943    -33.3 1.142e+04 7.493e-10
 65.21709    -31.8 1.209e+04 1.112e-09
 65.23170    -31.0 1.128e+04 7.692e-10
 65.25232    -29.9 1.061e+04 5.715e-10
 65.27294    -28.7 1.018e+04 4.524e-10
 65.28368    -27.5 9.911e+03 3.746e-10
 65.29399    -26.5 1.025e+04 4.531e-10
 65.31352    -25.5 9.918e+03 3.520e-10
 65.32383    -25.6 9.928e+03 3.490e-10
 65.34005    -24.3 9.759e+03 2.898e-10
 65.36067    -22.6 9.690e+03 2.852e-10
 65.38645    -20.6 9.542e+03 2.515e-10
 65.42382    -17.6 9.254e+03 2.041e-10
 65.44444    -16.8 9.277e+03 2.094e-10
 65.46903    -14.2 9.116e+03 1.841e-10
 65.49394    -11.8 9.023e+03 1.769e-10
 65.51456    -10.2 9.053e+03 1.777e-10
 65.55151     -7.9 9.004e+03 1.756e-10
 65.59275     -5.6 8.980e+03 1.757e-10
 65.62712     -3.3 8.904e+03 1.777e-10
 65.64774     -1.7 8.961e+03 1.780e-10
 65.66465      0.5 8.962e+03 1.812e-10
 65.68527      0.8 9.219e+03 2.333e-10
 65.71647      2.9 9.177e+03 2.335e-10
 65.75771      5.0 9.120e+03 2.274e-10
 65.78091      7.1 9.081e+03 2.221e-10
 65.80153      8.6 9.368e+03 2.461e-10
 65.84019     10.6 9.461e+03 2.761e-10
 65.88143     12.7 9.572e+03 3.188e-10
 65.90548     14.7 9.677e+03 3.540e-10
 65.91751     15.1 9.653e+03 3.372e-10
 65.93460     15.6 1.005e+04 4.508e-10
 65.95341     17.2 1.025e+04 5.256e-10
 65.97403     18.1 1.021e+04 5.459e-10
 65.99078     19.6 1.025e+04 5.902e-10
 66.00109     20.4 1.090e+04 8.993e-10
 66.01527     20.6 1.121e+04 1.029e-09
 66.02570     20.1 1.212e+04 1.290e-09
 66.03601     19.2 1.240e+04 1.477e-09
 66.05651     18.5 1.410e+04 2.312e-09
 66.06768     17.7 1.484e+04 3.051e-09
 66.07279     17.2 1.637e+04 4.098e-09
 66.08066     16.3 1.691e+04 4.621e-09
 66.08581     16.4 1.645e+04 4.738e-09
 66.09250     15.4 1.716e+04 6.572e-09
 66.10088     14.5 1.756e+04 7.987e-09
 66.10603     13.8 1.891e+04 1.221e-08
 66.11312     14.1 1.942e+04 1.506e-08
 66.12343     14.3 1.986e+04 1.696e-08
 66.13422     14.9 2.031e+04 1.760e-08
 66.14139     13.1 2.120e+04 2.025e-08
 66.14612     13.9 2.116e+04 2.030e-08
 66.15961     11.5 2.104e+04 1.699e-08
 66.18023      8.1 2.121e+04 1.496e-08
 66.20085      2.9 2.171e+04 1.411e-08
 66.22147     -7.6 1.970e+04 7.908e-09
 66.24209    -12.3 2.003e+04 7.709e-09
 66.25622    -16.4 2.086e+04 6.573e-09
 66.26653    -14.4 2.164e+04 8.439e-09
 66.27775    -18.3 2.163e+04 4.926e-09
 66.28806    -23.5 1.612e+04 3.094e-09
 66.30395    -27.4 1.400e+04 2.185e-09
 66.32457    -30.7 1.274e+04 1.264e-09
 66.34433    -33.5 1.155e+04 7.381e-10
 66.35464    -33.0 1.162e+04 7.608e-10
 66.36581    -35.0 1.122e+04 5.680e-10
 66.37664    -36.9 1.120e+04 5.335e-10
 66.38695    -35.7 1.103e+04 4.899e-10
 66.40705    -39.1 1.150e+04 4.901e-10
 66.42123    -44.6 1.323e+04 7.689e-10
 66.43154    -44.6 1.324e+04 7.727e-10
 66.44829    -49.0 1.421e+04 1.788e-09
 66.46891    -51.3 1.482e+04 3.331e-09
 66.48674    -52.9 1.512e+04 4.237e-09
 66.49533    -52.1 1.510e+04 4.344e-09
 66.49813    -52.2 1.532e+04 4.667e-09
 66.51015    -53.4 1.535e+04 4.861e-09
 66.53077    -54.3 1.484e+04 3.744e-09
 66.55140    -55.7 1.363e+04 1.794e-09
 66.56471    -58.5 1.185e+04 7.121e-10
 66.57502    -58.6 1.210e+04 7.916e-10
 66.59264    -61.4 1.076e+04 3.809e-10
 66.60716    -62.6 1.025e+04 2.839e-10
 66.61747    -62.0 1.024e+04 2.791e-10
 66.63130    -62.2 1.004e+04 2.532e-10
 66.64161    -62.1 1.031e+04 3.165e-10
 66.65450    -61.9 1.016e+04 2.928e-10
 66.67512    -61.8 1.011e+04 2.870e-10
 66.69574    -61.5 1.012e+04 2.919e-10
 66.70820    -61.3 1.014e+04 3.078e-10
 66.71851    -60.9 1.029e+04 3.606e-10
 66.74738    -60.8 1.018e+04 3.251e-10
 66.77498    -60.1 1.015e+04 3.257e-10
 66.79560    -58.6 1.077e+04 5.723e-10
 66.82756    -58.0 1.069e+04 5.387e-10
 66.84818    -57.6 1.050e+04 4.746e-10
 66.87120    -57.0 1.039e+04 4.271e-10
 66.90815    -56.0 1.024e+04 3.758e-10
 66.92877    -54.9 1.079e+04 5.861e-10
 66.95368    -53.7 1.036e+04 4.194e-10
 66.99492    -52.2 1.004e+04 3.045e-10
 67.03616    -50.5 9.833e+03 2.383e-10
 67.06194    -48.8 9.764e+03 1.978e-10
 67.07355    -48.0 9.751e+03 2.041e-10
 67.08901    -47.5 9.769e+03 2.101e-10
 67.11864    -45.6 9.748e+03 1.955e-10
 67.15989    -43.7 9.773e+03 1.953e-10
 67.19512    -42.3 1.009e+04 2.224e-10
 67.21574    -41.2 1.001e+04 2.309e-10
 67.24237    -40.0 1.061e+04 3.482e-10
 67.28361    -38.9 1.139e+04 6.108e-10
 67.30922    -37.7 1.226e+04 1.011e-09
 67.31943    -37.9 1.242e+04 1.053e-09
 67.33496    -38.2 1.309e+04 1.399e-09
 67.34871    -38.3 1.394e+04 2.086e-09
 67.35902    -37.8 1.391e+04 2.068e-09
 67.37620    -37.9 1.453e+04 2.804e-09
 67.39682    -37.9 1.480e+04 3.461e-09
 67.41530    -37.6 1.477e+04 3.738e-09
 67.42561    -37.3 1.475e+04 3.556e-09
 67.42944    -36.8 1.468e+04 3.613e-09
 67.43975    -37.2 1.537e+04 5.171e-09
 67.45868    -36.1 1.476e+04 4.189e-09
 67.47930    -35.3 1.420e+04 3.118e-09
 67.49220    -34.8 1.365e+04 2.234e-09
 67.50251    -34.6 1.342e+04 1.979e-09
 67.52933    -34.1 1.270e+04 1.352e-09
 67.54995    -34.9 1.276e+04 1.290e-09
 67.57219    -34.2 1.231e+04 1.041e-09
 67.61353    -31.3 1.157e+04 7.425e-10
 67.63587    -28.6 1.115e+04 5.603e-10
 67.65649    -27.7 1.111e+04 5.542e-10
 67.69601    -25.1 1.097e+04 4.770e-10
 67.73725    -22.5 1.089e+04 4.339e-10
 67.76905    -20.0 1.085e+04 4.217e-10
 67.78143    -19.0 1.091e+04 4.350e-10
 67.79088    -19.8 1.111e+04 4.944e-10
 67.81973    -17.7 1.111e+04 5.141e-10
 67.86097    -15.8 1.128e+04 6.100e-10
 67.90221    -13.8 1.144e+04 7.253e-10
 67.94345    -11.8 1.159e+04 8.032e-10
 67.98469    -10.0 1.160e+04 8.360e-10
 68.01109     -8.1 1.147e+04 8.315e-10
 68.02130     -9.5 1.200e+04 1.100e-09
 68.03605     -8.9 1.187e+04 1.051e-09
 68.05591     -7.5 1.159e+04 9.371e-10
 68.07663     -7.4 1.161e+04 9.429e-10
 68.10841     -5.0 1.097e+04 6.662e-10
 68.14965     -2.8 1.056e+04 4.994e-10
 68.18918     -0.5 1.029e+04 4.018e-10
 68.20980     -0.6 1.025e+04 3.524e-10
 68.23130      1.7 1.005e+04 3.064e-10
 68.25192      0.8 1.014e+04 3.496e-10
 68.27337      3.3 9.998e+03 3.246e-10
 68.31461      5.9 9.891e+03 3.096e-10
 68.34298      8.5 9.800e+03 2.969e-10
 68.36360      8.5 9.866e+03 3.144e-10
 68.39710     11.2 9.776e+03 3.070e-10
 68.43834     13.8 9.702e+03 2.937e-10
 68.47213     16.3 9.624e+03 2.774e-10
 68.48932     16.0 9.560e+03 2.595e-10
 68.49677     16.1 9.630e+03 2.781e-10
 68.52082     18.6 9.509e+03 2.523e-10
 68.56206     21.1 9.369e+03 2.261e-10
 68.60330     23.7 9.233e+03 1.959e-10
 68.62994     26.2 9.093e+03 1.633e-10
 68.65056     26.1 9.152e+03 1.691e-10
 68.68578     28.4 9.084e+03 1.456e-10
 68.71296     30.4 9.047e+03 1.368e-10
 68.73358     30.1 8.887e+03 1.195e-10
 68.76311     32.5 8.926e+03 1.232e-10
 68.78373     32.1 9.187e+03 1.733e-10
 68.80950     34.3 9.210e+03 2.129e-10
 68.85074     37.0 9.309e+03 2.396e-10
 68.89198     39.4 9.418e+03 2.488e-10
 68.91691     41.5 9.505e+03 2.548e-10
 68.93747     41.1 9.721e+03 3.012e-10
 68.97441     42.3 9.633e+03 2.805e-10
 69.01570     44.4 9.593e+03 2.606e-10
 69.05008     46.2 9.634e+03 2.285e-10
 69.07070     45.0 9.663e+03 2.330e-10
 69.09818     46.3 9.816e+03 2.054e-10
 69.13942     46.8 1.013e+04 2.270e-10
 69.17400     45.4 1.090e+04 4.407e-10
 69.19462     43.6 1.125e+04 5.159e-10
 69.20377     40.9 1.240e+04 9.926e-10
 69.21399     40.1 1.245e+04 1.082e-09
 69.23202     38.9 1.325e+04 1.984e-09
 69.25264     38.5 1.416e+04 3.274e-09
 69.27026     36.9 1.592e+04 4.981e-09
 69.28057     36.1 1.584e+04 4.894e-09
 69.29388     33.8 1.688e+04 6.310e-09
 69.30453     31.9 1.613e+04 6.988e-09
 69.31484     31.9 1.559e+04 6.359e-09
 69.33512     32.4 1.475e+04 6.748e-09
 69.34716     34.1 1.436e+04 5.817e-09
 69.35747     34.2 1.423e+04 5.350e-09
 69.37636     35.3 1.417e+04 4.068e-09
 69.39698     35.2 1.375e+04 2.754e-09
 69.41375     33.6 1.306e+04 1.805e-09
 69.42109     33.0 1.275e+04 1.697e-09
 69.43535     33.2 1.164e+04 1.013e-09
 69.45894     32.8 1.091e+04 7.496e-10
 69.47946     32.9 1.082e+04 7.248e-10
 69.49074     33.5 1.064e+04 7.177e-10
 69.51146     33.7 1.075e+04 7.744e-10
 69.55182     35.1 1.086e+04 9.048e-10
 69.59306     36.8 1.093e+04 8.643e-10
 69.62390     37.6 1.094e+04 9.326e-10
 69.64452     37.9 1.156e+04 1.202e-09
 69.65565     39.2 1.150e+04 1.096e-09
 69.66587     39.2 1.147e+04 1.197e-09
 69.68566     39.8 1.132e+04 1.118e-09
 69.70071     40.4 1.129e+04 9.873e-10
 69.71102     40.8 1.178e+04 1.274e-09
 69.72690     41.0 1.167e+04 1.144e-09
 69.74752     40.7 1.168e+04 9.372e-10
 69.76556     40.1 1.164e+04 8.508e-10
 69.77503     40.4 1.173e+04 9.496e-10
 69.77761     40.5 1.203e+04 9.898e-10
 69.78876     39.7 1.133e+04 8.479e-10
 69.80938     39.6 1.076e+04 7.600e-10
 69.83000     40.0 1.038e+04 6.272e-10
 69.84419     40.3 1.014e+04 5.127e-10
 69.85450     40.5 1.011e+04 4.975e-10
 69.87577     40.1 9.978e+03 3.556e-10
 69.89639     39.5 9.858e+03 3.117e-10
 69.91088     38.0 9.673e+03 2.617e-10
 69.93159     40.1 9.694e+03 2.911e-10
 69.96423     40.3 9.514e+03 2.636e-10
 70.00547     40.7 9.529e+03 2.852e-10
 70.04415     41.9 9.648e+03 3.167e-10
 70.06467     42.7 9.811e+03 3.602e-10
 70.07744     43.5 9.877e+03 3.589e-10
 70.09806     43.6 9.917e+03 3.605e-10
 70.11650     44.1 9.946e+03 3.669e-10
 70.12681     43.4 1.018e+04 4.630e-10
 70.13116     43.7 1.014e+04 4.725e-10
 70.14147     44.4 1.064e+04 5.977e-10
 70.15992     44.4 1.061e+04 6.074e-10
 70.18054     44.3 1.059e+04 6.139e-10
 70.19774     44.6 1.041e+04 6.076e-10
 70.20805     44.4 1.110e+04 8.789e-10
 70.22178     44.8 1.087e+04 8.891e-10
 70.23691     45.5 1.078e+04 8.558e-10
 70.24722     45.1 1.095e+04 8.703e-10
 70.26303     45.6 1.103e+04 8.190e-10
 70.27464     45.7 1.115e+04 7.350e-10
 70.28495     44.9 1.195e+04 1.060e-09
 70.30427     44.5 1.178e+04 1.016e-09
 70.32489     44.2 1.171e+04 1.016e-09
 70.34123     43.4 1.187e+04 1.100e-09
 70.35154     40.8 1.264e+04 1.596e-09
 70.35733     40.2 1.314e+04 1.995e-09
 70.36764     39.8 1.343e+04 2.212e-09
 70.38675     38.8 1.447e+04 3.060e-09
 70.40737     37.5 1.580e+04 4.139e-09
 70.41812     36.3 1.669e+04 5.624e-09
 70.42843     33.1 1.675e+04 5.022e-09
 70.44861     32.0 1.747e+04 5.826e-09
 70.46743     30.7 1.801e+04 5.895e-09
 70.47774     29.5 1.717e+04 5.267e-09
 70.48471     27.9 1.672e+04 4.466e-09
 70.49502     22.3 1.489e+04 3.169e-09
 70.51047     20.9 1.390e+04 2.899e-09
 70.53109     20.6 1.334e+04 2.541e-09
 70.55130     20.7 1.305e+04 2.197e-09
 70.56161     19.3 1.329e+04 2.326e-09
 70.57233     19.2 1.284e+04 1.886e-09
 70.58785     18.5 1.228e+04 1.506e-09
 70.59816     18.1 1.174e+04 1.195e-09
 70.61798     16.4 1.133e+04 8.735e-10
 70.63870     14.7 1.096e+04 8.132e-10
 70.66531     13.2 1.134e+04 8.660e-10
 70.70655     11.5 1.201e+04 1.306e-09
 70.73739     11.2 1.228e+04 1.626e-09
 70.75791     11.6 1.234e+04 1.689e-09
 70.77167     11.6 1.255e+04 1.740e-09
 70.78198     12.2 1.266e+04 1.826e-09
 70.79915     11.4 1.319e+04 1.928e-09
 70.81837      9.1 1.407e+04 2.181e-09
 70.82868      9.4 1.276e+04 1.509e-09
 70.83826      7.9 1.285e+04 1.596e-09
 70.84857      8.5 1.348e+04 1.953e-09
 70.86101      7.9 1.342e+04 2.179e-09
 70.88163      8.2 1.340e+04 2.366e-09
 70.90225      9.1 1.331e+04 2.383e-09
 70.91516     10.3 1.303e+04 2.198e-09
 70.92547     10.9 1.357e+04 2.716e-09
 70.93878     11.9 1.322e+04 2.312e-09
 70.94909     11.2 1.315e+04 2.187e-09
 70.96411     12.1 1.281e+04 1.959e-09
 70.98174     12.9 1.249e+04 1.737e-09
 70.99205     12.8 1.325e+04 2.288e-09
 71.00535     13.7 1.285e+04 1.965e-09
 71.02597     14.7 1.250e+04 1.701e-09
 71.04659     15.6 1.235e+04 1.597e-09
 71.05864     16.0 1.255e+04 1.683e-09
 71.06094     15.8 1.311e+04 1.979e-09
 71.06951     16.0 1.327e+04 2.362e-09
 71.08783     16.4 1.352e+04 2.458e-09
 71.10845     15.8 1.432e+04 3.019e-09
 71.12523     15.0 1.538e+04 4.220e-09
 71.13554     15.0 1.518e+04 3.495e-09
 71.14969     14.5 1.574e+04 4.561e-09
 71.16930     14.6 1.625e+04 5.303e-09
 71.17961     15.0 1.606e+04 5.031e-09
 71.19093     15.3 1.585e+04 5.116e-09
 71.20212     16.2 1.515e+04 4.497e-09
 71.21243     14.6 1.488e+04 3.703e-09
 71.23217     15.3 1.476e+04 3.385e-09
 71.25279     15.8 1.650e+04 3.232e-09
 71.26871     15.4 1.980e+04 3.598e-09
 71.27902     14.5 1.959e+04 4.000e-09
 71.28972     14.5 2.090e+04 4.462e-09
 71.30003     16.4 1.417e+04 1.484e-09
 71.31465     16.5 1.561e+04 1.406e-09
 71.33527     16.8 1.646e+04 1.520e-09
 71.35589     15.9 1.553e+04 1.950e-09
 71.37651     17.0 1.566e+04 2.167e-09
 71.39713     18.1 1.584e+04 2.446e-09
 71.41013     19.0 1.607e+04 2.746e-09
 71.41488     18.5 1.334e+04 1.447e-09
 71.42250     17.0 1.421e+04 1.976e-09
 71.43837     17.1 1.465e+04 2.393e-09
 71.45899     17.7 1.508e+04 2.853e-09
 71.47878     17.3 1.768e+04 3.474e-09
 71.48909     17.1 1.650e+04 4.318e-09
 71.50023     14.8 2.361e+04 4.058e-09
 71.51565    -26.3 9.565e+04 1.683e-09
 71.52228    -49.8 5.085e+04 6.626e-08
 71.52682    -27.4 8.718e+04 2.312e-09
 71.53045    -24.2 8.754e+04 1.790e-09
 71.53622    -46.0 6.415e+04 2.136e-08
 71.54148    -54.2 2.366e+04 3.044e-06
 71.54404    -48.2 6.052e+04 2.837e-08
 71.54906    -49.5 2.708e+04 1.803e-06
 71.55422    -49.7 1.784e+04 1.914e-05
 71.55793    -45.5 1.533e+04 1.033e-04
 71.55924    -51.0 1.560e+04 1.016e-04
 71.56068    -50.2 1.937e+04 1.708e-05
 71.56453    -48.5 1.631e+04 8.243e-05
 71.56968    -38.3 1.521e+04 1.717e-04
 71.57475    -20.7 1.508e+04 1.571e-04
 71.57732    -34.7 1.610e+04 1.986e-04
 71.57868    -17.8 1.537e+04 1.172e-04
 71.58126    -11.5 1.618e+04 8.163e-05
 71.58383     -2.9 1.599e+04 1.101e-04
 71.58563     -1.3 1.683e+04 8.885e-05
 71.58627    -12.8 1.500e+04 5.637e-04
 71.58704    -23.7 1.335e+04 2.378e-03
 71.58799    -34.6 1.280e+04 4.374e-03
 71.58864    -57.2 1.375e+04 1.525e-03
 71.58962    -74.5 1.330e+04 2.897e-03
 71.59042    -93.1 1.403e+04 3.541e-03
 71.59107   -115.6 1.030e+04 1.000e-01
 71.59175    -98.5 1.310e+04 3.512e-03
 71.59207   -113.1 1.104e+04 3.698e-02
 71.59250   -114.9 1.114e+04 3.413e-02
 71.59282   -120.1 9.251e+03 1.318e-01
 71.59316   -121.8 9.101e+03 1.491e-01
 71.59380   -124.0 9.044e+03 2.030e-01
 71.59445   -128.9 8.785e+03 2.688e-01
 71.59490   -134.5 8.610e+03 3.277e-01
 71.59522   -143.9 8.396e+03 1.018e+00
 71.59551   -146.3 8.558e+03 6.890e-01
 71.59616   -153.8 9.003e+03 2.440e-01
 71.59735   -155.7 9.355e+03 9.344e-02
 71.59864   -156.2 1.125e+04 1.218e-02
 71.59939   -154.8 1.476e+04 5.096e-04
 71.60003   -154.1 1.410e+04 7.163e-04
 71.60176   -153.4 1.763e+04 5.670e-05
 71.60306   -154.7 2.189e+04 1.466e-05
 71.60575   -150.7 3.188e+04 1.717e-06
 71.61062   -140.0 8.233e+04 1.292e-08
 71.61320   -140.5 5.198e+04 1.437e-07
 71.61555   -136.5 6.344e+04 4.725e-08
 71.61813   -137.2 6.572e+04 9.612e-09
 71.62123   -133.5 6.603e+04 5.595e-09
 71.62729   -133.3 3.476e+04 4.600e-09
 71.63245   -128.1 4.771e+04 6.080e-09
 71.63930   -126.2 3.843e+04 5.434e-09
 71.64571   -123.0 2.351e+04 4.535e-09
 71.65086   -120.4 2.511e+04 4.002e-09
 71.65994   -117.7 2.089e+04 3.494e-09
 71.66577   -114.0 2.001e+04 3.112e-09
 71.67092   -113.9 2.050e+04 3.768e-09
 71.68056   -110.8 2.006e+04 3.391e-09
 71.69087   -107.9 1.926e+04 3.017e-09
 71.69911   -104.6 1.792e+04 2.512e-09
 71.70384   -104.6 1.908e+04 3.217e-09
 71.70591   -104.3 1.973e+04 3.093e-09
 71.71149   -102.7 1.935e+04 2.956e-09
 71.72180    -99.6 1.837e+04 2.668e-09
 71.73211    -98.3 1.799e+04 2.574e-09
 71.74763    -94.9 1.673e+04 2.345e-09
 71.76106    -91.5 1.520e+04 1.928e-09
 71.76882    -92.1 1.326e+04 1.412e-09
 71.77605    -90.6 1.566e+04 2.108e-09
 71.78892    -88.1 1.452e+04 1.745e-09
 71.80954    -85.9 1.359e+04 1.464e-09
 71.83016    -83.8 1.281e+04 1.236e-09
 71.84264    -81.5 1.216e+04 1.057e-09
 71.85295    -81.2 1.409e+04 1.679e-09
 71.87117    -78.9 1.353e+04 1.533e-09
 71.88148    -78.1 1.241e+04 1.194e-09
 71.89202    -75.7 1.204e+04 1.058e-09
 71.90923    -73.2 1.173e+04 9.500e-10
 71.91954    -72.9 1.355e+04 1.674e-09
 71.93326    -70.4 1.340e+04 1.611e-09
 71.95388    -68.0 1.324e+04 1.545e-09
 71.97450    -65.5 1.306e+04 1.469e-09
 71.98612    -63.1 1.286e+04 1.390e-09
 71.99290    -62.8 1.420e+04 2.254e-09
 72.00189    -61.6 1.367e+04 1.834e-09
 72.01574    -59.2 1.360e+04 1.774e-09
 72.03636    -56.8 1.348e+04 1.688e-09
 72.05271    -54.6 1.325e+04 1.557e-09
 72.06302    -54.3 1.458e+04 2.540e-09
 72.07760    -52.0 1.446e+04 2.464e-09
 72.09822    -49.9 1.427e+04 2.348e-09
 72.11200    -47.8 1.404e+04 2.195e-09
 72.12231    -46.7 1.339e+04 1.679e-09
 72.12960    -44.9 1.303e+04 1.484e-09
 72.13991    -44.6 1.455e+04 2.603e-09
 72.16008    -42.7 1.426e+04 2.458e-09
 72.18070    -40.7 1.389e+04 2.279e-09
 72.19619    -38.8 1.345e+04 2.065e-09
 72.20650    -38.6 1.463e+04 3.227e-09
 72.22194    -36.6 1.442e+04 3.120e-09
 72.23241    -34.4 1.380e+04 2.791e-09
 72.24272    -34.0 1.388e+04 2.585e-09
 72.26278    -32.0 1.363e+04 2.425e-09
 72.27304    -31.7 1.431e+04 3.221e-09
 72.28375    -29.9 1.449e+04 3.389e-09
 72.30442    -28.0 1.435e+04 3.185e-09
 72.32504    -26.1 1.425e+04 2.980e-09
 72.33967    -24.4 1.414e+04 2.833e-09
 72.34478    -24.4 1.500e+04 3.692e-09
 72.34758    -24.0 1.491e+04 3.637e-09
 72.35273    -24.1 1.464e+04 3.597e-09
 72.36103    -23.1 1.477e+04 3.622e-09
 72.37134    -22.9 1.477e+04 3.614e-09
 72.37802    -22.2 1.501e+04 3.666e-09
 72.38318    -22.4 1.565e+04 4.585e-09
 72.39196    -22.4 1.585e+04 4.726e-09
 72.40227    -22.3 1.629e+04 5.094e-09
 72.40778    -22.4 1.666e+04 5.584e-09
 72.41168    -22.8 1.718e+04 6.250e-09
 72.41647    -23.7 1.839e+04 1.042e-08
 72.42289    -23.8 1.882e+04 1.250e-08
 72.43320    -24.0 1.921e+04 1.499e-08
 72.44351    -24.2 1.966e+04 1.826e-08
 72.44977    -24.5 2.011e+04 2.216e-08
 72.45492    -24.2 2.082e+04 4.287e-08
 72.46284    -24.4 2.132e+04 5.220e-08
 72.46799    -24.8 2.182e+04 5.883e-08
 72.47444    -25.4 2.196e+04 6.247e-08
 72.48306    -26.1 2.191e+04 6.253e-08
 72.48821    -26.2 2.283e+04 1.152e-07
 72.49506    -26.7 2.240e+04 9.292e-08
 72.50537    -26.8 2.207e+04 6.834e-08
 72.51568    -26.7 2.196e+04 5.174e-08
 72.52151    -26.7 2.198e+04 3.971e-08
 72.52371    -27.2 2.226e+04 3.999e-08
 72.52820    -27.7 2.237e+04 4.070e-08
 72.53630    -27.9 2.188e+04 2.997e-08
 72.54661    -28.4 2.118e+04 2.252e-08
 72.55480    -28.8 2.040e+04 1.772e-08
 72.55995    -29.5 2.035e+04 1.721e-08
 72.57243    -29.6 1.973e+04 1.364e-08
 72.58335    -29.6 1.818e+04 7.853e-09
 72.59366    -29.7 1.744e+04 6.356e-09
 72.61372    -31.0 1.582e+04 3.857e-09
 72.62664    -32.3 1.436e+04 2.763e-09
 72.63695    -33.4 1.438e+04 2.796e-09
 72.65496    -34.0 1.362e+04 2.317e-09
 72.67558    -34.0 1.334e+04 2.175e-09
 72.69322    -34.0 1.346e+04 2.251e-09
 72.70078    -35.9 1.483e+04 3.076e-09
 72.70376    -34.8 1.374e+04 2.444e-09
 72.71682    -35.1 1.448e+04 2.974e-09
 72.73744    -35.3 1.524e+04 3.583e-09
 72.75807    -35.4 1.583e+04 4.117e-09
 72.77007    -35.3 1.609e+04 4.523e-09
 72.77518    -36.0 1.631e+04 4.874e-09
 72.78374    -36.2 1.671e+04 5.197e-09
 72.79405    -36.4 1.731e+04 5.766e-09
 72.80332    -36.7 1.801e+04 6.472e-09
 72.80847    -38.0 1.878e+04 7.840e-09
 72.81377    -38.0 1.916e+04 8.761e-09
 72.81892    -37.1 1.790e+04 6.744e-09
 72.82498    -37.3 1.832e+04 7.392e-09
 72.83529    -37.4 1.849e+04 7.821e-09
 72.84176    -37.4 1.858e+04 7.941e-09
 72.84692    -38.4 1.910e+04 9.205e-09
 72.85591    -38.5 1.944e+04 9.597e-09
 72.86622    -38.5 1.970e+04 1.064e-08
 72.87398    -38.2 2.012e+04 1.162e-08
 72.87766    -38.5 2.093e+04 1.002e-08
 72.88021    -39.4 2.180e+04 1.236e-08
 72.88684    -39.0 2.238e+04 1.415e-08
 72.89715    -38.5 2.298e+04 1.627e-08
 72.90746    -38.3 2.363e+04 1.833e-08
 72.91351    -38.6 2.494e+04 2.010e-08
 72.91866    -41.2 2.768e+04 2.607e-08
 72.92808    -44.6 3.051e+04 3.710e-08
 72.93418    -49.2 2.938e+04 8.544e-08
 72.93934    -55.0 3.247e+04 5.654e-08
 72.94680    -57.0 2.971e+04 1.105e-07
 72.95193    -59.4 2.423e+04 3.818e-07
 72.95639    -59.9 2.163e+04 7.055e-07
 72.96154    -58.9 2.059e+04 9.297e-07
 72.96424    -57.5 2.007e+04 1.045e-06
 72.96609    -57.5 2.327e+04 4.812e-07
 72.96855    -56.8 2.139e+04 8.053e-07
 72.97185    -55.9 2.232e+04 6.300e-07
 72.97701    -55.7 2.394e+04 4.430e-07
 72.98216    -56.2 2.507e+04 3.391e-07
 72.98520    -56.8 2.588e+04 2.932e-07
 72.98967    -58.4 2.500e+04 3.103e-07
 72.99439    -60.0 3.401e+04 7.106e-08
 73.00025    -65.7 3.873e+04 4.174e-08
 73.01056    -74.4 4.002e+04 3.594e-08
 73.01854    -82.7 3.390e+04 5.636e-08
 73.02370    -83.6 3.259e+04 7.952e-08
 73.03118    -87.6 2.615e+04 1.635e-07
 73.04149    -90.8 2.496e+04 1.827e-07
 73.04944    -94.9 2.459e+04 1.836e-07
 73.05460    -98.3 2.364e+04 6.146e-08
 73.06211   -100.9 2.443e+04 9.290e-08
 73.07243   -104.9 2.433e+04 7.251e-08
 73.08274   -108.1 2.425e+04 4.540e-08
 73.09028   -112.1 2.351e+04 1.974e-08
 73.09544   -110.8 2.491e+04 2.621e-08
 73.10336   -115.9 2.287e+04 1.048e-08
 73.10965   -121.4 1.902e+04 4.602e-09
 73.11481   -121.4 1.761e+04 4.266e-09
 73.12357   -125.1 1.486e+04 2.460e-09
 73.12873   -124.7 1.557e+04 2.767e-09
 73.13429   -127.1 1.389e+04 1.930e-09
 73.14460   -128.2 1.341e+04 1.593e-09
 73.15491   -128.8 1.321e+04 1.443e-09
 73.16475   -130.6 1.202e+04 1.016e-09
 73.17511   -129.6 1.161e+04 8.918e-10
 73.19026   -130.8 1.003e+04 5.505e-10
 73.20057   -129.7 1.040e+04 6.772e-10
 73.21171   -129.7 9.777e+03 5.282e-10
 73.23233   -128.7 9.555e+03 4.795e-10
 73.25295   -127.0 9.443e+03 4.501e-10
 73.26716   -125.4 9.384e+03 4.313e-10
 73.27747   -124.4 9.450e+03 4.506e-10
 73.28522   -123.0 9.375e+03 4.300e-10
 73.29553   -122.6 9.201e+03 3.837e-10
 73.31481   -121.3 9.154e+03 3.694e-10
 73.33374   -120.0 9.139e+03 3.658e-10
 73.34405   -118.4 9.190e+03 3.609e-10
 73.35605   -117.3 9.196e+03 3.608e-10
 73.37667   -116.0 9.281e+03 3.732e-10
 73.39532   -115.2 9.387e+03 4.005e-10
 73.40573   -115.3 9.193e+03 3.410e-10
 73.42842   -113.1 9.420e+03 3.953e-10
 73.45925   -110.7 9.576e+03 4.618e-10
 73.47722   -109.7 9.735e+03 5.124e-10
 73.48763   -108.1 9.390e+03 4.170e-10
 73.51090   -105.9 9.540e+03 4.627e-10
 73.55214   -103.6 9.555e+03 4.688e-10
 73.59338   -101.6 9.462e+03 4.420e-10
 73.62090    -99.4 9.221e+03 3.864e-10
 73.63294    -96.7 9.341e+03 4.203e-10
 73.64666    -96.7 9.134e+03 3.826e-10
 73.67586    -94.4 8.925e+03 3.369e-10
 73.71710    -92.1 8.706e+03 2.937e-10
 73.75407    -89.8 8.498e+03 2.572e-10
 73.77469    -87.8 8.729e+03 2.976e-10
 73.79958    -85.6 8.558e+03 2.685e-10
 73.84082    -83.3 8.362e+03 2.374e-10
 73.86687    -80.9 8.146e+03 2.039e-10
 73.88749    -80.8 8.118e+03 1.977e-10
 73.90787    -78.3 7.964e+03 1.739e-10
 73.92849    -76.8 8.145e+03 2.018e-10
 73.96454    -74.3 7.953e+03 1.702e-10
 74.00578    -71.7 7.774e+03 1.415e-10
 74.04104    -69.1 7.635e+03 1.185e-10
 74.06166    -67.7 7.736e+03 1.299e-10
 74.08707    -65.2 7.621e+03 1.096e-10
 74.10770    -65.3 7.744e+03 1.233e-10
 74.12950    -62.8 7.699e+03 1.122e-10
 74.17074    -60.4 7.699e+03 1.070e-10
 74.19483    -58.0 7.705e+03 1.058e-10
 74.21545    -56.9 7.800e+03 1.145e-10
 74.25322    -54.6 7.804e+03 1.143e-10
 74.29446    -52.5 7.888e+03 1.163e-10
 74.32790    -50.4 7.992e+03 1.272e-10
 74.34852    -49.5 8.127e+03 1.548e-10
 74.37694    -47.5 8.214e+03 1.676e-10
 74.41818    -45.4 8.297e+03 1.811e-10
 74.45942    -43.4 8.370e+03 1.926e-10
 74.48180    -41.4 8.428e+03 2.011e-10
 74.50242    -40.5 8.433e+03 2.005e-10
 74.54190    -38.6 8.480e+03 2.071e-10
 74.56873    -36.8 8.526e+03 2.128e-10
 74.58935    -36.7 8.504e+03 2.102e-10
 74.61497    -34.9 8.572e+03 2.182e-10
 74.63559    -34.1 8.686e+03 2.373e-10
 74.66563    -32.2 8.784e+03 2.508e-10
 74.70687    -30.4 8.830e+03 2.565e-10
 74.74811    -28.5 8.834e+03 2.559e-10
 74.78894    -25.9 9.006e+03 2.848e-10
 74.80956    -25.4 8.801e+03 2.387e-10
 74.83059    -23.6 8.745e+03 2.205e-10
 74.87183    -22.0 8.734e+03 2.142e-10
 74.90194    -20.5 8.812e+03 2.217e-10
 74.92256    -19.8 9.135e+03 2.660e-10
 74.95431    -18.5 9.382e+03 3.099e-10
 74.99555    -17.5 9.584e+03 3.587e-10
 75.02977    -16.6 9.685e+03 3.901e-10
 75.04871    -16.0 9.676e+03 4.011e-10
 75.05563    -16.0 9.875e+03 4.783e-10
 75.06752    -15.4 9.903e+03 4.876e-10
 75.08814    -15.1 9.858e+03 4.755e-10
 75.10876    -14.4 9.843e+03 4.343e-10
 75.12212    -14.3 9.814e+03 4.116e-10
 75.13243    -14.2 9.915e+03 4.361e-10
 75.16041    -13.7 9.802e+03 3.556e-10
 75.18890    -13.2 9.672e+03 3.014e-10
 75.20952    -13.5 9.832e+03 3.408e-10
 75.24299    -12.7 9.821e+03 3.378e-10
 75.27060    -11.7 9.897e+03 3.718e-10
 75.29122    -11.2 9.790e+03 3.354e-10
 75.32207     -9.9 9.920e+03 3.800e-10
 75.34260    -10.2 9.987e+03 4.214e-10
 75.35621     -9.4 1.013e+04 4.725e-10
 75.37683     -8.9 1.025e+04 5.039e-10
 75.39082     -8.1 1.037e+04 5.429e-10
 75.40113     -8.0 1.024e+04 4.875e-10
 75.40908     -7.5 1.030e+04 5.153e-10
 75.41939     -7.6 1.030e+04 5.056e-10
 75.43869     -6.8 1.036e+04 5.322e-10
 75.45931     -6.0 1.041e+04 5.493e-10
 75.47577     -5.1 1.048e+04 5.717e-10
 75.49649     -5.5 1.030e+04 4.770e-10
 75.51143     -3.9 1.028e+04 4.882e-10
 75.53205     -3.6 1.020e+04 4.446e-10
 75.57291     -2.3 1.022e+04 4.819e-10
 75.60904     -0.9 1.035e+04 5.536e-10
 75.62966     -0.9 1.016e+04 4.857e-10
 75.65539      0.8 1.041e+04 5.995e-10
 75.69663      2.5 1.067e+04 7.289e-10
 75.73164      4.3 1.088e+04 8.322e-10
 75.75226      4.2 1.044e+04 5.944e-10
 75.76283      5.9 1.049e+04 6.077e-10
 75.78345      6.3 1.010e+04 4.471e-10
 75.80995      7.3 1.036e+04 5.339e-10
 75.82922      8.1 1.017e+04 4.867e-10
 75.83953      8.3 9.999e+03 4.256e-10
 75.86150      9.6 9.845e+03 3.607e-10
 75.89600     11.3 9.739e+03 3.081e-10
 75.91662     12.3 9.627e+03 2.855e-10
 75.93367     13.4 9.610e+03 2.730e-10
 75.95419     13.5 9.585e+03 2.710e-10
 75.97228     14.6 9.448e+03 2.557e-10
 75.98048     14.8 9.409e+03 2.439e-10
 75.98301     15.2 9.398e+03 2.463e-10
 75.99543     15.6 9.361e+03 2.435e-10
 76.01605     16.3 9.478e+03 2.643e-10
 76.03667     12.8 1.135e+04 4.078e-10
 76.04960      7.3 1.490e+04 1.231e-09
 76.05991      4.2 1.724e+04 2.405e-09
 76.07271      3.6 1.665e+04 3.525e-09
 76.08280      3.1 1.673e+04 4.069e-09
 76.08795      1.6 1.762e+04 6.377e-09
 76.09259      2.0 1.731e+04 1.002e-08
 76.09775      1.6 1.745e+04 1.033e-08
 76.10359      2.3 1.711e+04 1.272e-08
 76.11390      3.5 1.724e+04 1.498e-08
 76.12124      4.7 1.761e+04 1.554e-08
 76.12640      5.3 1.813e+04 2.194e-08
 76.13452      6.5 1.874e+04 2.002e-08
 76.14483      7.2 1.968e+04 1.454e-08
 76.16034      7.2 2.068e+04 1.057e-08
 76.18101      0.7 1.811e+04 3.369e-09
 76.19308     -6.7 1.322e+04 1.296e-09
 76.20339     -9.3 1.254e+04 1.138e-09
 76.21320    -10.7 1.185e+04 9.680e-10
 76.22351     -8.2 1.195e+04 1.013e-09
 76.24287     -8.1 1.183e+04 9.616e-10
 76.27390     -7.8 1.187e+04 9.431e-10
 76.31524     -8.3 1.200e+04 9.567e-10
 76.33676    -10.2 1.261e+04 1.278e-09
 76.35738    -11.7 1.192e+04 9.503e-10
 76.39772    -12.6 1.213e+04 1.075e-09
 76.43351    -13.8 1.186e+04 9.905e-10
 76.45413    -12.4 1.201e+04 1.045e-09
 76.46993    -14.5 1.099e+04 6.220e-10
 76.49055    -15.8 9.923e+03 3.587e-10
 76.52144    -16.6 9.264e+03 2.443e-10
 76.56268    -17.0 8.830e+03 1.622e-10
 76.60311    -17.2 8.498e+03 1.230e-10
 76.62373    -16.9 8.424e+03 1.213e-10
 76.64516    -16.8 8.360e+03 1.165e-10
 76.67434    -16.7 8.346e+03 1.225e-10
 76.69496    -15.6 8.206e+03 9.377e-11
 76.72764    -15.8 8.392e+03 1.280e-10
 76.75690    -16.2 8.995e+03 2.462e-10
 76.77752    -16.0 8.964e+03 2.606e-10
 76.81012    -16.3 9.528e+03 4.243e-10
 76.85136    -17.5 1.039e+04 7.018e-10
 76.89007    -18.8 1.136e+04 1.190e-09
 76.91069    -19.3 1.087e+04 9.679e-10
 76.91517    -20.0 1.156e+04 1.407e-09
 76.93579    -19.4 1.171e+04 1.404e-09
 76.97508    -20.2 1.209e+04 1.738e-09
 77.01632    -20.9 1.212e+04 1.791e-09
 77.04386    -21.5 1.186e+04 1.618e-09
 77.06448    -20.7 1.119e+04 1.190e-09
 77.09881    -20.7 1.116e+04 1.178e-09
 77.13538    -20.9 1.137e+04 1.264e-09
 77.15600    -21.9 1.213e+04 1.810e-09
 77.17088    -21.8 1.230e+04 2.016e-09
 77.18715    -21.9 1.267e+04 2.457e-09
 77.19746    -21.3 1.256e+04 2.265e-09
 77.21202    -21.3 1.295e+04 2.816e-09
 77.23264    -21.1 1.332e+04 3.281e-09
 77.25326    -20.6 1.362e+04 3.678e-09
 77.26405    -20.4 1.382e+04 3.896e-09
 77.26638    -20.2 1.421e+04 4.445e-09
 77.27622    -20.2 1.399e+04 3.997e-09
 77.29450    -20.2 1.421e+04 4.036e-09
 77.31512    -22.2 1.518e+04 4.355e-09
 77.33063    -26.9 1.727e+04 6.060e-09
 77.34094    -25.9 1.726e+04 7.218e-09
 77.35636    -30.1 1.883e+04 1.118e-08
 77.37601    -33.4 1.989e+04 1.674e-08
 77.38632    -34.3 1.893e+04 1.375e-08
 77.39722    -36.2 1.951e+04 1.776e-08
 77.40753    -35.5 1.883e+04 1.274e-08
 77.41822    -38.0 1.884e+04 1.270e-08
 77.43884    -40.1 1.812e+04 9.354e-09
 77.45946    -42.9 1.635e+04 5.145e-09
 77.47412    -46.5 1.395e+04 2.789e-09
 77.48443    -46.4 1.337e+04 2.492e-09
 77.49643    -48.9 1.245e+04 1.839e-09
 77.50674    -49.3 1.218e+04 1.624e-09
 77.52132    -50.9 1.197e+04 1.503e-09
 77.54070    -52.5 1.198e+04 1.494e-09
 77.55101    -51.4 1.183e+04 1.430e-09
 77.56256    -53.1 1.205e+04 1.523e-09
 77.58318    -54.6 1.237e+04 1.789e-09
 77.60380    -56.2 1.270e+04 2.080e-09
 77.61684    -58.3 1.313e+04 2.340e-09
 77.62033    -58.4 1.329e+04 2.433e-09
 77.62791    -56.8 1.295e+04 2.159e-09
 77.64504    -59.6 1.356e+04 2.469e-09
 77.66566    -63.1 1.418e+04 2.849e-09
 77.68419    -67.2 1.452e+04 3.247e-09
 77.69450    -65.6 1.427e+04 2.825e-09
 77.70691    -69.8 1.436e+04 3.180e-09
 77.72695    -73.7 1.424e+04 3.282e-09
 77.73726    -73.7 1.454e+04 3.702e-09
 77.74815    -77.0 1.403e+04 3.336e-09
 77.76108    -80.3 1.344e+04 2.518e-09
 77.77139    -79.5 1.400e+04 3.106e-09
 77.78939    -83.2 1.341e+04 2.345e-09
 77.81001    -86.8 1.262e+04 1.743e-09
 77.82767    -89.7 1.186e+04 1.392e-09
 77.83798    -89.4 1.260e+04 1.951e-09
 77.84736    -91.3 1.192e+04 1.625e-09
 77.85767    -91.3 1.182e+04 1.608e-09
 77.87187    -92.2 1.144e+04 1.401e-09
 77.89249    -92.8 1.119e+04 1.277e-09
 77.90456    -93.0 1.111e+04 1.233e-09
 77.91487    -92.8 1.134e+04 1.351e-09
 77.93373    -93.4 1.135e+04 1.327e-09
 77.95435    -95.2 1.149e+04 1.336e-09
 77.96778    -98.3 1.282e+04 1.754e-09
 77.97427    -98.0 1.268e+04 1.746e-09
 77.98146    -98.5 1.264e+04 1.730e-09
 77.99559   -101.2 1.404e+04 2.853e-09
 78.01621   -103.6 1.500e+04 4.358e-09
 78.03683   -106.0 1.540e+04 5.342e-09
 78.04805   -108.5 1.544e+04 5.524e-09
 78.05836   -108.1 1.492e+04 4.634e-09
 78.07788   -110.3 1.450e+04 4.128e-09
 78.08819   -109.7 1.413e+04 3.527e-09
 78.09869   -112.0 1.329e+04 2.378e-09
 78.11463   -114.4 1.216e+04 1.400e-09
 78.12494   -114.5 1.184e+04 1.192e-09
 78.13993   -116.8 1.081e+04 7.585e-10
 78.16055   -118.4 1.013e+04 5.487e-10
 78.18117   -119.3 9.790e+03 4.433e-10
 78.19830   -119.6 9.881e+03 4.593e-10
 78.20861   -118.8 9.718e+03 3.938e-10
 78.22241   -119.4 9.704e+03 3.845e-10
 78.24303   -120.1 9.719e+03 3.844e-10
 78.25812   -121.2 9.931e+03 4.286e-10
 78.26843   -121.5 1.021e+04 5.418e-10
 78.28427   -122.4 1.045e+04 6.385e-10
 78.30489   -123.2 1.072e+04 7.505e-10
 78.31871   -123.8 1.101e+04 8.483e-10
 78.32821   -122.8 1.068e+04 7.183e-10
 78.33501   -123.0 1.071e+04 7.584e-10
 78.34613   -123.7 1.082e+04 7.381e-10
 78.36675   -124.3 1.082e+04 6.933e-10
 78.38737   -125.0 1.078e+04 6.157e-10
 78.40160   -125.9 1.069e+04 5.178e-10
 78.41191   -126.3 1.055e+04 4.385e-10
 78.42861   -126.9 1.045e+04 3.830e-10
 78.45797   -127.2 1.040e+04 3.616e-10
 78.47869   -126.6 1.008e+04 2.917e-10
 78.50098   -126.1 9.862e+03 2.420e-10
 78.53912   -125.0 9.788e+03 2.254e-10
 78.55974   -123.4 9.618e+03 2.049e-10
 78.58346   -122.2 9.638e+03 2.024e-10
 78.61186   -120.9 9.817e+03 2.132e-10
 78.63248   -119.7 9.611e+03 1.842e-10
 78.66594   -118.4 9.869e+03 1.993e-10
 78.70718   -116.9 1.002e+04 2.295e-10
 78.74503   -115.4 1.009e+04 2.598e-10
 78.76566   -114.3 1.012e+04 2.451e-10
 78.77994   -112.6 1.019e+04 2.832e-10
 78.80056   -111.3 1.008e+04 2.073e-10
 78.83090   -109.5 1.021e+04 2.512e-10
 78.87214   -107.8 1.030e+04 3.050e-10
 78.89883   -106.0 1.040e+04 3.563e-10
 78.91945   -105.2 1.059e+04 3.766e-10
 78.95462   -103.6 1.068e+04 4.296e-10
 78.99586   -101.9 1.073e+04 4.622e-10
 79.02077   -100.2 1.075e+04 4.801e-10
 79.03629    -99.3 1.103e+04 5.253e-10
 79.05262    -98.7 1.129e+04 5.734e-10
 79.07834    -97.5 1.133e+04 6.074e-10
 79.11958    -96.4 1.134e+04 6.337e-10
 79.16082    -95.3 1.136e+04 6.605e-10
 79.18579    -94.3 1.141e+04 6.911e-10
 79.20641    -94.5 1.183e+04 9.032e-10
 79.24098    -93.8 1.194e+04 9.553e-10
 79.26160    -94.2 1.207e+04 9.720e-10
 79.28454    -93.5 1.195e+04 9.556e-10
 79.31897    -92.4 1.165e+04 8.211e-10
 79.33949    -92.7 1.161e+04 8.115e-10
 79.35652    -92.4 1.128e+04 6.750e-10
 79.37151    -91.9 1.104e+04 5.508e-10
 79.38182    -92.1 1.105e+04 4.760e-10
 79.39567    -91.9 1.094e+04 3.866e-10
 79.40598    -92.4 1.083e+04 3.295e-10
 79.41838    -92.5 1.072e+04 2.872e-10
 79.44941    -92.2 1.065e+04 2.683e-10
 79.47276    -91.1 1.032e+04 2.176e-10
 79.48445    -90.9 9.970e+03 1.873e-10
 79.50243    -90.1 9.533e+03 1.605e-10
 79.53199    -88.3 9.459e+03 1.456e-10
 79.57323    -86.2 9.381e+03 1.346e-10
 79.60593    -83.9 9.311e+03 1.264e-10
 79.62655    -83.7 9.308e+03 1.432e-10
 79.65571    -81.3 9.252e+03 1.391e-10
 79.69695    -78.9 9.223e+03 1.356e-10
 79.72264    -76.6 9.221e+03 1.339e-10
 79.74326    -75.8 9.204e+03 1.471e-10
 79.75972    -73.6 9.229e+03 1.453e-10
 79.78034    -73.7 9.251e+03 1.460e-10
 79.82067    -71.6 9.258e+03 1.456e-10
 79.86191    -69.7 9.306e+03 1.501e-10
 79.89290    -67.9 9.315e+03 1.651e-10
 79.91352    -68.2 9.237e+03 1.589e-10
 79.94285    -66.5 9.207e+03 1.672e-10
 79.96347    -66.0 9.365e+03 2.233e-10
 79.98563    -64.3 9.283e+03 2.246e-10
 80.02607    -62.5 9.151e+03 2.117e-10
 80.04669    -62.7 8.957e+03 1.907e-10
 80.06811    -60.7 8.805e+03 1.719e-10
 80.10935    -58.7 8.654e+03 1.588e-10
 80.15059    -56.6 8.609e+03 1.479e-10
 80.17986    -54.5 8.620e+03 1.408e-10
 80.19233    -54.2 8.546e+03 1.387e-10
 80.20430    -53.5 8.636e+03 1.263e-10
 80.23307    -51.2 8.659e+03 1.230e-10
 80.27431    -49.0 8.694e+03 1.226e-10
 80.31303    -46.9 8.795e+03 1.276e-10
 80.33365    -46.3 8.631e+03 1.129e-10
 80.35679    -44.2 8.718e+03 1.192e-10
 80.39803    -42.0 8.835e+03 1.299e-10
 80.42451    -40.0 8.981e+03 1.437e-10
 80.44513    -39.7 9.103e+03 1.377e-10
 80.46683    -37.7 9.182e+03 1.685e-10
 80.48745    -37.2 9.064e+03 1.394e-10
 80.52175    -35.2 9.202e+03 1.804e-10
 80.56299    -33.3 9.418e+03 2.423e-10
 80.60000    -31.4 9.733e+03 3.422e-10
 80.62062    -31.1 9.745e+03 3.525e-10
 80.64472    -29.3 1.023e+04 5.532e-10
 80.66534    -28.5 9.687e+03 3.774e-10
 80.68671    -27.0 1.015e+04 5.547e-10
 80.72795    -25.6 1.075e+04 8.281e-10
 80.75379    -24.3 1.137e+04 1.159e-09
 80.77441    -24.1 1.138e+04 1.174e-09
 80.81044    -23.0 1.184e+04 1.429e-09
 80.85168    -22.0 1.198e+04 1.493e-09
 80.88555    -20.8 1.186e+04 1.360e-09
 80.90022    -20.6 1.154e+04 1.198e-09
 80.90758    -20.2 1.122e+04 1.006e-09
 80.93416    -18.9 1.095e+04 8.145e-10
 80.97540    -17.6 1.051e+04 5.622e-10
 81.01664    -16.4 1.001e+04 3.747e-10
 81.04076    -14.8 9.600e+03 2.700e-10
 81.06138    -14.4 9.408e+03 2.391e-10
 81.09912    -12.5 9.257e+03 2.088e-10
 81.12638    -10.5 9.207e+03 1.977e-10
 81.14700     -9.7 9.005e+03 1.662e-10
 81.17393     -7.7 8.932e+03 1.611e-10
 81.19455     -7.0 8.917e+03 1.610e-10
 81.22284     -4.7 8.905e+03 1.596e-10
 81.26408     -2.4 8.932e+03 1.595e-10
 81.30532     -0.0 9.025e+03 1.624e-10
 81.32772      2.2 9.174e+03 1.666e-10
 81.34834      3.2 9.171e+03 1.666e-10
 81.38780      5.8 9.383e+03 1.840e-10
 81.42904      8.0 9.657e+03 2.167e-10
 81.46089     10.1 9.959e+03 2.764e-10
 81.48151     11.1 1.000e+04 2.904e-10
 81.50111     12.7 1.029e+04 3.706e-10
 81.52164     12.8 1.029e+04 3.804e-10
 81.53760     14.2 1.047e+04 4.687e-10
 81.54791     14.5 1.051e+04 4.995e-10
 81.56288     15.6 1.071e+04 5.644e-10
 81.58350     16.9 1.086e+04 6.121e-10
 81.59753     18.1 1.094e+04 6.308e-10
 81.60784     17.9 1.069e+04 5.687e-10
 81.62474     19.2 1.078e+04 6.100e-10
 81.64536     20.3 1.075e+04 5.765e-10
 81.66598     21.5 1.073e+04 5.325e-10
 81.68108     22.7 1.071e+04 4.878e-10
 81.69139     22.7 1.083e+04 5.468e-10
 81.70722     23.8 1.082e+04 5.092e-10
 81.71795     25.1 1.082e+04 4.886e-10
 81.72826     24.4 1.076e+04 4.709e-10
 81.74766     25.4 1.088e+04 4.748e-10
 81.75797     25.3 1.109e+04 5.765e-10
 81.76908     26.2 1.120e+04 6.147e-10
 81.78970     27.1 1.134e+04 6.887e-10
 81.81032     28.1 1.159e+04 8.186e-10
 81.82456     29.0 1.196e+04 9.945e-10
 81.83198     29.1 1.214e+04 1.067e-09
 81.83836     27.1 1.282e+04 1.554e-09
 81.85156     28.3 1.297e+04 1.711e-09
 81.87218     29.3 1.295e+04 1.781e-09
 81.89115     30.3 1.294e+04 1.808e-09
 81.90146     29.9 1.305e+04 1.749e-09
 81.91342     29.7 1.337e+04 1.812e-09
 81.93404     28.8 1.374e+04 1.983e-09
 81.94842     27.5 1.426e+04 2.267e-09
 81.95352     24.4 1.413e+04 2.224e-09
 81.95972     21.1 1.656e+04 2.484e-09
 81.96795     11.7 2.297e+04 5.115e-09
 81.97310      3.6 2.604e+04 1.280e-08
 81.98034     -3.1 2.496e+04 3.708e-08
 81.99065     -6.4 2.345e+04 7.549e-08
 82.00096     -7.7 2.273e+04 1.080e-07
 82.00639     -8.2 2.257e+04 1.237e-07
 82.00886     -9.1 2.448e+04 1.302e-07
 82.01373     -9.0 2.360e+04 9.219e-08
 82.02158    -10.9 2.592e+04 6.235e-08
 82.03189    -14.9 2.869e+04 3.568e-08
 82.03969    -21.6 3.437e+04 1.576e-08
 82.04484    -27.3 3.699e+04 8.774e-09
 82.05251    -36.1 3.612e+04 5.728e-09
 82.06282    -45.7 3.309e+04 5.235e-09
 82.06878    -54.5 2.978e+04 5.334e-09
 82.07914    -50.4 2.440e+04 2.894e-09
 82.09900    -59.6 2.148e+04 3.742e-09
 82.11153    -63.7 2.292e+04 8.017e-09
 82.12184    -62.4 2.209e+04 6.808e-09
 82.14024    -64.9 2.239e+04 1.272e-08
 82.16086    -66.7 2.131e+04 1.814e-08
 82.17811    -67.9 2.073e+04 1.954e-08
 82.18593    -66.5 2.048e+04 1.880e-08
 82.18930    -64.3 2.013e+04 1.119e-08
 82.20210    -65.4 1.957e+04 1.401e-08
 82.22272    -65.9 1.921e+04 1.460e-08
 82.24334    -65.8 1.845e+04 1.345e-08
 82.25501    -65.5 1.761e+04 1.031e-08
 82.26532    -64.6 1.770e+04 1.078e-08
 82.28458    -64.1 1.685e+04 7.239e-09
 82.29940    -63.8 1.592e+04 4.515e-09
 82.30971    -63.3 1.734e+04 9.296e-09
 82.32159    -63.3 1.658e+04 6.403e-09
 82.33190    -62.5 1.652e+04 6.279e-09
 82.34644    -62.8 1.554e+04 4.159e-09
 82.36706    -63.0 1.445e+04 2.889e-09
 82.38768    -62.9 1.354e+04 2.213e-09
 82.39849    -62.4 1.296e+04 1.853e-09
 82.40880    -61.8 1.262e+04 1.533e-09
 82.41982    -60.9 1.225e+04 1.349e-09
 82.43013    -60.6 1.240e+04 1.374e-09
 82.44954    -59.8 1.188e+04 1.071e-09
 82.46508    -58.7 1.153e+04 8.557e-10
 82.47539    -58.4 1.130e+04 7.298e-10
 82.49078    -57.2 1.110e+04 5.968e-10
 82.51140    -56.2 1.092e+04 4.729e-10
 82.52992    -55.3 1.066e+04 3.590e-10
 82.55064    -56.7 1.004e+04 2.513e-10
 82.58377    -54.9 9.723e+03 2.245e-10
 82.60875    -52.5 9.657e+03 2.158e-10
 82.61897    -52.2 9.646e+03 2.210e-10
 82.63512    -51.7 9.649e+03 2.205e-10
 82.65034    -50.8 9.694e+03 2.227e-10
 82.66065    -50.5 9.662e+03 2.214e-10
 82.67515    -50.2 9.650e+03 2.212e-10
 82.68546    -49.8 9.660e+03 2.338e-10
 82.69699    -49.2 9.731e+03 2.444e-10
 82.71761    -48.8 9.880e+03 2.579e-10
 82.73823    -48.4 1.007e+04 2.738e-10
 82.75204    -48.2 1.035e+04 2.882e-10
 82.76235    -48.7 1.118e+04 3.596e-10
 82.77075    -48.6 1.206e+04 4.564e-10
 82.78106    -46.1 9.891e+03 2.979e-10
 82.80009    -45.8 1.004e+04 3.130e-10
 82.81863    -45.5 1.045e+04 3.552e-10
 82.82894    -46.1 1.135e+04 5.068e-10
 82.84133    -45.5 1.185e+04 6.382e-10
 82.86195    -44.7 1.213e+04 7.754e-10
 82.88086    -43.7 1.224e+04 8.896e-10
 82.89117    -42.2 1.088e+04 4.619e-10
 82.89552    -41.3 1.111e+04 5.116e-10
 82.90583    -41.6 1.137e+04 6.139e-10
 82.92381    -40.5 1.136e+04 6.248e-10
 82.94443    -39.3 1.124e+04 6.187e-10
 82.96211    -38.0 1.114e+04 6.157e-10
 82.97242    -38.1 1.116e+04 6.585e-10
 82.98567    -36.8 1.103e+04 6.263e-10
 83.00127    -35.4 1.091e+04 5.969e-10
 83.01168    -34.9 1.053e+04 3.908e-10
 83.02889    -32.4 1.044e+04 3.975e-10
 83.04951    -32.5 1.049e+04 4.090e-10
 83.07865    -29.9 1.041e+04 4.175e-10
 83.11989    -27.1 1.036e+04 4.310e-10
 83.16113    -24.6 1.041e+04 4.520e-10
 83.18269    -22.0 1.047e+04 4.798e-10
 83.20331    -22.3 1.050e+04 4.755e-10
 83.23198    -19.9 1.056e+04 4.853e-10
 83.25261    -18.6 1.051e+04 4.800e-10
 83.28486    -16.4 1.061e+04 5.063e-10
 83.31586    -14.3 1.065e+04 5.020e-10
 83.33648    -14.5 1.066e+04 4.552e-10
 83.36734    -12.3 1.061e+04 3.931e-10
 83.40858    -10.1 1.052e+04 3.266e-10
 83.44903     -8.5 1.045e+04 2.700e-10
 83.46965     -9.0 1.034e+04 2.044e-10
 83.47281     -7.4 1.036e+04 1.976e-10
 83.49343     -5.8 1.044e+04 2.618e-10
 83.53230     -4.1 1.049e+04 2.365e-10
 83.57354     -2.6 1.054e+04 2.351e-10
 83.60282     -1.1 1.053e+04 2.367e-10
 83.62344     -1.4 1.030e+04 1.653e-10
 83.65602      0.3 1.026e+04 1.622e-10
 83.69302      2.2 1.018e+04 1.400e-10
 83.71364      3.2 1.026e+04 1.080e-10
 83.73600      4.8 1.015e+04 1.020e-10
 83.75662      4.9 9.865e+03 9.614e-11
 83.77974      6.9 9.846e+03 9.895e-11
 83.82098      8.8 9.867e+03 9.985e-11
 83.86222     10.8 9.901e+03 1.026e-10
 83.88979     12.9 9.937e+03 1.090e-10
 83.91041     13.4 9.919e+03 1.102e-10
 83.93385     15.5 9.956e+03 1.168e-10
 83.95447     16.1 9.984e+03 1.180e-10
 83.98594     18.2 1.000e+04 1.188e-10
 84.02296     20.3 1.005e+04 1.161e-10
 84.04358     20.7 1.003e+04 1.171e-10
 84.06842     22.6 1.008e+04 1.140e-10
 84.10966     24.3 1.013e+04 1.136e-10
 84.15090     25.8 1.027e+04 1.210e-10
 84.17468     27.3 1.031e+04 1.410e-10
 84.17991     27.9 1.038e+04 1.577e-10
 84.19737     28.1 1.036e+04 1.767e-10
 84.23338     29.9 1.046e+04 2.059e-10
 84.27462     31.6 1.050e+04 2.166e-10
 84.30993     33.4 1.046e+04 2.015e-10
 84.33055     33.7 1.044e+04 1.973e-10
 84.35710     35.5 1.037e+04 1.348e-10
 84.39489     37.1 1.038e+04 8.679e-11
 84.41551     37.4 1.051e+04 1.070e-10
 84.43958     39.0 1.052e+04 7.043e-11
 84.46372     40.7 1.051e+04 5.444e-11
 84.48434     40.9 1.045e+04 5.391e-11
 84.52207     42.9 1.044e+04 5.056e-11
 84.56331     45.0 1.056e+04 5.101e-11
 84.59689     46.6 1.072e+04 6.453e-11
 84.61751     46.9 1.067e+04 7.029e-11
 84.63572     48.8 1.061e+04 1.181e-10
 84.65634     49.5 1.076e+04 1.373e-10
 84.68703     51.9 1.092e+04 2.093e-10
 84.72827     54.3 1.125e+04 2.898e-10
 84.75068     56.4 1.152e+04 3.456e-10
 84.77130     56.7 1.159e+04 3.744e-10
 84.81075     58.3 1.166e+04 3.637e-10
 84.85199     60.1 1.145e+04 3.103e-10
 84.87655     61.9 1.126e+04 2.246e-10
 84.88780     62.4 1.146e+04 2.149e-10
 84.90448     62.4 1.135e+04 2.358e-10
 84.93447     64.0 1.122e+04 1.904e-10
 84.97571     65.5 1.110e+04 1.735e-10
 85.01695     67.2 1.103e+04 1.788e-10
 85.05819     68.5 1.108e+04 1.919e-10
 85.09676     70.0 1.127e+04 2.103e-10
 85.11738     69.7 1.183e+04 2.973e-10
 85.13026     70.1 1.197e+04 2.995e-10
 85.15079     70.0 1.207e+04 3.063e-10
 85.17063     68.6 1.253e+04 4.184e-10
 85.18094     67.9 1.256e+04 4.489e-10
 85.19203     66.3 1.311e+04 7.281e-10
 85.21265     64.8 1.340e+04 1.277e-09
 85.22729     65.0 1.346e+04 2.094e-09
 85.23760     64.8 1.340e+04 2.130e-09
 85.24752     65.0 1.349e+04 2.222e-09
 85.25783     64.9 1.340e+04 1.754e-09
 85.27451     64.6 1.338e+04 1.373e-09
 85.29513     62.9 1.307e+04 1.091e-09
 85.31411     61.1 1.261e+04 8.458e-10
 85.32442     61.1 1.240e+04 7.926e-10
 85.33637     60.0 1.221e+04 6.808e-10
 85.34771     59.3 1.208e+04 6.437e-10
 85.35802     58.7 1.244e+04 8.478e-10
 85.37761     58.6 1.225e+04 8.855e-10
 85.39101     58.9 1.211e+04 8.954e-10
 85.40132     59.3 1.193e+04 8.204e-10
 85.41885     59.8 1.196e+04 7.745e-10
 85.43947     60.6 1.169e+04 7.472e-10
 85.45759     61.3 1.170e+04 6.439e-10
 85.46562     61.3 1.161e+04 6.114e-10
 85.46812     61.4 1.186e+04 6.886e-10
 85.48071     61.9 1.167e+04 6.250e-10
 85.50133     62.6 1.143e+04 5.724e-10
 85.52195     63.4 1.129e+04 5.342e-10
 85.53449     64.3 1.124e+04 4.824e-10
 85.54480     64.5 1.119e+04 5.469e-10
 85.56319     65.2 1.115e+04 5.495e-10
 85.57822     66.6 1.116e+04 5.373e-10
 85.58853     66.9 1.129e+04 6.209e-10
 85.60107     67.9 1.140e+04 6.100e-10
 85.61138     68.2 1.155e+04 7.274e-10
 85.62505     69.0 1.166e+04 7.052e-10
 85.64567     69.4 1.181e+04 7.311e-10
 85.66629     70.0 1.183e+04 7.776e-10
 85.67797     70.6 1.184e+04 8.569e-10
 85.68828     70.6 1.184e+04 8.493e-10
 85.69864     71.4 1.185e+04 9.267e-10
 85.70895     71.9 1.225e+04 1.156e-09
 85.72815     72.8 1.226e+04 1.266e-09
 85.74456     73.8 1.228e+04 1.271e-09
 85.75487     73.7 1.213e+04 1.178e-09
 85.76939     74.1 1.217e+04 1.181e-09
 85.79001     75.5 1.193e+04 1.051e-09
 85.80874     75.5 1.201e+04 1.024e-09
 85.81905     75.9 1.262e+04 1.372e-09
 85.84166     77.5 1.273e+04 1.327e-09
 85.87792     78.5 1.234e+04 1.031e-09
 85.89854     78.3 1.223e+04 1.007e-09
 85.92424     79.5 1.199e+04 9.178e-10
 85.96548     80.6 1.180e+04 8.568e-10
 86.00672     81.6 1.172e+04 8.144e-10
 86.03162     82.3 1.174e+04 8.644e-10
 86.04183     82.3 1.175e+04 8.558e-10
 86.04957     82.9 1.176e+04 8.534e-10
 86.05988     82.9 1.210e+04 1.098e-09
 86.07869     83.5 1.211e+04 1.096e-09
 86.09811     84.1 1.213e+04 1.093e-09
 86.10842     84.0 1.206e+04 1.044e-09
 86.11993     84.7 1.202e+04 1.025e-09
 86.14055     85.2 1.202e+04 1.009e-09
 86.15968     85.7 1.197e+04 9.742e-10
 86.16999     86.0 1.216e+04 1.092e-09
 86.17500     86.4 1.207e+04 1.019e-09
 86.18531     86.4 1.189e+04 9.328e-10
 86.20241     86.9 1.177e+04 8.709e-10
 86.22303     87.4 1.165e+04 8.157e-10
 86.24159     88.1 1.153e+04 7.563e-10
 86.25190     88.1 1.140e+04 6.880e-10
 86.26427     88.9 1.130e+04 6.305e-10
 86.28009     89.8 1.122e+04 5.509e-10
 86.29040     89.9 1.129e+04 6.271e-10
 86.30551     90.7 1.120e+04 5.680e-10
 86.31849     91.8 1.110e+04 4.691e-10
 86.32880     91.8 1.102e+04 4.389e-10
 86.34675     92.1 1.101e+04 4.159e-10
 86.37778     93.7 1.092e+04 3.766e-10
 86.41912     95.3 1.079e+04 3.434e-10
 86.45185     96.9 1.075e+04 3.386e-10
 86.47247     96.9 1.077e+04 3.612e-10
 86.50050     98.2 1.080e+04 3.840e-10
 86.52102     99.4 1.092e+04 4.570e-10
 86.52856    100.4 1.100e+04 5.140e-10
 86.53887    100.5 1.104e+04 5.261e-10
 86.55296    101.3 1.121e+04 6.029e-10
 86.57358    101.7 1.144e+04 7.185e-10
 86.59420    101.7 1.176e+04 9.025e-10
 86.60545    101.3 1.224e+04 1.242e-09
 86.61576    101.3 1.224e+04 1.181e-09
 86.63103    100.5 1.286e+04 1.799e-09
 86.64134    101.3 1.288e+04 1.909e-09
 86.65606    100.7 1.353e+04 2.848e-09
 86.67204    100.4 1.417e+04 4.062e-09
 86.68235     99.9 1.419e+04 4.029e-09
 86.69730     99.4 1.470e+04 5.059e-09
 86.71792     98.7 1.476e+04 5.039e-09
 86.73854     98.1 1.452e+04 4.433e-09
 86.75144     97.0 1.394e+04 3.187e-09
 86.76175     97.1 1.419e+04 3.659e-09
 86.77978     96.4 1.336e+04 2.313e-09
 86.80040     95.1 1.259e+04 1.363e-09
 86.81552     93.4 1.178e+04 6.580e-10
 86.82583     92.7 1.162e+04 5.228e-10
 86.84164     92.0 1.147e+04 4.723e-10
 86.87189     91.0 1.099e+04 3.377e-10
 86.89261     89.8 1.042e+04 2.427e-10
 86.91400     90.3 1.043e+04 2.487e-10
 86.95525     91.6 1.046e+04 2.757e-10
 86.98216     92.6 1.067e+04 3.549e-10
 87.00278     91.3 1.081e+04 4.299e-10
 87.02579     92.4 1.107e+04 5.689e-10
 87.04641     93.1 1.094e+04 4.910e-10
 87.07897     94.8 1.113e+04 6.273e-10
 87.12021     96.4 1.120e+04 7.134e-10
 87.15896     98.0 1.117e+04 7.220e-10
 87.17948     98.4 1.113e+04 7.100e-10
 87.19218     99.6 1.116e+04 7.263e-10
 87.21248     99.9 1.118e+04 7.322e-10
 87.22289    100.0 1.104e+04 6.944e-10
 87.24393    101.7 1.110e+04 7.435e-10
 87.28517    103.2 1.125e+04 8.418e-10
 87.31275    104.7 1.144e+04 9.663e-10
 87.32296    104.6 1.143e+04 9.654e-10
 87.33290    105.0 1.153e+04 1.034e-09
 87.34321    105.0 1.139e+04 9.584e-10
 87.35714    106.2 1.147e+04 1.023e-09
 87.37776    106.5 1.151e+04 1.041e-09
 87.40879    107.9 1.167e+04 1.168e-09
 87.44320    109.3 1.163e+04 1.142e-09
 87.45961    109.9 1.103e+04 7.705e-10
 87.46654    110.2 1.127e+04 9.384e-10
 87.49137    111.5 1.114e+04 8.595e-10
 87.53261    113.0 1.087e+04 7.011e-10
 87.57385    114.4 1.047e+04 4.940e-10
 87.59972    115.5 1.013e+04 3.565e-10
 87.62034    115.7 1.022e+04 4.038e-10
 87.65633    116.9 1.003e+04 3.528e-10
 87.68403    118.5 1.003e+04 3.613e-10
 87.70465    119.6 9.711e+03 2.562e-10
 87.73289    121.4 9.786e+03 2.841e-10
 87.75351    121.4 9.794e+03 2.926e-10
 87.78005    123.2 9.965e+03 3.490e-10
 87.82129    125.0 1.015e+04 4.213e-10
 87.86253    126.8 1.029e+04 4.632e-10
 87.88668    128.6 1.034e+04 4.615e-10
 87.90730    128.6 1.011e+04 3.723e-10
 87.92485    130.3 1.003e+04 3.269e-10
 87.94547    131.8 1.009e+04 3.690e-10
 87.98625    133.5 1.004e+04 3.265e-10
 88.01985    135.2 9.997e+03 2.951e-10
 88.04047    135.3 9.708e+03 2.158e-10
 88.06873    137.0 9.745e+03 2.236e-10
 88.10997    138.8 9.875e+03 2.486e-10
 88.14506    140.7 1.032e+04 3.440e-10
 88.16568    142.6 1.009e+04 2.909e-10
 88.17365    144.5 1.062e+04 3.995e-10
 88.19427    144.5 1.022e+04 3.005e-10
 88.23370    146.2 1.080e+04 4.271e-10
 88.26453    146.7 1.112e+04 5.182e-10
 88.27559    146.9 1.123e+04 5.648e-10
 88.28590    147.9 1.107e+04 5.001e-10
 88.30567    148.5 1.125e+04 5.756e-10
 88.31693    149.1 1.140e+04 6.676e-10
 88.32734    148.9 1.085e+04 4.228e-10
 88.34701    149.5 1.094e+04 4.990e-10
 88.36753    149.7 1.098e+04 5.552e-10
 88.38352    149.9 1.095e+04 5.902e-10
 88.39138    150.0 1.069e+04 4.960e-10
 88.39601    150.9 1.079e+04 5.085e-10
 88.40877    151.2 1.080e+04 5.664e-10
 88.42939    151.6 1.078e+04 6.108e-10
 88.45001    152.2 1.074e+04 6.352e-10
 88.47063    153.3 1.072e+04 6.390e-10
 88.49125    154.1 1.074e+04 6.580e-10
 88.50611    154.8 1.074e+04 6.833e-10
 88.51642    155.3 1.090e+04 7.467e-10
 88.52700    156.1 1.093e+04 7.886e-10
 88.53731    156.2 1.102e+04 7.950e-10
 88.55311    157.0 1.110e+04 8.590e-10
 88.57373    157.7 1.116e+04 9.202e-10
 88.59359    158.6 1.120e+04 9.696e-10
 88.60390    158.6 1.133e+04 9.814e-10
 88.61497    159.4 1.139e+04 1.020e-09
 88.62653    160.2 1.141e+04 1.039e-09
 88.63684    160.4 1.190e+04 1.328e-09
 88.65621    161.0 1.199e+04 1.380e-09
 88.67048    161.8 1.207e+04 1.422e-09
 88.68079    161.8 1.207e+04 1.412e-09
 88.69745    162.7 1.217e+04 1.460e-09
 88.71807    163.4 1.235e+04 1.543e-09
 88.73663    163.4 1.284e+04 1.761e-09
 88.74532    162.0 1.420e+04 2.868e-09
 88.74738    162.7 1.410e+04 2.690e-09
 88.75931    161.7 1.548e+04 3.814e-09
 88.77993    160.3 1.688e+04 6.125e-09
 88.80055    159.5 1.815e+04 9.823e-09
 88.81397    159.7 1.870e+04 1.402e-08
 88.82428    160.8 1.952e+04 1.449e-08
 88.84180    161.2 1.989e+04 1.784e-08
 88.85705    161.4 1.996e+04 1.730e-08
 88.86736    158.2 1.995e+04 1.517e-08
 88.88055    157.3 1.976e+04 1.071e-08
 88.89086    159.6 2.056e+04 1.413e-08
 88.90366    158.3 2.015e+04 9.412e-09
 88.92428    155.6 1.886e+04 6.307e-09
 88.94490    152.6 1.655e+04 4.780e-09
 88.95745    151.1 1.479e+04 4.089e-09
 88.96776    154.8 1.629e+04 4.448e-09
 88.97746    155.4 1.623e+04 4.314e-09
 88.98777    151.9 1.452e+04 2.926e-09
 89.00155    153.2 1.541e+04 3.099e-09
 89.01181    153.4 1.571e+04 3.154e-09
 89.02212    153.3 1.638e+04 3.322e-09
 89.02909    151.4 1.856e+04 4.006e-09
 89.03423    153.4 1.973e+04 3.984e-09
 89.04273    134.0 2.900e+04 8.657e-09
 89.05305    109.1 3.897e+04 4.482e-08
 89.06239     90.9 3.780e+04 7.507e-08
 89.06754     87.0 3.799e+04 7.636e-08
 89.07367     73.7 3.729e+04 4.881e-08
 89.08398     65.0 4.483e+04 1.466e-08
 89.09262     50.9 3.747e+04 7.684e-09
 89.09778     52.4 3.092e+04 7.019e-09
 89.10088     43.7 2.123e+04 3.575e-09
 89.11124     36.5 1.814e+04 3.413e-09
 89.13048     36.6 1.549e+04 2.931e-09
 89.15110     39.3 1.490e+04 2.974e-09
 89.16752     41.9 1.485e+04 3.235e-09
 89.17783     41.7 1.536e+04 3.979e-09
 89.19234     44.0 1.514e+04 3.967e-09
 89.20798     45.9 1.487e+04 3.822e-09
 89.21829     46.8 1.433e+04 3.237e-09
 89.23358     48.4 1.414e+04 3.206e-09
 89.24441     50.0 1.390e+04 3.081e-09
 89.25472     49.9 1.418e+04 3.280e-09
 89.27482     51.1 1.387e+04 2.879e-09
 89.29544     52.0 1.345e+04 2.427e-09
 89.31100     52.9 1.290e+04 2.009e-09
 89.32131     52.7 1.296e+04 2.080e-09
 89.32840     53.6 1.250e+04 1.781e-09
 89.33871     54.5 1.247e+04 1.692e-09
 89.35730     55.4 1.214e+04 1.463e-09
 89.37759     56.2 1.197e+04 1.309e-09
 89.38790     56.3 1.209e+04 1.410e-09
 89.39854     57.0 1.189e+04 1.309e-09
 89.41916     57.8 1.175e+04 1.257e-09
 89.43850     58.7 1.166e+04 1.284e-09
 89.44881     59.3 1.155e+04 1.124e-09
 89.45448     60.3 1.150e+04 1.177e-09
 89.46479     60.6 1.173e+04 1.385e-09
 89.48102     61.6 1.188e+04 1.374e-09
 89.50164     62.4 1.191e+04 1.439e-09
 89.52107     63.0 1.202e+04 1.426e-09
 89.53138     63.3 1.207e+04 1.488e-09
 89.54288     63.8 1.218e+04 1.481e-09
 89.55892     63.8 1.234e+04 1.514e-09
 89.56923     64.1 1.234e+04 1.454e-09
 89.58412     63.9 1.248e+04 1.576e-09
 89.59797     63.6 1.273e+04 1.806e-09
 89.60828     63.7 1.271e+04 1.729e-09
 89.62536     63.6 1.292e+04 2.012e-09
 89.64598     63.9 1.315e+04 2.319e-09
 89.66455     64.6 1.324e+04 2.531e-09
 89.67486     64.4 1.299e+04 2.188e-09
 89.67933     65.2 1.302e+04 2.314e-09
 89.68964     65.6 1.299e+04 2.293e-09
 89.70784     66.3 1.296e+04 2.113e-09
 89.72846     66.9 1.274e+04 1.889e-09
 89.74145     67.3 1.242e+04 1.628e-09
 89.75176     67.2 1.228e+04 1.593e-09
 89.76970     67.6 1.199e+04 1.373e-09
 89.78944     68.1 1.170e+04 1.167e-09
 89.79975     68.0 1.130e+04 9.287e-10
 89.80804     68.5 1.090e+04 8.570e-10
 89.81835     68.5 1.098e+04 9.318e-10
 89.83156     69.0 1.090e+04 8.227e-10
 89.85218     69.5 1.077e+04 8.051e-10
 89.87280     70.4 1.101e+04 8.419e-10
 89.88493     70.8 1.099e+04 8.378e-10
 89.89534     71.1 1.069e+04 7.242e-10
 89.92455     73.3 1.044e+04 6.785e-10
 89.96579     75.5 1.021e+04 5.997e-10
 90.00703     77.4 1.006e+04 5.161e-10
 90.02861     79.2 9.934e+03 4.748e-10
 90.03142     79.9 1.008e+04 5.621e-10
 90.05108     80.4 9.738e+03 4.642e-10
 90.08951     82.6 9.757e+03 4.661e-10
 90.13075     84.8 9.713e+03 4.482e-10
 90.16178     87.2 9.550e+03 3.827e-10
 90.18240     87.9 9.727e+03 4.394e-10
 90.21323     90.1 9.453e+03 3.313e-10
 90.25067     92.2 9.196e+03 2.421e-10
 90.27129     93.0 8.876e+03 1.959e-10
 90.29495     94.8 8.689e+03 1.399e-10
 90.31557     95.3 8.804e+03 1.705e-10
 90.33695     97.3 8.715e+03 1.418e-10
 90.37819     99.7 8.724e+03 1.351e-10
 90.41943    102.1 8.800e+03 1.370e-10
 90.44875    104.5 8.957e+03 1.466e-10
 90.46937    105.2 9.168e+03 1.809e-10
 90.49150    107.7 9.333e+03 1.931e-10
 90.51212    108.4 9.129e+03 1.801e-10
 90.54315    110.8 9.344e+03 2.061e-10
 90.58192    113.3 9.636e+03 2.321e-10
 90.60254    114.0 9.802e+03 2.639e-10
 90.62563    116.4 1.007e+04 2.804e-10
 90.66688    118.8 1.022e+04 2.761e-10
 90.70812    121.3 1.021e+04 2.559e-10
 90.73233    123.9 1.016e+04 2.147e-10
 90.73931    124.6 1.014e+04 2.075e-10
 90.75633    125.3 1.035e+04 2.670e-10
 90.79060    128.0 1.028e+04 2.191e-10
 90.83184    130.6 1.014e+04 1.712e-10
 90.86888    133.1 9.984e+03 1.334e-10
 90.88950    134.0 1.023e+04 1.757e-10
 90.91432    136.4 1.003e+04 1.383e-10
 90.95254    138.8 9.848e+03 1.210e-10
 90.97316    139.2 9.949e+03 1.454e-10
 90.99680    141.7 9.842e+03 1.437e-10
 91.02268    144.3 9.764e+03 1.456e-10
 91.04330    145.2 9.869e+03 1.520e-10
 91.07928    147.8 9.802e+03 1.473e-10
 91.12052    150.5 9.726e+03 1.426e-10
 91.15585    153.2 9.656e+03 1.364e-10
 91.17647    153.9 9.687e+03 1.327e-10
 91.19337    156.6 9.640e+03 1.259e-10
 91.21399    157.1 9.749e+03 1.625e-10
 91.24424    159.8 9.690e+03 1.500e-10
 91.28548    162.5 9.643e+03 1.386e-10
 91.30964    165.1 9.615e+03 1.308e-10
 91.33026    165.6 9.652e+03 1.260e-10
 91.36796    168.2 9.617e+03 1.259e-10
 91.40920    170.7 9.617e+03 1.300e-10
 91.43420    173.3 9.611e+03 1.419e-10
 91.44719    173.7 9.616e+03 1.429e-10
 91.46344    174.4 9.640e+03 1.382e-10
 91.49168    176.9 9.656e+03 1.536e-10
 91.53292    179.4 9.706e+03 1.778e-10
 91.57416    181.9 9.804e+03 2.093e-10
 91.59661    184.3 9.893e+03 2.398e-10
 91.61723    185.2 9.899e+03 2.375e-10
 91.65441    187.4 9.916e+03 2.509e-10
 91.67503    188.0 9.928e+03 2.583e-10
 91.69788    190.1 9.922e+03 2.592e-10
 91.72978    192.1 9.881e+03 2.534e-10
 91.75040    193.0 9.852e+03 2.451e-10
 91.78036    195.0 9.736e+03 2.297e-10
 91.82160    196.9 9.586e+03 2.108e-10
 91.86284    198.8 9.457e+03 1.947e-10
 91.89524    201.6 9.336e+03 1.849e-10
 91.91586    202.1 9.421e+03 1.995e-10
 91.94533    203.7 9.342e+03 1.914e-10
 91.98657    205.2 9.260e+03 1.833e-10
 92.01675    206.6 9.165e+03 1.735e-10
 92.03737    207.8 9.114e+03 1.682e-10
 92.06905    209.1 9.011e+03 1.582e-10
 92.11029    210.5 8.993e+03 1.576e-10
 92.13607    211.9 9.018e+03 1.618e-10
 92.15508    212.2 9.170e+03 1.866e-10
 92.17054    213.4 9.040e+03 1.705e-10
 92.19277    214.7 9.108e+03 1.819e-10
 92.23401    215.7 9.351e+03 2.184e-10
 92.27525    216.3 9.761e+03 2.826e-10
 92.30371    216.4 1.017e+04 3.569e-10
 92.32433    217.9 1.011e+04 3.446e-10
 92.34732    217.6 1.033e+04 4.061e-10
 92.36639    217.4 1.054e+04 4.884e-10
 92.37670    217.4 1.047e+04 4.381e-10
 92.38041    217.2 1.067e+04 5.328e-10
 92.39072    218.1 1.071e+04 5.971e-10
 92.40908    217.7 1.097e+04 7.267e-10
 92.42970    217.2 1.126e+04 8.511e-10
 92.44700    216.4 1.154e+04 9.706e-10
 92.45731    217.6 1.168e+04 1.097e-09
 92.47094    216.7 1.194e+04 1.217e-09
 92.48680    215.4 1.213e+04 1.331e-09
 92.49711    215.6 1.202e+04 1.226e-09
 92.51218    213.7 1.229e+04 1.390e-09
 92.52389    211.1 1.268e+04 1.648e-09
 92.53420    212.7 1.294e+04 1.815e-09
 92.55342    209.7 1.332e+04 2.152e-09
 92.57405    206.4 1.339e+04 2.281e-09
 92.59048    203.1 1.329e+04 2.233e-09
 92.60079    204.5 1.365e+04 2.468e-09
 92.60722    201.3 1.319e+04 2.178e-09
 92.61753    200.9 1.328e+04 2.273e-09
 92.63591    198.1 1.243e+04 1.586e-09
 92.65653    194.9 1.134e+04 9.341e-10
 92.66738    190.9 1.012e+04 5.199e-10
 92.67769    191.9 1.035e+04 5.931e-10
 92.69777    187.3 9.350e+03 4.028e-10
 92.71732    183.5 9.067e+03 3.791e-10
 92.72763    183.0 8.971e+03 3.672e-10
 92.73396    181.2 8.979e+03 3.721e-10
 92.74427    181.8 9.080e+03 3.963e-10
 92.75963    178.3 9.976e+03 4.755e-10
 92.78025    165.1 1.529e+04 1.102e-09
 92.79566    155.1 1.964e+04 2.513e-09
 92.80561    146.4 2.149e+04 7.328e-09
 92.81076    146.4 2.181e+04 7.672e-09
 92.81623    141.0 2.118e+04 1.854e-08
 92.82654    138.9 2.094e+04 2.524e-08
 92.83685    136.4 2.130e+04 2.316e-08
 92.84280    134.4 2.148e+04 1.871e-08
 92.84484    134.8 2.128e+04 1.758e-08
 92.84921    134.0 2.191e+04 1.932e-08
 92.86268    127.9 2.261e+04 8.263e-09
 92.87745    114.6 1.982e+04 1.697e-09
 92.88776    112.6 1.972e+04 1.646e-09
 92.90397    100.9 1.190e+04 6.139e-10
 92.92459     99.3 1.164e+04 4.007e-10
 92.94403     97.5 1.170e+04 2.830e-10
 92.95434     95.8 1.145e+04 2.831e-10
 92.97624     94.5 1.114e+04 2.310e-10
 93.01081     93.6 1.069e+04 2.173e-10
 93.03134     92.6 1.078e+04 2.408e-10
 93.04831     93.1 1.069e+04 2.497e-10
 93.06826     93.3 1.072e+04 2.563e-10
 93.07857     92.5 1.079e+04 2.646e-10
 93.08751     92.9 1.087e+04 2.555e-10
 93.09782     92.4 1.108e+04 3.433e-10
 93.11017     92.1 1.139e+04 3.774e-10
 93.13079     91.4 1.171e+04 4.303e-10
 93.15141     90.8 1.196e+04 5.099e-10
 93.16441     90.4 1.202e+04 5.754e-10
 93.17472     89.3 1.365e+04 1.341e-09
 93.18867     89.3 1.394e+04 1.159e-09
 93.19898     88.3 1.312e+04 7.616e-10
 93.21327     87.1 1.310e+04 6.734e-10
 93.23100     85.8 1.270e+04 6.261e-10
 93.24131     83.9 1.383e+04 8.400e-10
 93.25451     82.5 1.332e+04 7.230e-10
 93.27513     81.9 1.331e+04 7.323e-10
 93.29575     81.5 1.341e+04 8.103e-10
 93.30789     81.2 1.343e+04 9.552e-10
 93.31092     79.7 1.364e+04 1.280e-09
 93.31940     80.0 1.354e+04 1.126e-09
 93.33699     80.4 1.348e+04 1.386e-09
 93.35761     81.5 1.339e+04 1.654e-09
 93.37448     82.7 1.346e+04 1.722e-09
 93.38479     82.0 1.353e+04 1.918e-09
 93.39885     83.2 1.333e+04 1.733e-09
 93.41919     84.0 1.343e+04 1.423e-09
 93.42950     84.4 1.361e+04 1.520e-09
 93.44009     84.2 1.344e+04 1.228e-09
 93.45138     83.6 1.322e+04 1.043e-09
 93.46169     82.7 1.313e+04 1.041e-09
 93.48133     82.3 1.286e+04 1.010e-09
 93.50195     82.4 1.273e+04 1.004e-09
 93.51796     82.6 1.277e+04 1.045e-09
 93.52827     82.6 1.268e+04 1.014e-09
 93.53961     83.0 1.261e+04 1.023e-09
 93.54992     83.3 1.262e+04 1.030e-09
 93.56381     83.9 1.244e+04 9.777e-10
 93.58443     84.5 1.224e+04 8.741e-10
 93.59486     85.2 1.202e+04 7.527e-10
 93.60517     85.7 1.189e+04 6.531e-10
 93.62567     86.4 1.184e+04 5.187e-10
 93.64629     86.5 1.177e+04 3.996e-10
 93.67732     87.2 1.145e+04 2.947e-10
 93.71792     88.2 1.091e+04 2.305e-10
 93.73854     89.6 1.089e+04 2.062e-10
 93.75990     90.9 1.069e+04 2.046e-10
 93.80114     93.5 1.085e+04 2.472e-10
 93.84238     94.8 1.116e+04 3.311e-10
 93.87161     95.0 1.126e+04 4.522e-10
 93.88182     95.4 1.124e+04 4.537e-10
 93.89054     96.3 1.138e+04 5.514e-10
 93.90085     96.9 1.137e+04 5.404e-10
 93.91436     98.0 1.144e+04 6.329e-10
 93.93498     99.2 1.145e+04 6.587e-10
 93.94841    100.3 1.143e+04 6.125e-10
 93.95872    100.6 1.139e+04 5.713e-10
 93.97622    101.1 1.138e+04 5.127e-10
 94.00074    101.8 1.117e+04 3.628e-10
 94.01890    102.8 1.127e+04 4.003e-10
 94.02531    103.0 1.121e+04 3.711e-10
 94.04848    104.9 1.100e+04 3.017e-10
 94.08982    106.1 1.073e+04 2.474e-10
 94.13106    107.1 1.077e+04 2.486e-10
 94.15867    107.5 1.093e+04 2.858e-10
 94.17929    108.4 1.089e+04 2.907e-10
 94.20314    108.4 1.092e+04 3.448e-10
 94.22366    108.4 1.106e+04 4.217e-10
 94.23538    108.3 1.126e+04 5.119e-10
 94.24288    109.1 1.124e+04 5.109e-10
 94.25179    109.8 1.125e+04 5.368e-10
 94.26490    109.9 1.148e+04 6.141e-10
 94.28552    110.2 1.149e+04 6.120e-10
 94.30196    110.6 1.145e+04 5.743e-10
 94.31227    111.3 1.146e+04 5.840e-10
 94.32676    111.8 1.126e+04 4.930e-10
 94.34738    111.6 1.105e+04 3.962e-10
 94.37841    112.6 1.107e+04 3.284e-10
 94.41975    113.8 1.073e+04 2.559e-10
 94.44564    115.0 1.045e+04 2.162e-10
 94.46626    116.3 1.074e+04 2.715e-10
 94.48250    117.7 1.058e+04 2.507e-10
 94.50312    118.5 1.059e+04 2.393e-10
 94.54347    120.1 1.041e+04 2.204e-10
 94.57881    121.7 1.023e+04 1.930e-10
 94.59943    122.8 1.048e+04 2.340e-10
 94.62595    124.4 1.030e+04 1.864e-10
 94.66719    125.7 1.015e+04 1.441e-10
 94.70271    126.9 1.008e+04 1.358e-10
 94.72333    127.6 1.024e+04 1.643e-10
 94.73260    128.9 1.027e+04 1.708e-10
 94.75322    129.8 1.027e+04 1.690e-10
 94.79091    131.0 1.039e+04 1.975e-10
 94.83215    132.3 1.059e+04 2.499e-10
 94.86578    133.7 1.076e+04 3.081e-10
 94.88640    134.4 1.075e+04 3.121e-10
 94.91463    135.5 1.082e+04 3.492e-10
 94.94354    136.4 1.076e+04 3.438e-10
 94.96416    136.4 1.092e+04 3.847e-10
 94.99711    137.2 1.081e+04 3.464e-10
 95.01957    137.6 1.080e+04 3.075e-10
 95.04019    138.2 1.077e+04 3.328e-10
 95.07959    138.4 1.092e+04 3.111e-10
 95.12083    138.5 1.098e+04 3.074e-10
 95.15274    138.8 1.100e+04 3.152e-10
 95.17336    138.7 1.099e+04 3.544e-10
 95.18437    139.1 1.098e+04 3.769e-10
 95.19458    138.9 1.095e+04 3.858e-10
 95.21343    139.0 1.096e+04 3.911e-10
 95.22944    139.5 1.099e+04 4.038e-10
 95.23975    139.7 1.099e+04 4.202e-10
 95.25467    139.8 1.098e+04 4.199e-10
 95.28569    140.4 1.105e+04 4.082e-10
 95.32703    141.8 1.079e+04 3.476e-10
 95.36827    142.6 1.048e+04 2.430e-10
 95.40458    143.2 1.023e+04 1.687e-10
 95.42520    142.5 1.023e+04 1.709e-10
 95.43971    143.4 1.012e+04 1.509e-10
 95.46033    142.9 1.012e+04 1.514e-10
 95.49199    144.2 1.013e+04 1.539e-10
 95.53323    145.2 1.019e+04 1.689e-10
 95.57288    146.1 1.036e+04 2.385e-10
 95.59350    146.1 1.037e+04 2.459e-10
 95.61572    147.5 1.089e+04 4.031e-10
 95.64531    147.6 1.128e+04 5.280e-10
 95.65552    147.2 1.156e+04 6.183e-10
 95.65989    147.1 1.198e+04 7.833e-10
 95.67020    147.3 1.187e+04 7.470e-10
 95.68769    147.1 1.235e+04 1.001e-09
 95.70831    146.9 1.277e+04 1.367e-09
 95.72648    146.9 1.317e+04 1.820e-09
 95.73679    147.1 1.317e+04 1.844e-09
 95.74955    147.4 1.355e+04 2.262e-09
 95.76563    147.7 1.370e+04 2.322e-09
 95.77594    147.3 1.420e+04 2.823e-09
 95.79079    147.5 1.420e+04 2.755e-09
 95.80337    147.9 1.396e+04 2.394e-09
 95.81368    148.3 1.393e+04 2.361e-09
 95.83203    148.2 1.347e+04 1.805e-09
 95.85975    148.4 1.269e+04 1.222e-09
 95.88047    148.9 1.261e+04 1.198e-09
 95.88624    150.1 1.180e+04 8.027e-10
 95.90686    150.0 1.220e+04 9.801e-10
 95.94564    151.9 1.165e+04 7.439e-10
 95.97647    153.5 1.123e+04 6.170e-10
 95.99615    153.9 1.110e+04 5.852e-10
 96.00646    154.1 1.134e+04 6.668e-10
 96.01344    155.0 1.120e+04 6.462e-10
 96.02375    155.5 1.118e+04 6.445e-10
 96.03823    156.4 1.112e+04 6.426e-10
 96.05885    157.4 1.107e+04 6.424e-10
 96.07947    158.4 1.103e+04 6.455e-10
 96.09034    159.5 1.097e+04 6.417e-10
 96.10065    159.8 1.100e+04 6.591e-10
 96.11656    160.8 1.095e+04 6.631e-10
 96.12687    160.8 1.107e+04 7.078e-10
 96.14133    162.0 1.089e+04 6.589e-10
 96.15693    162.9 1.071e+04 5.935e-10
 96.16724    163.1 1.085e+04 6.589e-10
 96.18257    164.5 1.061e+04 5.396e-10
 96.20319    164.9 1.050e+04 4.987e-10
 96.23422    167.1 1.015e+04 4.134e-10
 96.27556    169.1 9.706e+03 3.191e-10
 96.30060    171.3 9.281e+03 2.420e-10
 96.32122    172.0 9.483e+03 2.806e-10
 96.34728    174.4 9.130e+03 2.154e-10
 96.36790    174.9 8.896e+03 1.954e-10
 96.39928    177.3 8.701e+03 1.709e-10
 96.43378    179.8 8.578e+03 1.632e-10
 96.45440    180.7 8.606e+03 1.698e-10
 96.48176    183.2 8.581e+03 1.691e-10
 96.52300    185.7 8.577e+03 1.704e-10
 96.56424    188.3 8.588e+03 1.763e-10
 96.58757    190.8 8.640e+03 1.898e-10
 96.59081    191.7 8.684e+03 1.997e-10
 96.60873    192.5 8.743e+03 2.125e-10
 96.64672    195.0 8.833e+03 2.342e-10
 96.68796    197.3 8.940e+03 2.624e-10
 96.72074    199.4 9.061e+03 2.909e-10
 96.74136    200.3 9.012e+03 2.870e-10
 96.77044    202.4 9.106e+03 3.117e-10
 96.80832    204.3 9.144e+03 3.271e-10
 96.82894    205.0 9.437e+03 4.073e-10
 96.84252    206.5 9.462e+03 4.089e-10
 96.86304    206.8 9.462e+03 4.098e-10
 96.87434    208.0 9.389e+03 4.000e-10
 96.88465    208.5 9.375e+03 4.039e-10
 96.90428    209.0 9.330e+03 3.955e-10
 96.92490    210.4 9.265e+03 3.830e-10
 96.93884    211.0 9.269e+03 3.822e-10
 96.94456    211.7 9.572e+03 4.854e-10
 96.95123    212.3 9.579e+03 4.972e-10
 96.96614    213.4 9.589e+03 5.009e-10
 96.98676    214.4 9.640e+03 5.138e-10
 97.00738    215.5 9.712e+03 5.412e-10
 97.01782    216.4 9.855e+03 5.792e-10
 97.02813    217.2 9.837e+03 5.826e-10
 97.04862    218.0 1.004e+04 6.378e-10
 97.05926    218.5 1.030e+04 7.196e-10
 97.06957    218.9 1.083e+04 9.893e-10
 97.08441    219.4 1.107e+04 1.108e-09
 97.09472    220.1 1.104e+04 1.076e-09
 97.11048    220.6 1.133e+04 1.234e-09
 97.13110    221.0 1.163e+04 1.417e-09
 97.15099    221.4 1.183e+04 1.527e-09
 97.16130    222.0 1.172e+04 1.412e-09
 97.16936    222.2 1.172e+04 1.404e-09
 97.17967    223.1 1.235e+04 1.887e-09
 97.19296    223.2 1.231e+04 1.840e-09
 97.21358    223.5 1.211e+04 1.682e-09
 97.22789    223.8 1.179e+04 1.453e-09
 97.23820    224.3 1.167e+04 1.353e-09
 97.25482    224.4 1.135e+04 1.177e-09
 97.27544    224.2 1.107e+04 1.039e-09
 97.28978    223.9 1.087e+04 9.515e-10
 97.29850    225.2 1.171e+04 1.374e-09
 97.30479    225.8 1.172e+04 1.419e-09
 97.31668    225.7 1.155e+04 1.340e-09
 97.33730    225.5 1.147e+04 1.280e-09
 97.35792    225.1 1.153e+04 1.244e-09
 97.37137    224.2 1.164e+04 1.251e-09
 97.38168    225.5 1.172e+04 1.339e-09
 97.39916    224.1 1.197e+04 1.359e-09
 97.41019    222.0 1.230e+04 1.448e-09
 97.42050    223.8 1.279e+04 1.777e-09
 97.43796    220.9 1.318e+04 1.974e-09
 97.44827    222.5 1.318e+04 1.991e-09
 97.46102    219.5 1.366e+04 2.267e-09
 97.48164    216.5 1.424e+04 2.576e-09
 97.50226    213.1 1.477e+04 2.831e-09
 97.51485    209.3 1.512e+04 2.976e-09
 97.52258    209.0 1.589e+04 3.563e-09
 97.53056    207.9 1.617e+04 3.999e-09
 97.53825    204.5 1.623e+04 4.036e-09
 97.54805    203.1 1.620e+04 4.072e-09
 97.55321    202.5 1.669e+04 4.558e-09
 97.55887    199.3 1.689e+04 5.135e-09
 97.56918    198.7 1.690e+04 5.322e-09
 97.58139    196.0 1.691e+04 5.722e-09
 97.59175    194.9 1.808e+04 8.470e-09
 97.60537    192.7 1.749e+04 7.391e-09
 97.62599    190.4 1.661e+04 5.112e-09
 97.64071    188.0 1.560e+04 3.473e-09
 97.65102    185.9 1.570e+04 3.427e-09
 97.65834    183.9 1.452e+04 2.397e-09
 97.66865    182.7 1.393e+04 1.984e-09
 97.68785    182.2 1.321e+04 1.619e-09
 97.70847    182.3 1.289e+04 1.440e-09
 97.72492    182.9 1.278e+04 1.337e-09
 97.73523    182.9 1.263e+04 1.223e-09
 97.74971    183.7 1.264e+04 1.176e-09
 97.76113    184.4 1.265e+04 1.157e-09
 97.77144    183.4 1.230e+04 9.363e-10
 97.79095    184.2 1.232e+04 9.748e-10
 97.80182    184.9 1.235e+04 1.033e-09
 97.81213    185.2 1.217e+04 8.880e-10
 97.83219    186.0 1.221e+04 9.515e-10
 97.85281    186.9 1.225e+04 1.013e-09
 97.86841    187.7 1.227e+04 1.064e-09
 97.87652    188.1 1.208e+04 9.187e-10
 97.88154    187.5 1.173e+04 7.663e-10
 97.89405    188.4 1.177e+04 8.003e-10
 97.91467    189.3 1.184e+04 8.337e-10
 97.93499    190.1 1.192e+04 8.735e-10
 97.94530    190.4 1.168e+04 7.412e-10
 97.95591    191.2 1.178e+04 7.906e-10
 97.97653    191.9 1.193e+04 8.715e-10
 97.99165    192.5 1.212e+04 9.902e-10
 98.00196    191.9 1.182e+04 8.697e-10
 98.01189    192.6 1.198e+04 9.678e-10
 98.02220    193.0 1.174e+04 8.461e-10
 98.03839    193.8 1.187e+04 9.182e-10
 98.05901    194.6 1.192e+04 9.348e-10
 98.07848    195.3 1.190e+04 9.177e-10
 98.08879    195.6 1.174e+04 8.621e-10
 98.10025    196.3 1.170e+04 8.361e-10
 98.11206    197.1 1.161e+04 7.689e-10
 98.12237    196.7 1.159e+04 7.792e-10
 98.14149    197.4 1.146e+04 6.920e-10
 98.15537    198.2 1.131e+04 6.052e-10
 98.16568    198.5 1.141e+04 6.595e-10
 98.18273    199.2 1.129e+04 5.855e-10
 98.20335    200.0 1.119e+04 5.311e-10
 98.22196    200.7 1.113e+04 5.011e-10
 98.23046    201.0 1.126e+04 5.523e-10
 98.23248    200.7 1.140e+04 6.409e-10
 98.24459    201.5 1.134e+04 6.094e-10
 98.26521    202.4 1.132e+04 5.945e-10
 98.28583    203.1 1.133e+04 5.906e-10
 98.29885    203.9 1.135e+04 5.953e-10
 98.30916    204.0 1.131e+04 5.855e-10
 98.32707    204.9 1.132e+04 5.780e-10
 98.34258    205.6 1.136e+04 5.795e-10
 98.35289    205.0 1.128e+04 5.617e-10
 98.36544    205.7 1.129e+04 5.431e-10
 98.37575    205.6 1.112e+04 4.735e-10
 98.38893    206.2 1.112e+04 4.564e-10
 98.40955    206.8 1.114e+04 4.475e-10
 98.43017    207.5 1.116e+04 4.444e-10
 98.44234    208.2 1.119e+04 4.454e-10
 98.45265    207.6 1.095e+04 4.193e-10
 98.46300    208.1 1.101e+04 4.500e-10
 98.47331    206.5 1.100e+04 4.520e-10
 98.49203    207.2 1.110e+04 4.888e-10
 98.50892    207.6 1.127e+04 5.431e-10
 98.51923    206.0 1.143e+04 5.939e-10
 98.53327    204.7 1.222e+04 7.789e-10
 98.55389    201.2 1.424e+04 1.416e-09
 98.57310    196.0 1.718e+04 3.569e-09
 98.58341    192.3 1.736e+04 5.293e-09
 98.58582    189.3 1.846e+04 9.083e-09
 98.59613    186.4 1.882e+04 1.030e-08
 98.61575    183.3 1.883e+04 9.816e-09
 98.63637    180.1 1.815e+04 7.099e-09
 98.65241    174.7 1.826e+04 4.621e-09
 98.66272    168.4 1.942e+04 5.089e-09
 98.67761    155.6 2.102e+04 6.768e-09
 98.69352    145.1 2.178e+04 1.300e-08
 98.70383    142.1 2.085e+04 1.071e-08
 98.71885    138.0 2.140e+04 1.523e-08
 98.72930    135.2 2.228e+04 1.654e-08
 98.73961    130.6 2.079e+04 6.852e-09
 98.76010    118.9 2.361e+04 3.468e-09
 98.78072    102.0 1.935e+04 4.607e-09
 98.79589     92.5 1.793e+04 9.097e-09
 98.80620     93.0 1.786e+04 9.609e-09
 98.81393     91.2 1.904e+04 1.473e-08
 98.82424     90.8 1.828e+04 1.150e-08
 98.84258     90.0 1.766e+04 9.391e-09
 98.86247     88.2 1.650e+04 5.344e-09
 98.87278     88.7 1.682e+04 5.663e-09
 98.88382     84.5 1.428e+04 2.180e-09
 98.90444     82.8 1.207e+04 1.134e-09
 98.92404     79.5 1.003e+04 6.017e-10
 98.93444     79.0 1.069e+04 6.536e-10
 98.95618     76.9 9.307e+03 3.334e-10
 98.99584     77.0 8.981e+03 2.736e-10
 99.01646     77.9 9.085e+03 2.969e-10
 99.03866     78.5 9.243e+03 3.286e-10
 99.07990     78.8 9.569e+03 4.270e-10
 99.11074     79.7 9.890e+03 5.777e-10
 99.13126     80.6 1.015e+04 6.687e-10
 99.14944     81.1 1.030e+04 6.996e-10
 99.15975     81.4 1.042e+04 7.460e-10
 99.16486     82.0 1.028e+04 7.073e-10
 99.17517     81.9 1.050e+04 7.719e-10
 99.19312     82.3 1.034e+04 6.967e-10
 99.21374     82.6 1.015e+04 6.066e-10
 99.22634     82.2 9.879e+03 4.504e-10
 99.23665     82.6 9.939e+03 4.787e-10
 99.25498     82.1 9.720e+03 4.078e-10
 99.28271     81.4 9.717e+03 3.989e-10
 99.30343     81.7 9.738e+03 4.049e-10
 99.32734     81.1 9.610e+03 3.790e-10
 99.36859     81.1 9.621e+03 3.932e-10
 99.39558     81.7 9.597e+03 3.910e-10
 99.41620     81.3 9.763e+03 4.418e-10
 99.43660     81.8 9.625e+03 3.807e-10
 99.45722     81.6 9.730e+03 4.020e-10
 99.49231     81.9 9.579e+03 3.432e-10
 99.53355     82.4 9.484e+03 3.105e-10
 99.56977     82.9 9.476e+03 3.064e-10
 99.59039     81.8 9.655e+03 3.413e-10
 99.60562     82.2 9.801e+03 3.741e-10
 99.62590     82.2 9.839e+03 3.768e-10
 99.63631     81.6 9.466e+03 3.676e-10
 99.64657     81.9 9.904e+03 4.473e-10
 99.65678     81.3 9.957e+03 4.713e-10
 99.66738     81.3 1.022e+04 5.296e-10
 99.68800     80.8 1.075e+04 7.476e-10
 99.70862     80.6 1.122e+04 1.049e-09
 99.72337     80.7 1.175e+04 1.450e-09
 99.73368     79.5 1.228e+04 1.832e-09
 99.74632     79.8 1.281e+04 2.437e-09
 99.75663     79.4 1.262e+04 2.175e-09
 99.77048     79.8 1.311e+04 2.750e-09
 99.78996     80.3 1.349e+04 3.144e-09
 99.80027     79.2 1.412e+04 3.981e-09
 99.81172     79.1 1.415e+04 3.892e-09
 99.83234     78.8 1.396e+04 3.490e-09
 99.85296     78.0 1.383e+04 3.080e-09
 99.86673     76.5 1.379e+04 2.808e-09
 99.87031     75.6 1.370e+04 2.727e-09
 99.87716     72.5 1.397e+04 2.875e-09
 99.89420     70.5 1.395e+04 2.959e-09
 99.91482     66.9 1.489e+04 3.659e-09
 99.93344     59.0 1.910e+04 5.964e-09
 99.94375     50.8 2.053e+04 7.035e-09
 99.95606     41.4 2.223e+04 9.097e-09
 99.97668     32.9 2.136e+04 8.106e-09
 99.98715     23.7 1.867e+04 3.377e-09
 99.99746     26.2 1.842e+04 4.139e-09
