# Columns:
#   distance along LOS (in CHIMPs)
#   peculiar velocity  (in km/s)
#   temperature (K)
#   HI number density
# pos=(238.263,45.7524,94.9126), angles=(1.25714,4.75967)
  0.00039    -33.7 9.321e+03 2.187e-10
  0.02134    -31.9 9.407e+03 2.483e-10
  0.04326    -30.0 9.528e+03 2.881e-10
  0.06382    -29.6 9.535e+03 3.031e-10
  0.10356    -27.8 9.674e+03 3.558e-10
  0.14468    -26.0 9.784e+03 4.016e-10
  0.16823    -24.3 9.837e+03 4.248e-10
  0.18879    -24.1 9.787e+03 4.169e-10
  0.22690    -22.5 9.741e+03 4.147e-10
  0.26801    -20.8 9.560e+03 3.682e-10
  0.29320    -19.1 9.356e+03 3.042e-10
  0.31376    -18.8 9.166e+03 2.525e-10
  0.35024    -17.2 8.934e+03 2.003e-10
  0.39135    -15.6 8.745e+03 1.713e-10
  0.41817    -14.0 8.636e+03 1.613e-10
  0.43873    -13.6 8.604e+03 1.542e-10
  0.47357    -11.8 8.555e+03 1.602e-10
  0.51468     -9.9 8.533e+03 1.676e-10
  0.54314     -8.0 8.495e+03 1.733e-10
  0.56370     -7.6 8.533e+03 1.838e-10
  0.59691     -5.8 8.519e+03 1.856e-10
  0.63802     -3.8 8.346e+03 1.812e-10
  0.66811     -1.7 8.178e+03 1.566e-10
  0.68867     -1.5 8.180e+03 1.589e-10
  0.72024      0.6 8.000e+03 1.271e-10
  0.76136      2.6 7.808e+03 1.003e-10
  0.79308      4.8 7.637e+03 8.022e-11
  0.81364      4.9 7.630e+03 8.079e-11
  0.84358      7.7 7.523e+03 7.026e-11
  0.88469      9.8 7.429e+03 5.808e-11
  0.91805     12.0 7.355e+03 5.221e-11
  0.93861     12.2 7.374e+03 5.609e-11
  0.96692     14.5 7.343e+03 5.462e-11
  1.00803     16.8 7.339e+03 5.458e-11
  1.04302     19.0 7.362e+03 5.845e-11
  1.06358     19.0 7.454e+03 6.963e-11
  1.09025     21.3 7.506e+03 7.597e-11
  1.13136     23.7 7.598e+03 8.146e-11
  1.16799     25.8 7.734e+03 8.600e-11
  1.18855     25.9 7.813e+03 1.006e-10
  1.21359     27.9 7.946e+03 1.042e-10
  1.25470     29.6 8.068e+03 1.174e-10
  1.29296     31.4 8.143e+03 1.457e-10
  1.31352     31.3 8.183e+03 1.593e-10
  1.33692     33.3 8.292e+03 2.037e-10
  1.37804     35.6 8.457e+03 2.472e-10
  1.41794     37.9 8.627e+03 2.666e-10
  1.43849     37.7 8.793e+03 3.368e-10
  1.46026     39.8 8.926e+03 3.467e-10
  1.50137     41.3 9.041e+03 3.422e-10
  1.54248     42.5 9.219e+03 3.833e-10
  1.56346     44.1 9.509e+03 4.983e-10
  1.58402     44.2 9.586e+03 5.043e-10
  1.62471     46.1 9.756e+03 5.685e-10
  1.66582     47.8 9.852e+03 5.637e-10
  1.68843     49.6 9.819e+03 4.775e-10
  1.69132     49.1 9.722e+03 4.006e-10
  1.70982     49.2 9.933e+03 4.651e-10
  1.74804     50.7 9.815e+03 4.113e-10
  1.78916     52.0 9.807e+03 3.699e-10
  1.81340     53.2 9.898e+03 3.950e-10
  1.83396     52.5 9.972e+03 4.098e-10
  1.87138     53.3 1.014e+04 5.114e-10
  1.91249     53.8 1.074e+04 7.369e-10
  1.93827     50.9 1.185e+04 1.167e-09
  1.95883     51.0 1.178e+04 1.093e-09
  1.98434     48.5 1.336e+04 2.440e-09
  2.00066     48.3 1.397e+04 3.325e-09
  2.01094     48.1 1.328e+04 2.365e-09
  2.02536     47.4 1.337e+04 2.507e-09
  2.04591     46.3 1.278e+04 2.435e-09
  2.06315     45.4 1.204e+04 2.004e-09
  2.08380     44.3 1.155e+04 1.656e-09
  2.11805     43.0 1.096e+04 1.344e-09
  2.14879     43.1 1.070e+04 9.933e-10
  2.16925     41.6 1.039e+04 8.305e-10
  2.18812     40.4 9.797e+03 6.478e-10
  2.20877     40.9 9.711e+03 5.740e-10
  2.24139     39.4 9.302e+03 4.292e-10
  2.28250     37.8 9.134e+03 3.745e-10
  2.31328     37.0 9.345e+03 4.385e-10
  2.33384     38.4 9.151e+03 3.866e-10
  2.36473     37.9 9.472e+03 4.623e-10
  2.40584     37.1 1.002e+04 5.565e-10
  2.43825     35.3 1.071e+04 6.689e-10
  2.45881     37.4 1.030e+04 5.135e-10
  2.47769     34.7 1.081e+04 6.467e-10
  2.49814     34.1 1.096e+04 7.068e-10
  2.51082     32.6 1.086e+04 8.491e-10
  2.52110     33.5 1.089e+04 8.288e-10
  2.53926     33.1 1.081e+04 9.129e-10
  2.55514     33.1 1.067e+04 9.601e-10
  2.56542     33.4 1.062e+04 9.818e-10
  2.57331     34.1 1.049e+04 7.898e-10
  2.58358     35.0 1.056e+04 8.906e-10
  2.60092     35.5 1.041e+04 5.833e-10
  2.62148     34.4 1.024e+04 3.557e-10
  2.65241     33.4 9.911e+03 2.376e-10
  2.68819     32.3 9.644e+03 1.808e-10
  2.70875     34.6 9.484e+03 1.735e-10
  2.73473     34.7 9.459e+03 1.615e-10
  2.77585     35.2 9.968e+03 2.367e-10
  2.81316     36.5 1.035e+04 3.908e-10
  2.83372     38.1 1.008e+04 2.818e-10
  2.85807     39.5 1.037e+04 4.091e-10
  2.89918     41.1 1.040e+04 4.365e-10
  2.93813     43.3 1.037e+04 3.662e-10
  2.95869     44.3 1.027e+04 4.126e-10
  2.98141     46.1 1.037e+04 2.795e-10
  3.02252     46.6 1.020e+04 1.958e-10
  3.06310     47.5 1.022e+04 1.847e-10
  3.08356     47.9 1.002e+04 1.832e-10
  3.09427     48.0 1.021e+04 2.185e-10
  3.11482     48.0 1.028e+04 3.011e-10
  3.13538     48.2 1.065e+04 4.473e-10
  3.14595     47.8 1.163e+04 7.921e-10
  3.15623     47.7 1.178e+04 8.074e-10
  3.17649     47.1 1.277e+04 1.615e-09
  3.19705     47.2 1.374e+04 3.146e-09
  3.20843     48.1 1.476e+04 5.317e-09
  3.21871     47.9 1.493e+04 5.693e-09
  3.23816     48.9 1.631e+04 8.930e-09
  3.25872     49.2 1.800e+04 1.279e-08
  3.27092     46.9 2.045e+04 1.973e-08
  3.28120     46.5 2.041e+04 1.950e-08
  3.29464     43.6 2.163e+04 2.632e-08
  3.30206     41.3 2.152e+04 3.592e-08
  3.30720     41.9 2.111e+04 3.074e-08
  3.31515     40.6 2.080e+04 3.872e-08
  3.32543     39.8 2.055e+04 4.509e-08
  3.33331     39.4 2.082e+04 4.869e-08
  3.33845     39.3 2.079e+04 3.442e-08
  3.34598     38.1 2.074e+04 3.497e-08
  3.35626     37.2 2.052e+04 3.519e-08
  3.36455     36.5 2.016e+04 3.164e-08
  3.36969     36.4 2.003e+04 2.918e-08
  3.37682     35.6 2.004e+04 2.387e-08
  3.38709     34.0 1.959e+04 1.753e-08
  3.39584     31.6 1.856e+04 1.182e-08
  3.40617     32.0 1.938e+04 1.472e-08
  3.42122     27.6 1.695e+04 7.650e-09
  3.43149     27.3 1.620e+04 5.705e-09
  3.44372     25.3 1.500e+04 4.729e-09
  3.45837     25.0 1.433e+04 4.231e-09
  3.46865     25.7 1.504e+04 5.807e-09
  3.48483     26.2 1.457e+04 5.289e-09
  3.50539     27.0 1.390e+04 4.452e-09
  3.52086     28.1 1.302e+04 3.154e-09
  3.53114     29.2 1.394e+04 4.325e-09
  3.54650     29.9 1.282e+04 2.477e-09
  3.56706     30.2 1.145e+04 1.240e-09
  3.58334     29.7 1.013e+04 6.104e-10
  3.59362     30.7 1.069e+04 7.694e-10
  3.60817     29.8 9.305e+03 3.894e-10
  3.62872     29.3 8.536e+03 2.571e-10
  3.64583     29.5 8.337e+03 2.339e-10
  3.65611     30.5 8.364e+03 2.397e-10
  3.68021     31.7 8.346e+03 2.390e-10
  3.70851     33.6 8.207e+03 2.304e-10
  3.72907     35.1 8.350e+03 2.576e-10
  3.76253     36.5 8.368e+03 2.822e-10
  3.79327     36.9 8.446e+03 3.220e-10
  3.81373     36.9 8.427e+03 3.320e-10
  3.83329     35.4 9.355e+03 4.714e-10
  3.84356     36.5 9.480e+03 5.571e-10
  3.85425     33.1 1.104e+04 9.591e-10
  3.86453     33.5 1.120e+04 9.174e-10
  3.87540     30.1 1.248e+04 1.864e-09
  3.89577     28.7 1.313e+04 3.100e-09
  3.90605     30.3 1.315e+04 3.094e-09
  3.91651     29.9 1.370e+04 3.970e-09
  3.93706     29.5 1.395e+04 4.191e-09
  3.95762     28.2 1.410e+04 3.817e-09
  3.96853     25.4 1.313e+04 2.231e-09
  3.97881     26.2 1.341e+04 2.469e-09
  3.99873     22.1 1.176e+04 1.564e-09
  4.01929     20.0 1.112e+04 1.286e-09
  4.03102     19.5 1.100e+04 1.207e-09
  4.04130     20.1 1.141e+04 1.493e-09
  4.06040     19.7 1.148e+04 1.501e-09
  4.08096     19.3 1.152e+04 1.476e-09
  4.09350     19.0 1.148e+04 1.416e-09
  4.10378     19.8 1.192e+04 1.757e-09
  4.12207     19.6 1.188e+04 1.690e-09
  4.14262     19.4 1.178e+04 1.576e-09
  4.15599     19.3 1.168e+04 1.444e-09
  4.16627     20.0 1.200e+04 1.565e-09
  4.18374     19.7 1.192e+04 1.437e-09
  4.20429     19.4 1.185e+04 1.348e-09
  4.21847     19.2 1.181e+04 1.303e-09
  4.22875     19.6 1.186e+04 1.293e-09
  4.25578     19.4 1.180e+04 1.214e-09
  4.28748     19.5 1.183e+04 1.211e-09
  4.30794     20.0 1.199e+04 1.298e-09
  4.32763     20.2 1.186e+04 1.181e-09
  4.34344     20.3 1.172e+04 1.066e-09
  4.35382     20.7 1.186e+04 1.138e-09
  4.36884     20.6 1.142e+04 8.744e-10
  4.38930     20.7 1.125e+04 7.765e-10
  4.40593     20.7 1.079e+04 5.856e-10
  4.41621     20.7 1.080e+04 5.991e-10
  4.43041     20.3 1.045e+04 4.938e-10
  4.45096     20.0 1.013e+04 4.257e-10
  4.46841     19.9 9.972e+03 3.945e-10
  4.47869     20.1 1.002e+04 4.249e-10
  4.49208     20.0 9.856e+03 3.896e-10
  4.51263     20.0 9.738e+03 3.641e-10
  4.54356     20.4 9.593e+03 3.325e-10
  4.58330     20.8 9.147e+03 2.486e-10
  4.60386     21.1 9.144e+03 2.359e-10
  4.62589     21.8 8.535e+03 1.436e-10
  4.66700     22.5 8.112e+03 9.332e-11
  4.70811     23.1 7.882e+03 7.503e-11
  4.74922     24.6 7.794e+03 7.180e-11
  4.79033     25.7 7.807e+03 7.185e-11
  4.83145     26.8 7.993e+03 8.314e-11
  4.85380     28.1 8.198e+03 1.089e-10
  4.87435     28.9 8.184e+03 1.098e-10
  4.91367     30.6 8.337e+03 1.375e-10
  4.95478     32.5 8.469e+03 1.547e-10
  4.97877     34.3 8.521e+03 1.585e-10
  4.99932     35.1 8.516e+03 1.638e-10
  5.03701     36.8 8.547e+03 1.586e-10
  5.07812     38.5 8.555e+03 1.484e-10
  5.10374     40.0 8.563e+03 1.452e-10
  5.12429     40.9 8.554e+03 1.524e-10
  5.15356     42.4 8.574e+03 1.531e-10
  5.17411     43.1 8.579e+03 1.561e-10
  5.20145     44.8 8.623e+03 1.613e-10
  5.22871     46.9 8.639e+03 1.632e-10
  5.24926     47.7 8.703e+03 1.872e-10
  5.28368     49.8 8.757e+03 1.910e-10
  5.32479     51.8 8.776e+03 1.902e-10
  5.35368     53.8 8.810e+03 1.945e-10
  5.37423     54.3 9.145e+03 2.699e-10
  5.40701     56.2 9.241e+03 3.002e-10
  5.44813     58.3 9.357e+03 3.364e-10
  5.47865     60.6 9.466e+03 3.647e-10
  5.48883     60.2 9.686e+03 4.295e-10
  5.49932     60.5 9.694e+03 4.326e-10
  5.51988     61.9 9.916e+03 4.742e-10
  5.54043     62.4 9.974e+03 4.906e-10
  5.55122     63.1 1.037e+04 5.892e-10
  5.56149     62.4 1.084e+04 7.672e-10
  5.58154     62.0 1.146e+04 9.752e-10
  5.59667     61.5 1.216e+04 1.380e-09
  5.60695     63.2 1.208e+04 1.283e-09
  5.61370     62.7 1.250e+04 1.715e-09
  5.62398     61.5 1.315e+04 2.429e-09
  5.64321     62.4 1.336e+04 3.080e-09
  5.66377     63.9 1.357e+04 3.498e-09
  5.67619     65.7 1.378e+04 3.622e-09
  5.68646     65.0 1.437e+04 4.143e-09
  5.70488     65.5 1.445e+04 3.073e-09
  5.72544     64.9 1.386e+04 2.171e-09
  5.73867     63.2 1.353e+04 1.584e-09
  5.74895     60.2 1.343e+04 1.445e-09
  5.76655     57.7 1.368e+04 1.489e-09
  5.78710     53.5 1.521e+04 2.283e-09
  5.80116     49.7 1.628e+04 4.182e-09
  5.81144     48.9 1.542e+04 3.790e-09
  5.82822     48.2 1.617e+04 5.935e-09
  5.84877     48.6 1.688e+04 7.679e-09
  5.86364     48.7 1.706e+04 7.778e-09
  5.87392     47.5 1.588e+04 4.782e-09
  5.88988     46.1 1.498e+04 3.036e-09
  5.91044     43.1 1.324e+04 1.581e-09
  5.92613     40.6 1.206e+04 9.912e-10
  5.93641     40.5 1.189e+04 9.893e-10
  5.95155     39.5 1.164e+04 8.736e-10
  5.97211     39.0 1.157e+04 8.414e-10
  5.98861     38.6 1.159e+04 8.700e-10
  5.99889     38.5 1.179e+04 9.963e-10
  6.01322     38.1 1.205e+04 1.176e-09
  6.02971     37.6 1.243e+04 1.434e-09
  6.03999     38.1 1.259e+04 1.528e-09
  6.05110     37.5 1.309e+04 1.890e-09
  6.06138     38.0 1.344e+04 2.276e-09
  6.07489     37.6 1.394e+04 2.695e-09
  6.09544     37.0 1.424e+04 2.922e-09
  6.11358     36.3 1.431e+04 2.947e-09
  6.12386     36.7 1.437e+04 2.955e-09
  6.13656     36.1 1.403e+04 2.520e-09
  6.15711     35.7 1.355e+04 1.986e-09
  6.17607     35.4 1.300e+04 1.479e-09
  6.18635     35.6 1.286e+04 1.405e-09
  6.19822     35.5 1.231e+04 1.055e-09
  6.21878     35.7 1.185e+04 8.092e-10
  6.23855     36.2 1.145e+04 6.325e-10
  6.24883     36.6 1.142e+04 6.310e-10
  6.25989     37.5 1.112e+04 5.116e-10
  6.28045     38.5 1.090e+04 4.238e-10
  6.30100     39.6 1.077e+04 3.674e-10
  6.32156     40.6 1.070e+04 3.516e-10
  6.34212     42.2 1.058e+04 3.185e-10
  6.36267     42.7 1.052e+04 3.123e-10
  6.37390     44.7 1.052e+04 3.100e-10
  6.39455     45.6 1.053e+04 3.307e-10
  6.43481     48.1 1.045e+04 3.179e-10
  6.47593     50.6 1.033e+04 3.066e-10
  6.49897     53.3 1.022e+04 2.975e-10
  6.51952     54.6 1.027e+04 3.190e-10
  6.55815     57.2 1.018e+04 3.089e-10
  6.58889     59.5 1.037e+04 3.504e-10
  6.60934     59.9 1.036e+04 3.494e-10
  6.62374     61.3 1.066e+04 4.159e-10
  6.63402     62.1 1.068e+04 4.280e-10
  6.65046     62.2 1.062e+04 4.535e-10
  6.67101     63.8 1.072e+04 5.361e-10
  6.68623     64.6 1.064e+04 5.627e-10
  6.69650     65.3 1.067e+04 5.872e-10
  6.71212     67.0 1.075e+04 6.387e-10
  6.73268     68.1 1.077e+04 6.318e-10
  6.74871     69.4 1.095e+04 6.153e-10
  6.75899     70.3 1.089e+04 6.737e-10
  6.77379     71.1 1.108e+04 6.243e-10
  6.79435     71.7 1.125e+04 6.178e-10
  6.81120     71.9 1.147e+04 6.448e-10
  6.82147     73.2 1.147e+04 6.807e-10
  6.83546     73.3 1.163e+04 7.650e-10
  6.85602     73.4 1.183e+04 8.925e-10
  6.87368     73.6 1.201e+04 1.064e-09
  6.88396     75.0 1.202e+04 1.083e-09
  6.89578     75.3 1.224e+04 1.276e-09
  6.90606     75.4 1.323e+04 2.151e-09
  6.91768     75.7 1.322e+04 2.299e-09
  6.93617     76.1 1.301e+04 2.285e-09
  6.94644     77.3 1.329e+04 2.488e-09
  6.95880     77.6 1.300e+04 2.420e-09
  6.97935     78.0 1.285e+04 2.245e-09
  6.99865     78.3 1.284e+04 2.006e-09
  7.00893     79.5 1.293e+04 2.194e-09
  7.02046     79.6 1.286e+04 1.904e-09
  7.04102     79.7 1.257e+04 1.641e-09
  7.06114     79.8 1.214e+04 1.403e-09
  7.07141     80.8 1.238e+04 1.523e-09
  7.08213     80.9 1.199e+04 1.277e-09
  7.10269     81.1 1.171e+04 1.081e-09
  7.12324     81.1 1.145e+04 9.578e-10
  7.13390     81.3 1.126e+04 9.090e-10
  7.14418     81.8 1.143e+04 1.010e-09
  7.16436     82.4 1.131e+04 1.005e-09
  7.18491     83.0 1.131e+04 1.036e-09
  7.19639     83.6 1.143e+04 1.106e-09
  7.20666     84.2 1.149e+04 1.156e-09
  7.22602     84.5 1.184e+04 1.193e-09
  7.24658     84.1 1.305e+04 1.507e-09
  7.25887     82.9 1.488e+04 2.360e-09
  7.26915     83.5 1.478e+04 2.165e-09
  7.28769     82.2 1.619e+04 3.930e-09
  7.30825     81.7 1.708e+04 7.116e-09
  7.32136     82.6 1.791e+04 1.213e-08
  7.33163     82.7 1.791e+04 1.179e-08
  7.34936     84.3 1.738e+04 9.657e-09
  7.36992     85.8 1.766e+04 1.202e-08
  7.38384     87.3 1.795e+04 1.299e-08
  7.39412     87.3 1.826e+04 1.350e-08
  7.41103     87.9 1.880e+04 1.343e-08
  7.43159     87.5 1.905e+04 1.239e-08
  7.44633     86.3 1.912e+04 1.143e-08
  7.45660     86.2 1.937e+04 1.252e-08
  7.47270     85.0 1.928e+04 1.175e-08
  7.49325     83.9 1.916e+04 1.183e-08
  7.50881     83.1 1.887e+04 1.196e-08
  7.51909     82.8 1.861e+04 1.091e-08
  7.53437     82.6 1.817e+04 1.036e-08
  7.55492     82.8 1.748e+04 9.001e-09
  7.57130     82.6 1.685e+04 6.580e-09
  7.58157     82.3 1.600e+04 5.199e-09
  7.59603     81.0 1.522e+04 4.035e-09
  7.61659     79.6 1.436e+04 3.537e-09
  7.63378     78.9 1.405e+04 3.545e-09
  7.64406     79.3 1.406e+04 3.528e-09
  7.65770     79.4 1.392e+04 3.815e-09
  7.67826     80.1 1.390e+04 4.316e-09
  7.69627     81.4 1.396e+04 4.574e-09
  7.70654     81.8 1.390e+04 4.340e-09
  7.71937     82.9 1.386e+04 3.969e-09
  7.73993     83.6 1.374e+04 3.210e-09
  7.75875     83.5 1.320e+04 2.216e-09
  7.76903     83.4 1.281e+04 1.755e-09
  7.77213     82.8 1.186e+04 1.146e-09
  7.78241     84.5 1.298e+04 2.033e-09
  7.80159     84.2 1.192e+04 1.358e-09
  7.82124     84.3 1.116e+04 9.470e-10
  7.83151     84.2 1.083e+04 7.494e-10
  7.84271     84.9 1.029e+04 5.558e-10
  7.86326     85.4 9.925e+03 3.887e-10
  7.88372     85.7 9.607e+03 3.354e-10
  7.91465     88.6 9.269e+03 2.868e-10
  7.95596     91.3 9.110e+03 2.668e-10
  7.99707     93.6 9.000e+03 2.609e-10
  8.01916     95.9 9.166e+03 3.161e-10
  8.03972     97.2 9.131e+03 3.112e-10
  8.07929     99.7 9.440e+03 3.716e-10
  8.11003    100.2 9.702e+03 4.870e-10
  8.13049    100.3 1.012e+04 5.876e-10
  8.14394     99.7 1.097e+04 7.816e-10
  8.15422     99.7 1.139e+04 8.865e-10
  8.17160     97.9 1.274e+04 1.462e-09
  8.19216     96.8 1.342e+04 2.340e-09
  8.20517     97.3 1.369e+04 3.312e-09
  8.20916     98.9 1.323e+04 2.325e-09
  8.21670     98.6 1.381e+04 3.188e-09
  8.23327     99.7 1.391e+04 3.869e-09
  8.25383    100.9 1.393e+04 3.759e-09
  8.26891    101.6 1.371e+04 3.000e-09
  8.27919    102.3 1.405e+04 3.501e-09
  8.29494    101.8 1.354e+04 2.420e-09
  8.31549    100.4 1.233e+04 1.406e-09
  8.33139     98.7 1.129e+04 8.335e-10
  8.34167     98.2 1.120e+04 7.254e-10
  8.35661     96.6 1.051e+04 4.854e-10
  8.37716     95.7 9.995e+03 3.750e-10
  8.39388     94.8 9.768e+03 3.308e-10
  8.40416     94.2 9.579e+03 3.258e-10
  8.41827     94.2 9.528e+03 3.190e-10
  8.44920     94.6 9.568e+03 3.494e-10
  8.49041     96.4 9.668e+03 3.879e-10
  8.51895     98.0 9.663e+03 4.506e-10
  8.52913     97.4 9.812e+03 4.924e-10
  8.54161     97.4 1.022e+04 4.645e-10
  8.56217     96.7 1.043e+04 5.176e-10
  8.58134     95.9 1.052e+04 5.659e-10
  8.59161     95.0 1.067e+04 6.126e-10
  8.60328     94.2 1.079e+04 7.588e-10
  8.62383     93.5 1.118e+04 8.936e-10
  8.63820     93.1 1.138e+04 1.073e-09
  8.64791     94.2 1.132e+04 1.000e-09
  8.65410     93.5 1.138e+04 1.079e-09
  8.66495     93.5 1.150e+04 1.140e-09
  8.68550     93.4 1.144e+04 1.105e-09
  8.70606     93.4 1.135e+04 9.757e-10
  8.71658     92.9 1.127e+04 7.610e-10
  8.72686     91.3 1.121e+04 6.713e-10
  8.74717     90.1 1.067e+04 5.636e-10
  8.76773     89.2 1.041e+04 4.853e-10
  8.77907     88.5 1.025e+04 4.295e-10
  8.78935     87.2 1.032e+04 4.727e-10
  8.80884     86.9 1.045e+04 4.986e-10
  8.82939     86.6 1.066e+04 5.318e-10
  8.84155     86.5 1.066e+04 6.012e-10
  8.85183     85.9 1.096e+04 7.466e-10
  8.87051     85.9 1.092e+04 7.815e-10
  8.89106     86.1 1.100e+04 8.224e-10
  8.90404     86.2 1.109e+04 8.585e-10
  8.91432     85.5 1.125e+04 9.453e-10
  8.93217     85.6 1.117e+04 9.527e-10
  8.95273     86.0 1.106e+04 9.419e-10
  8.96652     86.6 1.094e+04 9.118e-10
  8.97680     86.4 1.104e+04 8.899e-10
  8.99384     87.1 1.099e+04 7.629e-10
  9.01440     87.6 1.089e+04 6.221e-10
  9.02901     87.8 1.073e+04 5.109e-10
  9.03929     86.8 1.077e+04 5.133e-10
  9.05551     86.5 1.073e+04 4.289e-10
  9.07124     85.9 1.055e+04 3.631e-10
  9.08152     86.0 1.070e+04 3.673e-10
  9.09149     85.6 1.028e+04 3.408e-10
  9.10177     85.3 1.048e+04 4.277e-10
  9.11718     85.7 1.038e+04 4.038e-10
  9.13773     86.2 1.037e+04 3.948e-10
  9.15398     86.1 1.037e+04 3.770e-10
  9.16426     86.1 1.076e+04 4.232e-10
  9.17885     86.0 1.082e+04 3.756e-10
  9.19940     85.7 1.079e+04 3.617e-10
  9.21646     85.6 1.078e+04 3.510e-10
  9.22674     84.4 1.085e+04 3.753e-10
  9.24051     84.3 1.092e+04 3.728e-10
  9.26107     84.2 1.084e+04 4.063e-10
  9.27895     84.2 1.100e+04 4.165e-10
  9.28923     82.8 1.112e+04 4.346e-10
  9.30218     82.1 1.113e+04 4.698e-10
  9.32274     81.5 1.119e+04 4.940e-10
  9.34143     80.6 1.105e+04 5.386e-10
  9.35171     77.9 1.131e+04 6.347e-10
  9.36385     77.0 1.154e+04 7.618e-10
  9.38441     76.7 1.177e+04 9.272e-10
  9.40392     76.8 1.192e+04 1.022e-09
  9.41420     75.1 1.283e+04 1.639e-09
  9.42552     75.8 1.269e+04 1.514e-09
  9.44607     76.1 1.251e+04 1.280e-09
  9.46640     76.3 1.221e+04 1.056e-09
  9.47668     74.6 1.294e+04 1.354e-09
  9.48719     74.7 1.249e+04 1.140e-09
  9.50428     75.3 1.217e+04 1.077e-09
  9.51455     75.9 1.187e+04 8.995e-10
  9.52830     76.6 1.176e+04 8.718e-10
  9.53917     77.7 1.159e+04 9.179e-10
  9.54945     76.3 1.242e+04 1.388e-09
  9.56941     77.1 1.309e+04 1.448e-09
  9.58997     78.1 1.330e+04 1.808e-09
  9.60165     79.9 1.311e+04 2.302e-09
  9.61193     78.5 1.391e+04 3.481e-09
  9.63108     79.8 1.458e+04 3.618e-09
  9.65163     81.3 1.493e+04 4.134e-09
  9.66414     82.3 1.527e+04 4.572e-09
  9.67442     81.2 1.534e+04 4.679e-09
  9.69275     81.7 1.551e+04 4.699e-09
  9.71330     82.4 1.564e+04 4.854e-09
  9.72662     83.3 1.566e+04 5.177e-09
  9.73690     82.6 1.527e+04 4.164e-09
  9.75441     83.8 1.512e+04 3.973e-09
  9.77497     85.1 1.494e+04 3.621e-09
  9.78911     86.5 1.477e+04 3.073e-09
  9.79939     85.7 1.361e+04 1.383e-09
  9.81608     86.3 1.339e+04 1.179e-09
  9.83664     87.2 1.302e+04 8.111e-10
  9.85159     87.3 1.288e+04 7.552e-10
  9.86187     86.4 1.173e+04 4.580e-10
  9.87775     87.9 1.098e+04 3.885e-10
  9.89831     88.1 1.113e+04 4.746e-10
  9.91408     89.3 1.093e+04 5.344e-10
  9.92436     88.3 1.044e+04 4.205e-10
  9.93731     89.3 1.080e+04 5.575e-10
  9.94759     89.6 1.084e+04 6.066e-10
  9.95997     91.0 1.097e+04 7.236e-10
  9.97656     92.2 1.136e+04 8.641e-10
  9.98684     91.6 1.121e+04 7.888e-10
 10.00109     93.0 1.143e+04 9.010e-10
 10.02164     93.8 1.180e+04 1.072e-09
 10.03905     95.6 1.166e+04 1.041e-09
 10.04933     95.0 1.166e+04 1.023e-09
 10.06275     96.3 1.181e+04 1.106e-09
 10.08331     98.0 1.170e+04 1.086e-09
 10.10153     99.4 1.172e+04 1.090e-09
 10.11181     98.8 1.174e+04 1.104e-09
 10.12442    100.0 1.199e+04 1.168e-09
 10.14498    100.1 1.264e+04 1.343e-09
 10.16402     99.8 1.352e+04 1.708e-09
 10.17430     99.0 1.351e+04 1.753e-09
 10.18609     98.1 1.467e+04 2.599e-09
 10.20665     97.0 1.609e+04 4.517e-09
 10.22650     96.0 1.793e+04 8.777e-09
 10.23678     95.4 1.731e+04 7.033e-09
 10.24776     94.4 1.867e+04 1.095e-08
 10.26831     92.7 2.010e+04 1.515e-08
 10.28368     89.9 2.100e+04 1.770e-08
 10.29391     88.5 2.140e+04 2.023e-08
 10.29917     87.4 2.155e+04 2.361e-08
 10.30950     86.7 2.117e+04 1.997e-08
 10.32998     85.3 2.066e+04 1.840e-08
 10.35054     83.7 2.019e+04 1.114e-08
 10.36175     80.5 1.864e+04 5.511e-09
 10.37128     81.3 1.827e+04 5.682e-09
 10.38063     79.5 1.727e+04 4.124e-09
 10.39165     76.1 1.541e+04 2.402e-09
 10.41221     74.0 1.377e+04 1.493e-09
 10.42424     73.4 1.267e+04 1.099e-09
 10.43451     75.0 1.362e+04 1.397e-09
 10.45332     74.9 1.302e+04 1.106e-09
 10.47387     74.6 1.265e+04 1.043e-09
 10.48672     74.7 1.268e+04 1.025e-09
 10.49700     74.6 1.372e+04 1.654e-09
 10.51499     74.7 1.365e+04 1.844e-09
 10.53554     74.6 1.386e+04 1.787e-09
 10.54921     74.6 1.355e+04 1.822e-09
 10.55948     75.2 1.490e+04 3.120e-09
 10.57665     74.9 1.453e+04 2.609e-09
 10.59721     75.1 1.363e+04 2.323e-09
 10.61169     75.6 1.310e+04 1.910e-09
 10.62197     75.8 1.392e+04 2.377e-09
 10.63832     76.0 1.328e+04 1.889e-09
 10.65888     76.3 1.300e+04 1.552e-09
 10.67418     76.4 1.265e+04 1.393e-09
 10.68446     75.6 1.267e+04 1.381e-09
 10.69999     76.1 1.250e+04 1.242e-09
 10.72055     76.8 1.230e+04 1.134e-09
 10.73666     77.7 1.215e+04 9.960e-10
 10.74694     77.2 1.215e+04 9.725e-10
 10.76166     77.9 1.200e+04 8.895e-10
 10.78221     78.6 1.177e+04 7.759e-10
 10.79915     79.2 1.151e+04 7.050e-10
 10.80943     78.9 1.151e+04 6.482e-10
 10.81366     79.6 1.130e+04 6.380e-10
 10.82394     79.4 1.132e+04 6.522e-10
 10.84388     80.2 1.124e+04 6.435e-10
 10.86163     80.9 1.118e+04 6.401e-10
 10.87191     80.7 1.103e+04 5.787e-10
 10.88499     81.6 1.101e+04 6.110e-10
 10.90555     82.5 1.105e+04 6.528e-10
 10.92412     83.2 1.114e+04 6.890e-10
 10.93440     83.1 1.093e+04 6.272e-10
 10.94666     83.8 1.112e+04 6.835e-10
 10.96722     84.2 1.145e+04 7.855e-10
 10.98660     85.1 1.156e+04 8.769e-10
 10.99688     84.9 1.130e+04 7.654e-10
 11.00833     85.2 1.159e+04 8.751e-10
 11.02889     87.6 1.106e+04 7.516e-10
 11.04909     87.5 1.110e+04 7.514e-10
 11.05937     87.5 1.100e+04 6.780e-10
 11.07000     89.2 1.092e+04 6.120e-10
 11.09055     89.3 1.095e+04 6.114e-10
 11.11111     90.5 1.095e+04 5.853e-10
 11.12185     90.7 1.097e+04 5.851e-10
 11.13213     91.0 1.082e+04 4.982e-10
 11.15222     92.6 1.059e+04 4.424e-10
 11.17278     93.1 1.102e+04 4.977e-10
 11.18434     93.1 1.174e+04 6.507e-10
 11.19461     93.4 1.138e+04 5.920e-10
 11.21389     93.2 1.239e+04 8.623e-10
 11.23445     92.6 1.383e+04 1.634e-09
 11.24670     93.2 1.551e+04 3.612e-09
 11.24879     92.9 1.491e+04 2.546e-09
 11.25710     93.7 1.469e+04 2.054e-09
 11.27556     95.0 1.647e+04 4.406e-09
 11.29611     97.8 1.822e+04 8.399e-09
 11.30926    100.3 1.958e+04 1.177e-08
 11.31435     99.1 1.997e+04 1.169e-08
 11.32171     99.7 2.138e+04 1.440e-08
 11.33199     98.4 2.554e+04 2.212e-08
 11.34045     94.3 2.990e+04 6.542e-08
 11.34559     84.7 2.823e+04 2.113e-07
 11.35255     82.0 2.493e+04 4.963e-07
 11.36282     80.2 2.377e+04 7.068e-07
 11.37169     79.5 2.310e+04 7.874e-07
 11.37683     75.8 2.263e+04 3.697e-07
 11.38338     75.4 2.292e+04 2.031e-07
 11.39366     71.7 3.310e+04 6.719e-08
 11.40294     57.7 6.864e+04 1.020e-08
 11.40807     52.1 1.071e+05 5.580e-10
 11.41421     36.7 1.193e+05 2.918e-10
 11.42449     28.5 1.078e+05 3.983e-10
 11.43418     21.0 5.757e+04 1.922e-09
 11.44451     18.3 5.265e+04 3.797e-10
 11.46056     11.3 2.829e+04 4.102e-10
 11.48112     10.0 2.144e+04 7.168e-10
 11.49676     13.6 1.987e+04 1.369e-09
 11.50704     19.7 1.381e+04 4.571e-10
 11.52223     21.4 1.615e+04 6.379e-10
 11.54279     23.4 1.663e+04 1.160e-09
 11.55925     25.3 1.689e+04 2.068e-09
 11.56952     28.4 1.443e+04 7.114e-10
 11.58390     29.6 1.609e+04 1.348e-09
 11.60445     31.4 1.708e+04 2.577e-09
 11.62173     33.3 1.749e+04 4.334e-09
 11.63201     35.1 1.678e+04 1.955e-09
 11.64557     36.8 1.744e+04 3.560e-09
 11.66612     38.6 1.756e+04 5.697e-09
 11.67973     40.7 1.774e+04 8.012e-09
 11.68755     41.3 1.846e+04 1.081e-08
 11.69449     42.3 1.839e+04 7.759e-09
 11.70723     44.2 1.856e+04 1.060e-08
 11.72055     46.0 1.852e+04 1.093e-08
 11.72564     46.4 1.830e+04 1.009e-08
 11.73283     46.4 1.831e+04 1.013e-08
 11.74311     48.2 1.863e+04 1.091e-08
 11.75174     48.1 1.903e+04 1.160e-08
 11.75693     49.7 1.898e+04 1.003e-08
 11.76371     50.6 1.920e+04 9.958e-09
 11.77394     50.3 1.972e+04 1.095e-08
 11.78299     50.2 2.073e+04 1.548e-08
 11.78812     51.8 2.024e+04 1.032e-08
 11.79450     51.2 2.114e+04 1.293e-08
 11.80478     50.9 2.177e+04 1.862e-08
 11.81423     50.5 2.207e+04 2.389e-08
 11.81937     51.5 2.226e+04 1.525e-08
 11.82533     51.2 2.225e+04 2.177e-08
 11.83561     51.2 2.210e+04 2.780e-08
 11.84547     51.3 2.174e+04 3.363e-08
 11.85061     51.6 2.221e+04 2.308e-08
 11.85617     50.8 2.215e+04 3.001e-08
 11.86645     48.7 2.298e+04 4.345e-08
 11.87671     45.0 2.527e+04 7.788e-08
 11.88699     37.5 2.596e+04 1.217e-07
 11.89615     34.0 2.472e+04 2.018e-07
 11.90129     29.8 2.316e+04 4.907e-07
 11.90756     28.2 2.230e+04 6.581e-07
 11.91309     27.7 2.244e+04 6.937e-07
 11.91823     26.2 2.345e+04 3.272e-07
 11.92811     26.5 2.842e+04 9.934e-08
 11.93839     25.9 3.825e+04 1.847e-08
 11.94434     23.0 5.234e+04 5.537e-09
 11.94948     21.8 3.817e+04 6.826e-09
 11.95895     19.8 4.426e+04 2.974e-09
 11.97441     15.0 3.934e+04 1.719e-09
 11.99502      4.9 2.699e+04 4.766e-10
 12.00692     -3.5 1.160e+04 4.945e-10
 12.01720     -4.8 1.000e+04 5.190e-10
 12.03613     -3.6 1.023e+04 5.334e-10
 12.05669     -2.6 1.053e+04 5.600e-10
 12.06941     -2.1 1.062e+04 6.106e-10
 12.07968     -1.6 1.070e+04 6.230e-10
 12.09780     -1.2 1.083e+04 6.994e-10
 12.11277     -0.7 1.097e+04 7.659e-10
 12.12305     -1.8 1.097e+04 7.669e-10
 12.13189     -1.4 1.109e+04 8.091e-10
 12.14217     -1.4 1.130e+04 8.732e-10
 12.15947     -1.3 1.138e+04 9.100e-10
 12.18002     -1.4 1.142e+04 9.279e-10
 12.19438     -1.6 1.144e+04 9.231e-10
 12.20465     -1.8 1.167e+04 1.016e-09
 12.22113     -1.9 1.164e+04 9.905e-10
 12.24169     -2.1 1.158e+04 9.252e-10
 12.25686     -2.2 1.148e+04 8.432e-10
 12.26714     -2.3 1.153e+04 8.476e-10
 12.28280     -2.5 1.137e+04 7.418e-10
 12.30336     -2.7 1.121e+04 6.610e-10
 12.31935     -3.0 1.105e+04 6.066e-10
 12.32962     -3.1 1.095e+04 5.681e-10
 12.34447     -3.4 1.077e+04 5.418e-10
 12.36503     -3.7 1.065e+04 5.351e-10
 12.39596     -4.1 1.045e+04 5.262e-10
 12.43423     -3.3 1.019e+04 4.759e-10
 12.45479     -2.9 1.025e+04 4.888e-10
 12.47828     -1.9 1.002e+04 4.308e-10
 12.51939     -1.1 9.901e+03 3.708e-10
 12.55920     -0.5 9.852e+03 3.278e-10
 12.57976     -0.5 1.006e+04 3.807e-10
 12.59124     -0.7 9.907e+03 3.329e-10
 12.61170     -0.9 9.953e+03 3.435e-10
 12.63177     -1.5 1.005e+04 4.106e-10
 12.64205     -1.8 1.024e+04 4.908e-10
 12.65281     -1.9 1.052e+04 6.225e-10
 12.67337     -1.7 1.084e+04 7.861e-10
 12.69392     -1.5 1.119e+04 9.407e-10
 12.70453     -1.4 1.142e+04 1.053e-09
 12.71481     -1.5 1.138e+04 1.014e-09
 12.73503     -1.5 1.144e+04 1.037e-09
 12.75559     -1.7 1.145e+04 1.010e-09
 12.76702     -1.9 1.135e+04 9.200e-10
 12.77730     -2.1 1.117e+04 8.141e-10
 12.79670     -2.3 1.110e+04 7.587e-10
 12.81726     -2.6 1.105e+04 7.187e-10
 12.82950     -2.9 1.100e+04 6.927e-10
 12.83978     -2.9 1.094e+04 6.660e-10
 12.85837     -3.0 1.093e+04 6.748e-10
 12.87893     -3.0 1.096e+04 6.950e-10
 12.89199     -3.0 1.099e+04 7.288e-10
 12.90227     -3.0 1.129e+04 8.428e-10
 12.92004     -2.7 1.138e+04 8.903e-10
 12.94059     -2.4 1.146e+04 9.380e-10
 12.95447     -2.0 1.155e+04 9.906e-10
 12.97226     -1.7 1.204e+04 1.210e-09
 12.98932     -2.8 1.189e+04 1.130e-09
 13.00236     -2.2 1.192e+04 1.136e-09
 13.01696     -2.4 1.201e+04 1.153e-09
 13.02724     -2.3 1.225e+04 1.255e-09
 13.04337     -3.5 1.266e+04 1.387e-09
 13.06393     -5.4 1.315e+04 1.814e-09
 13.07944     -6.2 1.355e+04 2.493e-09
 13.08972     -6.7 1.418e+04 3.198e-09
 13.10504     -6.7 1.471e+04 4.451e-09
 13.12560     -6.3 1.501e+04 5.097e-09
 13.14193     -5.9 1.506e+04 5.154e-09
 13.15221     -6.0 1.584e+04 6.933e-09
 13.16671     -5.7 1.553e+04 5.444e-09
 13.18727     -5.8 1.470e+04 3.216e-09
 13.20441     -7.1 1.360e+04 1.751e-09
 13.21469     -7.7 1.417e+04 2.299e-09
 13.22838     -9.0 1.300e+04 1.385e-09
 13.24893     -9.6 1.214e+04 9.713e-10
 13.26690     -9.7 1.167e+04 7.657e-10
 13.27718    -10.1 1.205e+04 9.456e-10
 13.29005     -9.9 1.170e+04 7.664e-10
 13.31060     -9.7 1.147e+04 6.516e-10
 13.32938     -9.3 1.133e+04 5.792e-10
 13.33966    -10.0 1.147e+04 6.430e-10
 13.35171     -9.7 1.134e+04 5.842e-10
 13.37227     -9.2 1.125e+04 5.429e-10
 13.39187     -8.7 1.118e+04 5.097e-10
 13.40215     -9.4 1.128e+04 5.552e-10
 13.41188     -8.8 1.121e+04 5.178e-10
 13.42216     -9.0 1.115e+04 4.794e-10
 13.43394     -8.3 1.107e+04 4.548e-10
 13.45445     -7.3 1.098e+04 4.176e-10
 13.47501     -8.2 1.097e+04 4.292e-10
 13.50598     -7.7 1.088e+04 3.984e-10
 13.54719     -6.7 1.066e+04 3.406e-10
 13.57952     -5.5 1.037e+04 2.899e-10
 13.60008     -6.2 1.035e+04 2.852e-10
 13.62942     -4.8 1.012e+04 2.432e-10
 13.67053     -3.3 9.951e+03 2.045e-10
 13.70449     -1.8 9.856e+03 1.709e-10
 13.72505     -2.0 9.834e+03 1.619e-10
 13.75275     -0.4 9.746e+03 1.356e-10
 13.79386      1.1 9.699e+03 1.195e-10
 13.82946      2.6 9.682e+03 1.121e-10
 13.84987      2.6 9.694e+03 1.152e-10
 13.87594      3.5 9.810e+03 1.269e-10
 13.91720      4.7 9.960e+03 1.598e-10
 13.95443      6.1 1.017e+04 2.385e-10
 13.97499      5.9 1.040e+04 3.087e-10
 13.99942      7.4 1.070e+04 4.364e-10
 14.04054      8.6 1.114e+04 6.010e-10
 14.07940      9.3 1.171e+04 7.898e-10
 14.09996      8.3 1.168e+04 7.745e-10
 14.12276      8.9 1.200e+04 9.403e-10
 14.16387      9.5 1.227e+04 1.148e-09
 14.20437     10.5 1.237e+04 1.257e-09
 14.22493      9.7 1.254e+04 1.316e-09
 14.24610     10.6 1.263e+04 1.250e-09
 14.28721     11.3 1.249e+04 1.157e-09
 14.32832     12.3 1.234e+04 1.112e-09
 14.34990     13.8 1.216e+04 1.055e-09
 14.37045     13.5 1.230e+04 1.088e-09
 14.41054     15.4 1.191e+04 8.717e-10
 14.45166     17.6 1.155e+04 6.452e-10
 14.47487     19.7 1.125e+04 4.610e-10
 14.49542     19.8 1.109e+04 3.307e-10
 14.53388     21.8 1.083e+04 2.533e-10
 14.57499     24.1 1.069e+04 2.301e-10
 14.59984     26.6 1.061e+04 2.310e-10
 14.62039     26.8 1.051e+04 1.584e-10
 14.65722     29.4 1.049e+04 1.726e-10
 14.69833     31.8 1.052e+04 1.975e-10
 14.72146     34.4 1.056e+04 2.307e-10
 14.72738     33.5 1.060e+04 2.191e-10
 14.74536     33.9 1.047e+04 1.871e-10
 14.78055     36.7 1.053e+04 2.300e-10
 14.82166     39.5 1.064e+04 2.539e-10
 14.84978     41.8 1.074e+04 2.641e-10
 14.87033     42.5 1.069e+04 2.240e-10
 14.90389     44.5 1.076e+04 2.558e-10
 14.94500     46.4 1.098e+04 3.348e-10
 14.97475     47.9 1.141e+04 4.909e-10
 14.99530     48.6 1.126e+04 4.234e-10
 15.02722     49.8 1.191e+04 8.121e-10
 15.06834     50.9 1.317e+04 1.639e-09
 15.09907     51.6 1.396e+04 2.947e-09
 15.10980     52.9 1.403e+04 3.681e-09
 15.12008     53.1 1.404e+04 3.480e-09
 15.14009     54.3 1.405e+04 3.670e-09
 15.15430     55.8 1.383e+04 3.371e-09
 15.16458     55.0 1.351e+04 2.688e-09
 15.17229     56.1 1.310e+04 1.802e-09
 15.18256     55.9 1.322e+04 2.089e-09
 15.20175     56.4 1.297e+04 1.689e-09
 15.22459     57.1 1.254e+04 1.141e-09
 15.24524     57.7 1.286e+04 1.403e-09
 15.27390     58.0 1.258e+04 1.129e-09
 15.29735     57.3 1.259e+04 1.140e-09
 15.30753     57.3 1.271e+04 1.109e-09
 15.32509     56.6 1.316e+04 1.480e-09
 15.34565     55.8 1.376e+04 2.207e-09
 15.35974     56.4 1.402e+04 3.218e-09
 15.37002     56.4 1.388e+04 3.050e-09
 15.38676     57.7 1.410e+04 3.687e-09
 15.40731     59.1 1.402e+04 3.525e-09
 15.42223     60.2 1.385e+04 2.980e-09
 15.43250     59.7 1.374e+04 2.733e-09
 15.44843     59.6 1.357e+04 2.139e-09
 15.46898     59.1 1.325e+04 1.780e-09
 15.48471     58.6 1.301e+04 1.647e-09
 15.49499     58.3 1.301e+04 1.766e-09
 15.51009     58.2 1.304e+04 1.836e-09
 15.53065     58.4 1.313e+04 2.005e-09
 15.54720     58.6 1.334e+04 2.251e-09
 15.55748     58.5 1.350e+04 2.474e-09
 15.57176     58.8 1.370e+04 2.847e-09
 15.58734     59.0 1.396e+04 3.254e-09
 15.59761     58.0 1.312e+04 2.268e-09
 15.60968     58.2 1.315e+04 2.270e-09
 15.61996     58.3 1.335e+04 2.523e-09
 15.63343     58.3 1.337e+04 2.473e-09
 15.65399     58.2 1.320e+04 2.267e-09
 15.67217     57.6 1.280e+04 1.875e-09
 15.68245     57.3 1.308e+04 2.175e-09
 15.69510     57.0 1.276e+04 1.863e-09
 15.72447     55.7 1.151e+04 8.928e-10
 15.74513     55.9 1.212e+04 1.071e-09
 15.76724     54.0 1.162e+04 8.084e-10
 15.80835     52.5 1.111e+04 8.208e-10
 15.84946     52.4 1.102e+04 9.943e-10
 15.89058     53.6 1.072e+04 8.453e-10
 15.93169     54.3 1.023e+04 6.692e-10
 15.97280     55.3 9.721e+03 4.241e-10
 15.99507     56.0 9.023e+03 2.304e-10
 16.01562     57.1 9.403e+03 3.074e-10
 16.05502     57.6 8.606e+03 1.494e-10
 16.09614     57.5 8.272e+03 9.851e-11
 16.12004     58.6 8.055e+03 8.970e-11
 16.14059     59.1 8.107e+03 9.319e-11
 16.17836     60.6 8.099e+03 9.702e-11
 16.21947     62.2 8.137e+03 1.101e-10
 16.24501     64.0 8.217e+03 1.310e-10
 16.26556     64.2 8.277e+03 1.372e-10
 16.30170     66.0 8.365e+03 1.538e-10
 16.34281     67.8 8.419e+03 1.656e-10
 16.36998     69.5 8.458e+03 1.682e-10
 16.39053     69.2 8.434e+03 1.545e-10
 16.42503     70.8 8.418e+03 1.484e-10
 16.45360     72.4 8.397e+03 1.407e-10
 16.47416     71.9 8.383e+03 1.397e-10
 16.49495     73.4 8.384e+03 1.326e-10
 16.51550     72.6 8.229e+03 1.049e-10
 16.54837     73.9 8.247e+03 1.036e-10
 16.58948     75.0 8.303e+03 1.095e-10
 16.61992     75.9 8.471e+03 1.369e-10
 16.64047     74.7 8.457e+03 1.369e-10
 16.67170     75.3 8.805e+03 1.939e-10
 16.71282     75.7 9.302e+03 2.953e-10
 16.74489     75.8 9.827e+03 4.466e-10
 16.76544     75.3 9.453e+03 3.252e-10
 16.79504     74.9 9.575e+03 3.745e-10
 16.83615     73.7 9.674e+03 4.392e-10
 16.86986     71.9 1.004e+04 5.879e-10
 16.89041     72.3 1.005e+04 5.954e-10
 16.90800     69.8 1.114e+04 9.235e-10
 16.92846     66.2 1.262e+04 1.752e-09
 16.94243     64.7 1.315e+04 2.912e-09
 16.95270     64.8 1.368e+04 3.486e-09
 16.96957     64.4 1.373e+04 3.866e-09
 16.99013     60.6 1.568e+04 5.188e-09
 17.00491     53.6 1.773e+04 5.861e-09
 17.01519     54.8 1.788e+04 6.292e-09
 17.03124     50.6 1.556e+04 5.163e-09
 17.05180     48.8 1.292e+04 3.163e-09
 17.06740     47.7 1.255e+04 1.302e-09
 17.07767     47.9 1.250e+04 1.574e-09
 17.09291     43.8 1.241e+04 7.159e-10
 17.11346     38.1 9.972e+03 3.097e-10
 17.12988     35.9 8.913e+03 2.220e-10
 17.14016     36.8 9.068e+03 2.445e-10
 17.15458     36.8 9.036e+03 2.185e-10
 17.17513     36.8 9.030e+03 2.164e-10
 17.20606     37.5 8.991e+03 1.855e-10
 17.24477     37.3 8.731e+03 1.554e-10
 17.26532     38.7 8.864e+03 1.761e-10
 17.28838     39.3 8.686e+03 1.581e-10
 17.31967     40.2 8.604e+03 1.392e-10
 17.34023     39.6 8.862e+03 1.625e-10
 17.36974     40.5 8.560e+03 1.258e-10
 17.39029     41.8 8.610e+03 1.235e-10
 17.41172     42.8 8.452e+03 1.022e-10
 17.45283     43.6 8.519e+03 9.361e-11
 17.49394     43.6 8.828e+03 1.049e-10
 17.51526     43.0 9.236e+03 2.231e-10
 17.53582     44.1 9.340e+03 2.401e-10
 17.56579     44.1 9.894e+03 5.051e-10
 17.57755     44.4 1.024e+04 7.534e-10
 17.58783     44.8 1.030e+04 7.774e-10
 17.60681     46.0 1.038e+04 9.718e-10
 17.62736     47.3 1.047e+04 1.015e-09
 17.64004     48.4 1.042e+04 8.806e-10
 17.65032     48.9 1.039e+04 8.650e-10
 17.66848     49.4 1.021e+04 6.475e-10
 17.68903     48.6 1.002e+04 4.174e-10
 17.70252     47.8 9.686e+03 3.514e-10
 17.71280     48.1 9.607e+03 3.255e-10
 17.74052     47.7 9.206e+03 2.642e-10
 17.76520     48.3 8.921e+03 2.448e-10
 17.78576     48.9 8.792e+03 2.287e-10
 17.82284     50.3 8.804e+03 2.663e-10
 17.86395     52.1 8.867e+03 2.864e-10
 17.89017     53.8 8.897e+03 2.952e-10
 17.91073     54.6 8.893e+03 2.957e-10
 17.94618     56.1 9.080e+03 3.047e-10
 17.98729     56.9 9.385e+03 3.688e-10
 18.01505     58.4 9.424e+03 4.452e-10
 18.02523     58.6 9.472e+03 4.509e-10
 18.03848     59.2 9.599e+03 5.149e-10
 18.05904     60.1 9.652e+03 5.638e-10
 18.07743     60.8 9.742e+03 5.996e-10
 18.08771     61.0 9.859e+03 6.469e-10
 18.10015     61.5 1.010e+04 6.859e-10
 18.12071     58.0 1.192e+04 1.046e-09
 18.13992     52.6 1.454e+04 2.135e-09
 18.15020     52.5 1.486e+04 2.307e-09
 18.16182     49.1 1.500e+04 4.353e-09
 18.17625     49.6 1.444e+04 6.063e-09
 18.18134     49.0 1.477e+04 6.519e-09
 18.18742     48.6 1.516e+04 7.391e-09
 18.19573     48.3 1.562e+04 8.040e-09
 18.20087     48.9 1.548e+04 8.203e-09
 18.20745     48.8 1.629e+04 7.639e-09
 18.21259     47.8 1.687e+04 8.955e-09
 18.22344     47.6 1.724e+04 6.595e-09
 18.24404     43.8 1.542e+04 2.764e-09
 18.26460     37.3 1.219e+04 9.590e-10
 18.27517     34.4 1.087e+04 5.849e-10
 18.28545     32.5 1.082e+04 6.084e-10
 18.30571     31.1 1.010e+04 5.057e-10
 18.32627     32.1 9.983e+03 4.949e-10
 18.33765     32.9 1.004e+04 5.124e-10
 18.34793     32.2 1.021e+04 6.005e-10
 18.36738     32.8 1.005e+04 5.949e-10
 18.38794     34.4 1.025e+04 6.319e-10
 18.40014     34.7 1.016e+04 6.217e-10
 18.41042     33.8 1.068e+04 8.221e-10
 18.42905     35.9 1.090e+04 8.892e-10
 18.44960     36.2 1.073e+04 8.500e-10
 18.46262     37.3 1.069e+04 8.124e-10
 18.47290     36.4 1.133e+04 1.159e-09
 18.49072     36.9 1.137e+04 1.036e-09
 18.51127     36.8 1.125e+04 8.942e-10
 18.52511     36.4 1.103e+04 8.145e-10
 18.53539     35.5 1.152e+04 1.155e-09
 18.55238     35.3 1.113e+04 9.824e-10
 18.57294     35.2 1.106e+04 9.412e-10
 18.60387     35.1 1.095e+04 9.571e-10
 18.62896     35.4 1.079e+04 8.646e-10
 18.63914     35.5 1.077e+04 8.611e-10
 18.65008     35.3 1.079e+04 8.321e-10
 18.66036     33.9 1.111e+04 9.132e-10
 18.67572     32.7 1.123e+04 8.814e-10
 18.69628     31.1 1.158e+04 1.009e-09
 18.71256     29.6 1.182e+04 1.286e-09
 18.72284     28.5 1.219e+04 1.680e-09
 18.73739     28.1 1.253e+04 2.217e-09
 18.75794     28.1 1.303e+04 2.776e-09
 18.77505     27.9 1.353e+04 3.153e-09
 18.78533     26.8 1.405e+04 3.514e-09
 18.79906     25.8 1.429e+04 3.613e-09
 18.81961     24.4 1.404e+04 3.366e-09
 18.83753     23.4 1.361e+04 3.117e-09
 18.84781     22.4 1.357e+04 3.122e-09
 18.86072     22.5 1.325e+04 2.832e-09
 18.88128     23.0 1.300e+04 2.412e-09
 18.90002     23.1 1.265e+04 1.883e-09
 18.91030     22.7 1.247e+04 1.712e-09
 18.93277     23.1 1.206e+04 1.311e-09
 18.97398     24.0 1.126e+04 8.286e-10
 19.01491     25.5 1.082e+04 5.902e-10
 19.05164     27.4 1.052e+04 3.819e-10
 19.07237     27.2 1.000e+04 2.687e-10
 19.09731     29.7 9.930e+03 2.673e-10
 19.12805     32.2 1.024e+04 3.185e-10
 19.14851     32.4 1.018e+04 3.178e-10
 19.16033     34.8 1.064e+04 3.808e-10
 19.17061     34.4 1.079e+04 4.157e-10
 19.18962     34.6 1.084e+04 4.235e-10
 19.21018     35.0 1.192e+04 6.724e-10
 19.22272     32.6 1.398e+04 1.548e-09
 19.23300     32.4 1.373e+04 1.880e-09
 19.25129     31.1 1.594e+04 5.036e-09
 19.27184     30.5 1.825e+04 1.195e-08
 19.28351     30.9 1.926e+04 1.937e-08
 19.28655     30.6 1.946e+04 1.988e-08
 19.29544     30.6 1.911e+04 1.706e-08
 19.31296     29.8 1.946e+04 1.992e-08
 19.33351     28.9 1.844e+04 1.560e-08
 19.34769     28.2 1.689e+04 9.554e-09
 19.35797     28.1 1.608e+04 8.558e-09
 19.37462     28.9 1.551e+04 4.011e-09
 19.39518     26.6 1.457e+04 1.626e-09
 19.41028     23.7 1.258e+04 9.122e-10
 19.43093     24.5 1.237e+04 7.581e-10
 19.46732     25.9 1.171e+04 6.019e-10
 19.50843     28.3 1.126e+04 4.784e-10
 19.53534     30.4 1.108e+04 4.064e-10
 19.55590     30.6 1.096e+04 3.604e-10
 19.59066     32.7 1.074e+04 3.459e-10
 19.63177     34.9 1.058e+04 2.921e-10
 19.66031     36.9 1.051e+04 2.281e-10
 19.68087     37.4 1.041e+04 2.606e-10
 19.71399     38.6 1.026e+04 2.077e-10
 19.75511     39.9 1.006e+04 2.007e-10
 19.78528     41.6 1.004e+04 2.169e-10
 19.80584     41.8 9.900e+03 2.171e-10
 19.83733     43.4 9.982e+03 2.230e-10
 19.87844     44.9 1.004e+04 2.410e-10
 19.91025     46.0 1.024e+04 2.960e-10
 19.92915     46.1 1.017e+04 2.839e-10
 19.93845     45.8 1.017e+04 3.109e-10
 19.95029     46.2 1.048e+04 4.146e-10
 19.97075     46.3 1.069e+04 5.049e-10
 19.98282     46.8 1.085e+04 6.889e-10
 19.99310     46.8 1.084e+04 7.256e-10
 20.01186     48.1 1.086e+04 8.906e-10
 20.03242     49.2 1.090e+04 9.126e-10
 20.04531     50.5 1.077e+04 8.424e-10
 20.05558     50.5 1.076e+04 8.428e-10
 20.07353     51.2 1.080e+04 6.936e-10
 20.09408     51.1 1.080e+04 5.634e-10
 20.10779     50.7 1.067e+04 4.688e-10
 20.11807     50.3 1.063e+04 4.931e-10
 20.13520     50.0 1.048e+04 4.752e-10
 20.15575     49.7 1.056e+04 5.278e-10
 20.17028     49.2 1.085e+04 6.025e-10
 20.18055     49.1 1.088e+04 6.503e-10
 20.20724     49.6 1.108e+04 9.908e-10
 20.24845     51.0 1.099e+04 1.033e-09
 20.28516     53.1 1.067e+04 8.599e-10
 20.30572     53.2 1.038e+04 7.431e-10
 20.33067     54.4 9.935e+03 4.739e-10
 20.37179     54.8 9.538e+03 3.334e-10
 20.41013     56.0 9.409e+03 3.293e-10
 20.43069     56.3 9.009e+03 2.265e-10
 20.45401     57.8 9.093e+03 2.721e-10
 20.49512     59.7 9.367e+03 3.556e-10
 20.53510     61.4 9.655e+03 4.334e-10
 20.55566     62.3 9.258e+03 3.215e-10
 20.57735     64.0 9.437e+03 3.697e-10
 20.61846     65.3 9.604e+03 4.017e-10
 20.65957     66.4 9.834e+03 4.237e-10
 20.68053     67.2 9.893e+03 4.295e-10
 20.69071     67.8 9.915e+03 4.547e-10
 20.71076     68.4 9.894e+03 4.666e-10
 20.73132     68.9 1.001e+04 4.690e-10
 20.74292     69.4 1.011e+04 4.615e-10
 20.75320     70.0 1.019e+04 5.337e-10
 20.77243     70.4 1.037e+04 5.296e-10
 20.79299     70.7 1.058e+04 5.258e-10
 20.80432     70.9 1.070e+04 5.252e-10
 20.80646     70.3 1.044e+04 4.560e-10
 20.81568     70.5 1.078e+04 5.958e-10
 20.83410     70.9 1.081e+04 6.110e-10
 20.85466     71.2 1.083e+04 6.432e-10
 20.86789     71.6 1.088e+04 6.880e-10
 20.87817     71.6 1.137e+04 9.087e-10
 20.89577     71.7 1.146e+04 9.577e-10
 20.91632     71.8 1.158e+04 1.021e-09
 20.93038     71.6 1.182e+04 1.146e-09
 20.94065     70.8 1.224e+04 1.338e-09
 20.95744     70.1 1.276e+04 1.648e-09
 20.97799     69.2 1.364e+04 2.373e-09
 20.99286     68.2 1.455e+04 3.609e-09
 21.00314     67.2 1.452e+04 3.553e-09
 21.01910     67.2 1.524e+04 5.241e-09
 21.03966     68.0 1.577e+04 7.213e-09
 21.05535     69.2 1.612e+04 8.466e-09
 21.06562     68.9 1.523e+04 5.563e-09
 21.08077     70.1 1.519e+04 5.212e-09
 21.10133     70.5 1.523e+04 4.360e-09
 21.11783     68.5 1.632e+04 4.287e-09
 21.12811     64.4 1.630e+04 3.648e-09
 21.14244     59.2 1.825e+04 6.372e-09
 21.16300     56.8 1.845e+04 1.114e-08
 21.18032     56.4 1.814e+04 1.237e-08
 21.19059     55.1 1.877e+04 1.347e-08
 21.20411     54.5 1.807e+04 9.906e-09
 21.22466     51.8 1.668e+04 5.113e-09
 21.23736     46.6 1.450e+04 2.045e-09
 21.24522     45.7 1.313e+04 1.716e-09
 21.25308     43.8 1.253e+04 1.403e-09
 21.26578     41.9 1.139e+04 7.935e-10
 21.28633     40.1 1.088e+04 5.399e-10
 21.30529     38.4 1.072e+04 4.429e-10
 21.31556     37.5 1.057e+04 4.358e-10
 21.32744     37.2 1.041e+04 4.089e-10
 21.34800     37.4 1.017e+04 4.123e-10
 21.36777     38.0 1.002e+04 4.102e-10
 21.37805     37.7 1.001e+04 4.096e-10
 21.38911     38.6 9.873e+03 4.132e-10
 21.40967     39.4 9.865e+03 4.216e-10
 21.43022     40.4 9.915e+03 4.247e-10
 21.45078     40.6 1.009e+04 4.489e-10
 21.47134     40.8 1.024e+04 4.792e-10
 21.49189     40.5 1.056e+04 5.432e-10
 21.50302     38.8 1.154e+04 7.702e-10
 21.51330     38.0 1.166e+04 8.392e-10
 21.53300     36.4 1.230e+04 1.281e-09
 21.55356     36.2 1.258e+04 1.941e-09
 21.56550     37.5 1.238e+04 2.394e-09
 21.57578     37.4 1.225e+04 2.100e-09
 21.59467     38.4 1.215e+04 1.938e-09
 21.61523     39.1 1.201e+04 1.591e-09
 21.62799     38.7 1.192e+04 1.093e-09
 21.63827     38.0 1.161e+04 8.807e-10
 21.65634     37.1 1.118e+04 6.868e-10
 21.67040     36.3 1.085e+04 5.589e-10
 21.68067     34.3 1.046e+04 5.194e-10
 21.69047     34.3 1.040e+04 5.137e-10
 21.70075     34.3 1.035e+04 5.122e-10
 21.71801     35.0 1.024e+04 5.296e-10
 21.73856     35.0 1.026e+04 5.341e-10
 21.76950     35.8 1.049e+04 5.972e-10
 21.80536     36.1 1.088e+04 6.900e-10
 21.82592     34.4 1.139e+04 8.412e-10
 21.85182     33.6 1.204e+04 1.125e-09
 21.87803     33.4 1.219e+04 1.302e-09
 21.88821     32.7 1.224e+04 1.380e-09
 21.90301     32.7 1.229e+04 1.404e-09
 21.92357     32.8 1.221e+04 1.539e-09
 21.94042     33.3 1.226e+04 1.581e-09
 21.95069     32.6 1.243e+04 1.671e-09
 21.96468     33.6 1.231e+04 1.489e-09
 21.98524     34.7 1.195e+04 1.318e-09
 22.01617     35.1 1.168e+04 7.718e-10
 22.05530     35.0 1.141e+04 5.318e-10
 22.07586     33.2 1.095e+04 3.013e-10
 22.09849     33.5 1.072e+04 3.230e-10
 22.13960     34.9 1.047e+04 3.982e-10
 22.18027     36.5 1.035e+04 3.775e-10
 22.20083     34.4 9.825e+03 3.010e-10
 22.22183     35.4 9.899e+03 3.131e-10
 22.26294     35.8 1.012e+04 3.527e-10
 22.30405     35.9 1.042e+04 4.687e-10
 22.32580     36.8 1.063e+04 6.531e-10
 22.34636     36.4 1.049e+04 6.410e-10
 22.38627     37.9 1.033e+04 6.360e-10
 22.42739     39.8 9.983e+03 5.043e-10
 22.45077     41.5 9.643e+03 3.313e-10
 22.47133     40.8 9.221e+03 2.232e-10
 22.50961     41.9 8.958e+03 1.416e-10
 22.53666     43.0 8.615e+03 1.172e-10
 22.55722     43.1 8.615e+03 1.130e-10
 22.57574     45.0 8.527e+03 1.164e-10
 22.59630     45.3 8.398e+03 8.459e-11
 22.63295     47.3 8.350e+03 9.443e-11
 22.67406     49.5 8.332e+03 1.090e-10
 22.70071     51.8 8.327e+03 1.203e-10
 22.72127     51.7 8.281e+03 1.063e-10
 22.75628     54.1 8.321e+03 1.289e-10
 22.79739     56.4 8.346e+03 1.458e-10
 22.82568     58.7 8.402e+03 1.549e-10
 22.84624     58.9 8.545e+03 1.854e-10
 22.87962     61.0 8.598e+03 1.879e-10
 22.92073     63.0 8.626e+03 1.859e-10
 22.95065     64.8 8.677e+03 1.801e-10
 22.97121     65.0 8.712e+03 1.769e-10
 23.00295     66.6 8.719e+03 1.674e-10
 23.04407     68.3 8.711e+03 1.610e-10
 23.07562     70.1 8.674e+03 1.550e-10
 23.09618     69.9 8.692e+03 1.575e-10
 23.12629     71.8 8.659e+03 1.502e-10
 23.16740     73.6 8.626e+03 1.374e-10
 23.20059     75.3 8.607e+03 1.240e-10
 23.22115     75.2 8.677e+03 1.369e-10
 23.24963     76.8 8.682e+03 1.292e-10
 23.29074     78.3 8.712e+03 1.320e-10
 23.32556     79.5 8.834e+03 1.507e-10
 23.34612     79.2 8.929e+03 1.644e-10
 23.37296     80.2 9.222e+03 2.264e-10
 23.40273     81.2 9.616e+03 3.478e-10
 23.42329     81.4 9.627e+03 3.592e-10
 23.45053     82.5 9.988e+03 4.790e-10
 23.47109     82.1 9.961e+03 4.344e-10
 23.49630     82.9 1.018e+04 4.599e-10
 23.53741     83.5 1.018e+04 4.500e-10
 23.57550     84.2 1.011e+04 3.990e-10
 23.59606     83.7 9.874e+03 3.046e-10
 23.61963     84.7 9.768e+03 2.389e-10
 23.66075     85.7 9.661e+03 1.721e-10
 23.70047     86.7 9.555e+03 1.222e-10
 23.72103     86.4 9.436e+03 1.168e-10
 23.74297     87.7 9.362e+03 1.009e-10
 23.78408     89.2 9.353e+03 1.010e-10
 23.82519     90.7 9.398e+03 1.095e-10
 23.84600     92.2 9.491e+03 1.389e-10
 23.86655     92.4 9.408e+03 1.227e-10
 23.90742     93.9 9.534e+03 1.635e-10
 23.94853     95.6 9.687e+03 2.266e-10
 23.97097     97.3 9.860e+03 3.010e-10
 23.99152     97.7 9.734e+03 2.541e-10
 24.03075     99.4 9.879e+03 3.174e-10
 24.07187    100.9 1.006e+04 3.372e-10
 24.09594    102.2 1.008e+04 3.318e-10
 24.11649    102.8 1.003e+04 2.775e-10
 24.15409    103.9 1.005e+04 2.754e-10
 24.19520    105.0 1.005e+04 2.833e-10
 24.22091    106.1 1.010e+04 3.296e-10
 24.24146    106.9 1.021e+04 3.284e-10
 24.26881    107.7 1.034e+04 4.236e-10
 24.28495    108.4 1.033e+04 4.774e-10
 24.29348    108.9 1.045e+04 5.087e-10
 24.30807    109.4 1.056e+04 5.831e-10
 24.32862    110.0 1.069e+04 6.584e-10
 24.34568    110.6 1.079e+04 7.314e-10
 24.35596    110.9 1.102e+04 8.024e-10
 24.36973    111.5 1.114e+04 9.086e-10
 24.39029    112.1 1.121e+04 9.680e-10
 24.40817    112.5 1.122e+04 9.644e-10
 24.41845    112.7 1.157e+04 1.148e-09
 24.43140    113.2 1.156e+04 1.142e-09
 24.45196    113.6 1.150e+04 1.113e-09
 24.47065    114.2 1.131e+04 1.011e-09
 24.48093    114.2 1.158e+04 1.175e-09
 24.49307    114.8 1.142e+04 1.087e-09
 24.51363    115.5 1.120e+04 9.666e-10
 24.53314    116.0 1.100e+04 8.505e-10
 24.54342    116.2 1.122e+04 9.964e-10
 24.55474    116.9 1.101e+04 8.650e-10
 24.57529    117.4 1.085e+04 7.552e-10
 24.59562    118.1 1.071e+04 6.651e-10
 24.60590    118.3 1.092e+04 7.631e-10
 24.61641    118.8 1.078e+04 6.757e-10
 24.63696    119.5 1.065e+04 6.033e-10
 24.65752    119.8 1.061e+04 5.769e-10
 24.66839    120.7 1.057e+04 5.640e-10
 24.67866    120.7 1.065e+04 5.932e-10
 24.69863    121.4 1.063e+04 5.930e-10
 24.71193    122.1 1.064e+04 5.986e-10
 24.72220    122.1 1.076e+04 6.201e-10
 24.73087    122.8 1.080e+04 6.351e-10
 24.74115    123.0 1.091e+04 6.625e-10
 24.76030    123.6 1.100e+04 6.937e-10
 24.78085    124.1 1.121e+04 7.614e-10
 24.79336    124.4 1.150e+04 8.951e-10
 24.80363    124.7 1.148e+04 8.764e-10
 24.82197    124.9 1.187e+04 1.087e-09
 24.84252    125.1 1.231e+04 1.431e-09
 24.85584    125.4 1.274e+04 1.934e-09
 24.86612    125.8 1.266e+04 1.567e-09
 24.88363    126.2 1.309e+04 2.006e-09
 24.90419    126.6 1.348e+04 2.455e-09
 24.91833    127.0 1.379e+04 2.680e-09
 24.92860    127.1 1.349e+04 1.689e-09
 24.94530    127.2 1.351e+04 1.663e-09
 24.96586    127.3 1.350e+04 1.522e-09
 24.98081    127.3 1.336e+04 1.276e-09
 24.99109    126.5 1.275e+04 7.764e-10
 25.00697    126.2 1.242e+04 6.546e-10
 25.02753    125.9 1.212e+04 5.739e-10
 25.04330    125.6 1.169e+04 5.218e-10
 25.05357    125.1 1.131e+04 4.482e-10
 25.06864    124.9 1.124e+04 4.552e-10
 25.09560    125.0 1.111e+04 5.094e-10
 25.11616    124.3 1.106e+04 5.463e-10
 25.13031    124.2 1.123e+04 7.184e-10
 25.14496    124.2 1.136e+04 8.543e-10
 25.15534    124.8 1.156e+04 8.614e-10
 25.18189    124.6 1.177e+04 9.702e-10
 25.22067    124.4 1.172e+04 9.266e-10
 25.24123    123.2 1.183e+04 9.423e-10
 25.26411    123.3 1.146e+04 6.906e-10
 25.30523    123.7 1.094e+04 3.918e-10
 25.34564    124.0 1.050e+04 1.891e-10
 25.36620    123.1 1.047e+04 2.152e-10
 25.38745    123.8 1.019e+04 1.176e-10
 25.42856    124.7 9.974e+03 8.500e-11
 25.46967    125.9 9.813e+03 8.078e-11
 25.49117    127.4 9.796e+03 8.179e-11
 25.51172    127.6 9.860e+03 8.552e-11
 25.55190    129.1 9.834e+03 8.671e-11
 25.59301    130.7 9.831e+03 9.167e-11
 25.61614    132.3 9.846e+03 1.075e-10
 25.63669    132.3 9.847e+03 9.943e-11
 25.67523    133.7 9.882e+03 1.100e-10
 25.71635    135.1 9.949e+03 1.257e-10
 25.74111    136.5 1.004e+04 1.440e-10
 25.76166    135.9 9.914e+03 1.024e-10
 25.79857    136.8 9.955e+03 1.090e-10
 25.83968    137.5 9.975e+03 1.224e-10
 25.86608    138.0 9.995e+03 1.463e-10
 25.88663    137.4 9.772e+03 1.371e-10
 25.92191    138.0 9.976e+03 1.763e-10
 25.96302    138.4 1.031e+04 2.272e-10
 25.99105    138.7 1.067e+04 2.800e-10
 26.00842    138.4 1.064e+04 2.785e-10
 26.02151    139.5 1.063e+04 2.976e-10
 26.04524    139.5 1.090e+04 3.393e-10
 26.07598    139.2 1.109e+04 3.631e-10
 26.09644    138.6 1.117e+04 3.931e-10
 26.11592    139.3 1.146e+04 4.679e-10
 26.13657    138.9 1.135e+04 4.805e-10
 26.16858    138.3 1.161e+04 6.899e-10
 26.20969    137.6 1.200e+04 1.062e-09
 26.24099    137.2 1.223e+04 1.252e-09
 26.26154    137.3 1.201e+04 1.257e-09
 26.29191    137.0 1.189e+04 1.099e-09
 26.33303    136.5 1.142e+04 7.217e-10
 26.36596    135.7 1.075e+04 4.051e-10
 26.38651    136.1 1.013e+04 2.393e-10
 26.41525    135.1 9.721e+03 1.636e-10
 26.45636    135.0 9.739e+03 1.637e-10
 26.49093    135.1 9.836e+03 1.730e-10
 26.51148    136.4 9.446e+03 1.392e-10
 26.53859    136.6 9.764e+03 1.755e-10
 26.56359    136.3 1.008e+04 2.044e-10
 26.57377    136.9 9.945e+03 1.964e-10
 26.58978    136.8 1.025e+04 2.283e-10
 26.61034    135.7 1.100e+04 3.378e-10
 26.62598    133.5 1.210e+04 6.652e-10
 26.63626    135.2 1.169e+04 5.220e-10
 26.65145    132.7 1.292e+04 1.188e-09
 26.67201    130.8 1.387e+04 2.455e-09
 26.68847    129.4 1.452e+04 3.656e-09
 26.69874    130.7 1.469e+04 3.902e-09
 26.71312    129.3 1.520e+04 4.337e-09
 26.73367    127.5 1.517e+04 4.042e-09
 26.75095    125.5 1.484e+04 2.820e-09
 26.76123    126.7 1.569e+04 3.876e-09
 26.77479    124.3 1.500e+04 2.082e-09
 26.79534    121.1 1.367e+04 9.711e-10
 26.81344    117.0 1.182e+04 5.116e-10
 26.82371    117.9 1.253e+04 5.797e-10
 26.83645    114.1 1.031e+04 3.725e-10
 26.86574    112.9 1.004e+04 3.560e-10
 26.88584    111.9 9.917e+03 3.388e-10
 26.88738    110.6 9.940e+03 3.192e-10
 26.89812    110.4 9.966e+03 3.210e-10
 26.91868    110.6 1.003e+04 3.315e-10
 26.93841    110.8 1.012e+04 3.601e-10
 26.94868    110.1 1.009e+04 3.594e-10
 26.95979    110.5 1.024e+04 4.117e-10
 26.98035    111.0 1.049e+04 4.981e-10
 27.00089    111.7 1.082e+04 6.320e-10
 27.02145    111.5 1.137e+04 8.774e-10
 27.04201    112.3 1.189e+04 1.149e-09
 27.06257    113.3 1.246e+04 1.485e-09
 27.07365    114.5 1.308e+04 1.872e-09
 27.08393    113.1 1.297e+04 1.583e-09
 27.10368    113.9 1.346e+04 1.767e-09
 27.12424    114.6 1.393e+04 1.925e-09
 27.13614    115.0 1.429e+04 2.050e-09
 27.14642    110.5 1.309e+04 1.316e-09
 27.16535    109.6 1.264e+04 1.298e-09
 27.18591    108.5 1.229e+04 1.329e-09
 27.19862    107.0 1.231e+04 1.501e-09
 27.20890    102.5 1.176e+04 1.458e-09
 27.22702    100.3 1.224e+04 1.795e-09
 27.24757     97.1 1.291e+04 2.347e-09
 27.26111     93.0 1.374e+04 3.226e-09
 27.27139     91.7 1.363e+04 3.167e-09
 27.28869     88.9 1.456e+04 4.442e-09
 27.30924     86.7 1.544e+04 5.496e-09
 27.32042     84.4 1.582e+04 5.570e-09
 27.32449     83.1 1.683e+04 8.911e-09
 27.33387     85.3 1.559e+04 6.372e-09
 27.35035     82.4 1.737e+04 6.860e-09
 27.37091     77.6 2.205e+04 7.609e-09
 27.38608     73.5 2.308e+04 7.851e-09
 27.39636     78.1 1.765e+04 3.982e-09
 27.41202     75.1 1.704e+04 3.942e-09
 27.43258     73.9 1.553e+04 3.799e-09
 27.44856     74.3 1.477e+04 3.615e-09
 27.45884     76.3 1.309e+04 2.859e-09
 27.47369     77.1 1.330e+04 2.838e-09
 27.49425     78.0 1.348e+04 2.690e-09
 27.51105     78.6 1.375e+04 2.364e-09
 27.52133     80.4 1.291e+04 2.406e-09
 27.53536     80.8 1.342e+04 2.123e-09
 27.55591     80.6 1.396e+04 2.126e-09
 27.57353     80.0 1.509e+04 2.297e-09
 27.58381     82.1 1.438e+04 2.154e-09
 27.59703     81.4 1.568e+04 2.610e-09
 27.61758     80.7 1.683e+04 3.520e-09
 27.63602     80.1 1.739e+04 4.840e-09
 27.64630     81.5 1.746e+04 4.321e-09
 27.65869     80.9 1.777e+04 6.177e-09
 27.67925     80.6 1.788e+04 9.070e-09
 27.69850     80.6 1.832e+04 1.391e-08
 27.70878     81.3 1.829e+04 1.204e-08
 27.72036     81.0 1.883e+04 1.747e-08
 27.73484     79.9 1.974e+04 2.666e-08
 27.73993     80.4 1.938e+04 2.183e-08
 27.74596     79.3 1.980e+04 3.006e-08
 27.75336     79.1 1.991e+04 4.097e-08
 27.75850     79.9 1.995e+04 3.023e-08
 27.76603     80.1 2.031e+04 3.164e-08
 27.77122     80.1 1.948e+04 2.047e-08
 27.77684     79.9 2.013e+04 2.567e-08
 27.78707     79.8 2.022e+04 2.459e-08
 27.80254     79.3 1.983e+04 1.579e-08
 27.82314     78.8 1.868e+04 9.959e-09
 27.83375     77.6 1.712e+04 5.004e-09
 27.84403     77.2 1.675e+04 5.878e-09
 27.86425     76.0 1.531e+04 3.088e-09
 27.88481     74.2 1.388e+04 1.656e-09
 27.89624     72.3 1.269e+04 1.031e-09
 27.90652     72.8 1.292e+04 1.089e-09
 27.93630     71.6 1.177e+04 6.505e-10
 27.97751     69.7 1.044e+04 3.888e-10
 28.01113     68.8 1.013e+04 3.638e-10
 28.03168     69.5 9.982e+03 3.554e-10
 28.05973     69.7 9.928e+03 3.546e-10
 28.10084     70.2 9.881e+03 3.566e-10
 28.13610     71.0 9.877e+03 3.534e-10
 28.15665     72.4 9.745e+03 3.567e-10
 28.18307     73.5 9.682e+03 3.455e-10
 28.22418     74.9 9.573e+03 3.340e-10
 28.26107     76.3 9.569e+03 3.371e-10
 28.28162     77.7 9.526e+03 3.326e-10
 28.30640     79.2 9.672e+03 3.624e-10
 28.34752     80.5 9.924e+03 4.277e-10
 28.37825     81.4 1.005e+04 4.870e-10
 28.39612     82.2 1.015e+04 5.351e-10
 28.40640     83.0 1.026e+04 6.033e-10
 28.41927     83.9 1.043e+04 7.031e-10
 28.43982     84.8 1.059e+04 7.594e-10
 28.45860     85.5 1.070e+04 7.646e-10
 28.46888     86.0 1.094e+04 9.617e-10
 28.48093     86.7 1.104e+04 9.713e-10
 28.50149     87.1 1.115e+04 9.415e-10
 28.52109     87.2 1.127e+04 9.048e-10
 28.53137     87.8 1.167e+04 1.283e-09
 28.54260     87.8 1.185e+04 1.318e-09
 28.56316     87.4 1.213e+04 1.421e-09
 28.58357     86.9 1.239e+04 1.620e-09
 28.59385     87.7 1.298e+04 2.415e-09
 28.60427     87.6 1.336e+04 2.768e-09
 28.61953     87.5 1.393e+04 3.131e-09
 28.62980     87.7 1.275e+04 1.865e-09
 28.64538     87.6 1.258e+04 1.703e-09
 28.65634     86.9 1.285e+04 1.438e-09
 28.66662     87.4 1.403e+04 1.844e-09
 28.68649     85.4 1.454e+04 1.793e-09
 28.70705     82.7 1.539e+04 1.840e-09
 28.71882     80.3 1.529e+04 2.093e-09
 28.72910     80.5 1.550e+04 2.389e-09
 28.74816     79.3 1.459e+04 2.754e-09
 28.76872     79.3 1.387e+04 3.332e-09
 28.78131     79.7 1.355e+04 3.552e-09
 28.79159     80.0 1.370e+04 4.017e-09
 28.80983     80.6 1.368e+04 3.983e-09
 28.83039     80.8 1.364e+04 3.789e-09
 28.84379     80.7 1.372e+04 3.377e-09
 28.85407     80.8 1.453e+04 4.289e-09
 28.87150     80.5 1.448e+04 3.799e-09
 28.89205     80.1 1.403e+04 3.273e-09
 28.90628     80.1 1.346e+04 2.665e-09
 28.91656     80.1 1.436e+04 3.495e-09
 28.93317     80.1 1.343e+04 2.544e-09
 28.95372     80.0 1.258e+04 1.806e-09
 28.96876     79.4 1.196e+04 1.290e-09
 28.97904     78.6 1.280e+04 1.565e-09
 28.99483     76.7 1.303e+04 1.398e-09
 29.01539     74.3 1.344e+04 1.510e-09
 29.03125     71.4 1.425e+04 2.030e-09
 29.04153     68.7 1.497e+04 3.433e-09
 29.05256     67.9 1.518e+04 4.810e-09
 29.06284     68.9 1.567e+04 4.762e-09
 29.07706     68.8 1.566e+04 6.205e-09
 29.09373     69.1 1.551e+04 6.325e-09
 29.10401     68.4 1.542e+04 6.150e-09
 29.11817     68.8 1.506e+04 5.170e-09
 29.13873     68.4 1.468e+04 3.621e-09
 29.15622     66.8 1.428e+04 2.261e-09
 29.16650     63.7 1.337e+04 1.441e-09
 29.17984     60.9 1.213e+04 9.894e-10
 29.20039     58.8 1.130e+04 8.162e-10
 29.21870     58.0 1.112e+04 7.693e-10
 29.22898     57.5 1.104e+04 7.641e-10
 29.25188     57.0 1.106e+04 7.223e-10
 29.28138     55.5 1.103e+04 6.625e-10
 29.30194     55.2 1.089e+04 6.585e-10
 29.33420     54.3 1.076e+04 5.661e-10
 29.37532     53.1 1.072e+04 5.006e-10
 29.40635     52.5 1.064e+04 4.722e-10
 29.42691     53.1 1.047e+04 4.169e-10
 29.45754     53.2 1.040e+04 3.999e-10
 29.48579     54.3 1.014e+04 3.304e-10
 29.50635     53.0 1.058e+04 4.913e-10
 29.53132     54.6 1.026e+04 3.076e-10
 29.55188     55.9 1.007e+04 2.765e-10
 29.58088     57.3 9.903e+03 1.625e-10
 29.62199     58.5 9.744e+03 1.054e-10
 29.65629     59.8 9.465e+03 8.628e-11
 29.67685     61.2 9.419e+03 8.660e-11
 29.70421     63.1 9.341e+03 8.585e-11
 29.74532     65.1 9.337e+03 8.652e-11
 29.78126     67.1 9.316e+03 8.808e-11
 29.80182     68.9 9.358e+03 9.499e-11
 29.82755     70.9 9.344e+03 1.027e-10
 29.86866     73.1 9.314e+03 1.076e-10
 29.90623     75.2 9.321e+03 1.094e-10
 29.92679     76.9 9.456e+03 1.382e-10
 29.95088     78.9 9.496e+03 1.409e-10
 29.99200     80.6 9.580e+03 1.462e-10
 30.03120     82.1 9.686e+03 1.628e-10
 30.05176     83.9 9.886e+03 1.993e-10
 30.07422     85.3 1.010e+04 2.302e-10
 30.11533     86.2 1.043e+04 3.007e-10
 30.15617     86.4 1.060e+04 3.931e-10
 30.17663     86.9 1.081e+04 5.020e-10
 30.18708     87.4 1.085e+04 7.191e-10
 30.20764     88.2 1.108e+04 9.186e-10
 30.22819     89.0 1.148e+04 9.907e-10
 30.23902     89.4 1.162e+04 9.791e-10
 30.24930     89.9 1.178e+04 1.165e-09
 30.26931     90.2 1.190e+04 1.077e-09
 30.28986     90.2 1.200e+04 9.095e-10
 30.30151     89.8 1.191e+04 7.130e-10
 30.31178     90.6 1.210e+04 8.104e-10
 30.33097     89.7 1.182e+04 6.484e-10
 30.35177     89.9 1.139e+04 5.529e-10
 30.37242     88.5 1.114e+04 5.296e-10
 30.40312     88.6 1.074e+04 4.243e-10
 30.42667     88.8 1.062e+04 3.370e-10
 30.44723     89.2 1.042e+04 2.316e-10
 30.48534     89.1 1.024e+04 1.903e-10
 30.52645     89.3 1.017e+04 1.935e-10
 30.55164     89.8 1.003e+04 2.238e-10
 30.57220     89.8 9.799e+03 1.798e-10
 30.60868     90.9 9.805e+03 2.285e-10
 30.64979     92.2 9.792e+03 2.499e-10
 30.67661     93.4 9.767e+03 2.462e-10
 30.69717     93.4 9.769e+03 2.283e-10
 30.73201     94.7 9.664e+03 2.200e-10
 30.77312     96.0 9.680e+03 2.242e-10
 30.80158     96.9 9.830e+03 2.589e-10
 30.82214     96.5 9.833e+03 2.599e-10
 30.85535     97.0 1.028e+04 4.145e-10
 30.89646     97.8 1.095e+04 7.515e-10
 30.92655     98.8 1.162e+04 1.178e-09
 30.94711     98.1 1.143e+04 1.107e-09
 30.97868     99.0 1.150e+04 1.099e-09
 31.01980    100.2 1.137e+04 8.648e-10
 31.05152    100.7 1.110e+04 5.108e-10
 31.07208    100.1 9.733e+03 1.996e-10
 31.10202     99.8 9.531e+03 1.332e-10
 31.14313    100.2 9.521e+03 1.355e-10
 31.17649    101.4 9.618e+03 1.526e-10
 31.19705    102.0 9.463e+03 1.459e-10
 31.21794    103.7 9.568e+03 1.782e-10
 31.23849    103.7 9.545e+03 1.979e-10
 31.26647    105.4 9.803e+03 2.462e-10
 31.30146    107.2 1.023e+04 3.296e-10
 31.32192    107.4 1.020e+04 3.343e-10
 31.33822    108.1 1.033e+04 3.693e-10
 31.35877    108.8 1.047e+04 4.073e-10
 31.37403    109.5 1.073e+04 4.666e-10
 31.38431    109.3 1.062e+04 4.583e-10
 31.39989    109.6 1.073e+04 4.885e-10
 31.42044    109.9 1.088e+04 5.315e-10
 31.43652    110.3 1.102e+04 5.734e-10
 31.44679    110.2 1.102e+04 5.844e-10
 31.46155    110.5 1.115e+04 6.324e-10
 31.48211    110.8 1.129e+04 6.900e-10
 31.49900    111.0 1.148e+04 7.637e-10
 31.50928    110.9 1.164e+04 8.517e-10
 31.52322    111.1 1.188e+04 9.655e-10
 31.54378    111.4 1.216e+04 1.108e-09
 31.56149    111.7 1.246e+04 1.278e-09
 31.57176    111.5 1.264e+04 1.451e-09
 31.58489    111.7 1.293e+04 1.653e-09
 31.60545    112.1 1.320e+04 1.851e-09
 31.62397    112.3 1.332e+04 1.966e-09
 31.63425    112.1 1.330e+04 1.976e-09
 31.64656    112.2 1.328e+04 1.959e-09
 31.66106    112.4 1.317e+04 1.882e-09
 31.67133    112.1 1.269e+04 1.575e-09
 31.68646    112.2 1.251e+04 1.471e-09
 31.69673    112.3 1.245e+04 1.407e-09
 31.70823    112.4 1.218e+04 1.242e-09
 31.72878    112.6 1.188e+04 1.071e-09
 31.74894    112.9 1.159e+04 9.129e-10
 31.75922    112.9 1.146e+04 7.983e-10
 31.76989    113.2 1.121e+04 6.819e-10
 31.79045    113.4 1.100e+04 5.943e-10
 31.81101    113.7 1.089e+04 5.368e-10
 31.82170    113.9 1.092e+04 5.082e-10
 31.83198    113.8 1.063e+04 4.329e-10
 31.85212    113.8 1.057e+04 4.268e-10
 31.87267    113.8 1.058e+04 4.299e-10
 31.88419    113.5 1.068e+04 4.509e-10
 31.89447    113.8 1.042e+04 4.317e-10
 31.91379    113.5 1.044e+04 4.634e-10
 31.93434    113.2 1.059e+04 5.080e-10
 31.94667    112.7 1.116e+04 6.470e-10
 31.95695    113.6 1.114e+04 6.238e-10
 31.97545    111.1 1.417e+04 1.122e-09
 31.99082    109.1 1.623e+04 1.480e-09
 32.00105    104.7 2.090e+04 2.439e-09
 32.00906     99.8 2.325e+04 5.682e-09
 32.01420     99.6 2.314e+04 6.036e-09
 32.02161     97.8 2.129e+04 1.326e-08
 32.03189     98.0 1.975e+04 2.666e-08
 32.04030     98.8 1.917e+04 4.570e-08
 32.04544     99.4 1.921e+04 5.226e-08
 32.05244    100.6 1.959e+04 7.323e-08
 32.06272    100.9 1.999e+04 7.529e-08
 32.07155    101.1 2.003e+04 7.164e-08
 32.07669    101.5 2.033e+04 8.210e-08
 32.08328    102.1 2.037e+04 6.304e-08
 32.09355    102.4 2.059e+04 4.163e-08
 32.09913    102.5 2.155e+04 2.514e-08
 32.10323    101.8 2.085e+04 2.564e-08
 32.10793    102.2 2.078e+04 2.395e-08
 32.11411    101.8 2.137e+04 1.564e-08
 32.12439    101.5 2.193e+04 1.043e-08
 32.13408    100.2 2.213e+04 7.383e-09
 32.14441    100.6 2.192e+04 4.190e-09
 32.16046     97.0 2.065e+04 1.403e-09
 32.18101     92.6 1.562e+04 5.955e-10
 32.19661     89.6 1.145e+04 4.269e-10
 32.20689     89.7 1.093e+04 3.129e-10
 32.22213     90.0 1.060e+04 2.994e-10
 32.24268     90.6 1.055e+04 3.082e-10
 32.25910     91.2 1.061e+04 3.573e-10
 32.26938     92.0 1.043e+04 3.052e-10
 32.28379     92.6 1.043e+04 3.483e-10
 32.30435     93.2 1.051e+04 4.376e-10
 32.32158     94.0 1.059e+04 5.626e-10
 32.33186     94.7 1.055e+04 4.931e-10
 32.34546     95.5 1.062e+04 6.131e-10
 32.36602     96.5 1.067e+04 7.396e-10
 32.38407     97.6 1.073e+04 8.273e-10
 32.39435     98.3 1.075e+04 8.250e-10
 32.40713     99.3 1.077e+04 8.390e-10
 32.42769     99.8 1.075e+04 8.210e-10
 32.44655     99.9 1.074e+04 7.548e-10
 32.45683    100.7 1.087e+04 7.925e-10
 32.46880    100.1 1.097e+04 7.964e-10
 32.48935     97.9 1.141e+04 8.751e-10
 32.50904     94.5 1.237e+04 1.253e-09
 32.51932     94.5 1.257e+04 1.445e-09
 32.52713     92.5 1.315e+04 2.218e-09
 32.53741     93.2 1.348e+04 2.483e-09
 32.55102     92.1 1.354e+04 2.951e-09
 32.57152     91.3 1.343e+04 2.813e-09
 32.59208     90.5 1.278e+04 1.881e-09
 32.61269     88.0 1.202e+04 9.462e-10
 32.63325     87.2 1.177e+04 8.299e-10
 32.64429     84.2 1.072e+04 4.755e-10
 32.65457     84.3 1.064e+04 4.689e-10
 32.67436     83.1 1.015e+04 3.850e-10
 32.69492     82.6 9.987e+03 3.616e-10
 32.70677     82.3 1.000e+04 3.687e-10
 32.71705     82.5 1.003e+04 3.667e-10
 32.73603     82.1 1.015e+04 4.085e-10
 32.75658     81.8 1.028e+04 4.919e-10
 32.76926     81.9 1.037e+04 5.846e-10
 32.77954     82.1 1.050e+04 6.380e-10
 32.79770     82.6 1.055e+04 7.281e-10
 32.81825     83.1 1.061e+04 7.707e-10
 32.83174     83.6 1.074e+04 7.633e-10
 32.84202     84.0 1.082e+04 8.192e-10
 32.85936     84.1 1.089e+04 7.942e-10
 32.87992     84.0 1.100e+04 7.479e-10
 32.89423     83.4 1.105e+04 7.098e-10
 32.90451     83.8 1.118e+04 7.240e-10
 32.92103     83.1 1.109e+04 7.036e-10
 32.94159     82.6 1.094e+04 6.979e-10
 32.95671     82.7 1.077e+04 6.873e-10
 32.96501     82.7 1.092e+04 7.327e-10
 32.97044     83.8 1.107e+04 7.671e-10
 32.98270     83.9 1.091e+04 7.676e-10
 33.00326     84.3 1.070e+04 7.290e-10
 33.01920     84.7 1.050e+04 6.311e-10
 33.02948     84.7 1.078e+04 7.749e-10
 33.04437     85.2 1.063e+04 6.754e-10
 33.06492     85.3 1.048e+04 5.510e-10
 33.08168     85.2 1.034e+04 4.607e-10
 33.09196     85.4 1.058e+04 5.772e-10
 33.10604     85.3 1.040e+04 4.938e-10
 33.12659     85.1 1.026e+04 4.448e-10
 33.14417     84.9 1.014e+04 4.337e-10
 33.15445     85.2 1.035e+04 5.113e-10
 33.16770     85.2 1.035e+04 5.142e-10
 33.18826     85.1 1.041e+04 5.344e-10
 33.20665     85.2 1.049e+04 5.685e-10
 33.21693     85.4 1.070e+04 6.183e-10
 33.22937     85.5 1.073e+04 6.320e-10
 33.24993     85.6 1.073e+04 6.241e-10
 33.26914     85.6 1.072e+04 5.963e-10
 33.27942     85.8 1.073e+04 6.074e-10
 33.29104     85.6 1.081e+04 5.714e-10
 33.31160     84.8 1.096e+04 5.798e-10
 33.33162     83.5 1.123e+04 6.365e-10
 33.34190     84.1 1.117e+04 5.865e-10
 33.35271     82.8 1.128e+04 7.004e-10
 33.37326     82.6 1.115e+04 8.449e-10
 33.39320     83.0 1.103e+04 8.434e-10
 33.40348     83.3 1.118e+04 9.060e-10
 33.40439     84.0 1.096e+04 8.574e-10
 33.41466     84.4 1.107e+04 8.952e-10
 33.43493     85.1 1.081e+04 7.343e-10
 33.45549     85.0 1.068e+04 5.102e-10
 33.46697     84.3 1.051e+04 3.031e-10
 33.48762     85.1 1.069e+04 3.404e-10
 33.52763     85.3 1.012e+04 2.071e-10
 33.56874     85.4 9.715e+03 1.500e-10
 33.59204     86.0 9.555e+03 1.248e-10
 33.61259     87.1 9.606e+03 1.276e-10
 33.65096     88.0 9.577e+03 1.060e-10
 33.69208     89.3 9.558e+03 1.009e-10
 33.71701     90.9 9.568e+03 1.018e-10
 33.73756     91.7 9.581e+03 1.017e-10
 33.77430     93.3 9.652e+03 1.086e-10
 33.81541     94.9 9.845e+03 1.363e-10
 33.83671     96.6 1.027e+04 2.134e-10
 33.84272     96.9 1.009e+04 1.800e-10
 33.86253     98.0 1.018e+04 1.934e-10
 33.89764     99.4 1.064e+04 2.877e-10
 33.92837     99.7 1.093e+04 3.786e-10
 33.94883    100.1 1.120e+04 4.982e-10
 33.96675    100.7 1.151e+04 6.548e-10
 33.97703    100.8 1.170e+04 7.251e-10
 33.98994    101.3 1.204e+04 9.309e-10
 34.01050    101.7 1.235e+04 1.147e-09
 34.02924    101.9 1.264e+04 1.354e-09
 34.03952    102.0 1.287e+04 1.572e-09
 34.05161    102.0 1.309e+04 1.748e-09
 34.07217    101.7 1.344e+04 1.938e-09
 34.09172    100.8 1.396e+04 2.304e-09
 34.10200    101.2 1.378e+04 2.242e-09
 34.11328    100.3 1.427e+04 2.734e-09
 34.13384     99.8 1.472e+04 3.477e-09
 34.15421     99.6 1.491e+04 3.965e-09
 34.16449     99.8 1.449e+04 3.184e-09
 34.17495     99.7 1.445e+04 3.171e-09
 34.19550     99.7 1.426e+04 2.931e-09
 34.21606     99.7 1.397e+04 2.459e-09
 34.22697     99.3 1.368e+04 2.001e-09
 34.23725     99.4 1.328e+04 1.712e-09
 34.25717     98.9 1.309e+04 1.491e-09
 34.26955     98.4 1.289e+04 1.388e-09
 34.27983     98.8 1.260e+04 1.140e-09
 34.28946     98.5 1.233e+04 1.127e-09
 34.29973     99.0 1.231e+04 1.036e-09
 34.31884     98.8 1.227e+04 1.076e-09
 34.33940     98.9 1.221e+04 1.143e-09
 34.35194     99.0 1.219e+04 1.193e-09
 34.36222     99.3 1.223e+04 1.211e-09
 34.38051     99.6 1.221e+04 1.246e-09
 34.40106     99.9 1.210e+04 1.199e-09
 34.41443    100.3 1.186e+04 1.081e-09
 34.42470    100.3 1.214e+04 1.248e-09
 34.44218    100.6 1.186e+04 1.083e-09
 34.46273    100.9 1.154e+04 9.017e-10
 34.47691    101.1 1.123e+04 7.438e-10
 34.48719    101.0 1.164e+04 9.751e-10
 34.50384    101.3 1.134e+04 8.261e-10
 34.52440    101.7 1.108e+04 6.980e-10
 34.53940    102.1 1.084e+04 5.854e-10
 34.54967    102.1 1.125e+04 8.200e-10
 34.56551    102.4 1.108e+04 6.885e-10
 34.59170    102.8 1.062e+04 5.193e-10
 34.61235    102.7 1.129e+04 8.304e-10
 34.63765    103.3 1.078e+04 6.754e-10
 34.67876    104.5 1.071e+04 6.778e-10
 34.70278    105.7 1.081e+04 7.238e-10
 34.72023    105.8 1.101e+04 7.966e-10
 34.73733    104.8 1.122e+04 9.466e-10
 34.76099    105.7 1.127e+04 9.522e-10
 34.80210    106.5 1.140e+04 1.002e-09
 34.84174    107.0 1.161e+04 1.096e-09
 34.86230    106.0 1.116e+04 8.670e-10
 34.88432    106.6 1.102e+04 7.423e-10
 34.92544    107.2 1.073e+04 5.695e-10
 34.96655    107.5 1.031e+04 4.182e-10
 35.00766    107.0 8.877e+03 1.759e-10
 35.04877    107.5 8.918e+03 1.744e-10
 35.08988    107.8 9.058e+03 1.864e-10
 35.11224    107.6 9.446e+03 2.423e-10
 35.13279    108.5 9.323e+03 2.363e-10
 35.17211    108.3 9.927e+03 3.534e-10
 35.20285    108.7 1.011e+04 4.236e-10
 35.22330    108.5 1.045e+04 5.207e-10
 35.23701    107.4 1.115e+04 7.184e-10
 35.24729    108.2 1.094e+04 6.596e-10
 35.26442    106.6 1.175e+04 9.639e-10
 35.28497    105.0 1.244e+04 1.423e-09
 35.29950    103.4 1.296e+04 1.969e-09
 35.30977    104.0 1.282e+04 1.791e-09
 35.32608    102.3 1.317e+04 2.270e-09
 35.34664    100.4 1.315e+04 2.316e-09
 35.36198     98.7 1.284e+04 2.143e-09
 35.37226     99.3 1.295e+04 2.241e-09
 35.38775     97.9 1.247e+04 1.917e-09
 35.40831     96.6 1.183e+04 1.459e-09
 35.42447     94.9 1.127e+04 1.032e-09
 35.43474     95.5 1.154e+04 1.198e-09
 35.44942     93.2 1.102e+04 8.233e-10
 35.46998     91.5 1.044e+04 6.371e-10
 35.48705     89.8 1.001e+04 5.063e-10
 35.50770     90.3 1.035e+04 5.975e-10
 35.54212     87.5 1.034e+04 5.827e-10
 35.56876     85.4 1.066e+04 6.638e-10
 35.57894     85.8 1.057e+04 6.164e-10
 35.59331     84.2 1.051e+04 6.751e-10
 35.61202     83.6 1.025e+04 5.937e-10
 35.63267     84.2 1.020e+04 5.656e-10
 35.66545     83.8 9.681e+03 3.885e-10
 35.70657     82.7 9.336e+03 2.289e-10
 35.73709     81.3 9.002e+03 1.708e-10
 35.75764     81.6 9.060e+03 1.833e-10
 35.78879     80.6 9.212e+03 2.020e-10
 35.80975     78.9 9.722e+03 2.497e-10
 35.81993     79.1 9.745e+03 2.616e-10
 35.83998     72.8 1.260e+04 6.164e-10
 35.86054     67.8 1.342e+04 1.764e-09
 35.87214     69.0 1.342e+04 3.624e-09
 35.88242     69.6 1.325e+04 3.095e-09
 35.90165     70.0 1.325e+04 3.318e-09
 35.92221     70.7 1.309e+04 2.403e-09
 35.93462     68.2 1.416e+04 1.337e-09
 35.94490     68.8 1.377e+04 1.273e-09
 35.96332     63.5 1.298e+04 7.016e-10
 35.98388     58.8 1.114e+04 4.951e-10
 35.99711     57.7 1.064e+04 4.685e-10
 36.00465     58.7 1.059e+04 4.590e-10
 36.01197     59.2 1.077e+04 5.018e-10
 36.02499     58.7 1.064e+04 4.697e-10
 36.04554     58.4 1.071e+04 4.041e-10
 36.07648     57.0 1.052e+04 2.877e-10
 36.11200     55.4 9.975e+03 2.054e-10
 36.13255     57.3 9.978e+03 2.065e-10
 36.15880     56.0 9.662e+03 1.761e-10
 36.19991     55.0 9.785e+03 1.822e-10
 36.23697     53.4 1.005e+04 2.348e-10
 36.25752     55.1 1.016e+04 2.367e-10
 36.28213     53.8 1.058e+04 3.413e-10
 36.30963     51.8 1.049e+04 4.083e-10
 36.31981     52.6 1.055e+04 4.359e-10
 36.33333     52.0 1.071e+04 4.891e-10
 36.35388     51.6 1.097e+04 5.557e-10
 36.37202     50.7 1.123e+04 6.001e-10
 36.38230     51.2 1.134e+04 6.399e-10
 36.40537     49.6 1.143e+04 7.079e-10
 36.43493     48.3 1.136e+04 7.935e-10
 36.45548     47.6 1.196e+04 1.135e-09
 36.48691     47.1 1.153e+04 9.813e-10
 36.50746     47.7 1.174e+04 1.078e-09
 36.52881     47.1 1.100e+04 6.872e-10
 36.56992     46.6 1.023e+04 3.973e-10
 36.61103     46.5 9.750e+03 2.681e-10
 36.63243     47.1 9.449e+03 2.069e-10
 36.65299     47.8 9.377e+03 1.881e-10
 36.69325     48.7 9.248e+03 1.654e-10
 36.73437     49.7 9.224e+03 1.561e-10
 36.75740     50.4 9.395e+03 1.624e-10
 36.77796     51.1 9.296e+03 1.467e-10
 36.81659     50.9 9.644e+03 2.012e-10
 36.85770     50.5 1.005e+04 3.393e-10
 36.88237     50.4 1.058e+04 5.535e-10
 36.90293     50.8 1.046e+04 5.040e-10
 36.93993     50.5 1.074e+04 6.145e-10
 36.97066     49.9 1.075e+04 5.925e-10
 36.99112     49.6 1.077e+04 5.169e-10
 37.00715     48.8 1.060e+04 4.239e-10
 37.02780     48.7 1.045e+04 3.461e-10
 37.06326     48.0 1.012e+04 2.729e-10
 37.10437     47.8 9.696e+03 1.984e-10
 37.13231     47.9 9.427e+03 1.569e-10
 37.15287     48.6 9.429e+03 1.572e-10
 37.18660     48.9 9.278e+03 1.422e-10
 37.22771     49.5 9.236e+03 1.405e-10
 37.25728     50.3 9.214e+03 1.470e-10
 37.27784     50.9 9.232e+03 1.464e-10
 37.30100     51.7 9.232e+03 1.496e-10
 37.32155     51.5 9.308e+03 1.751e-10
 37.35105     52.3 9.312e+03 1.725e-10
 37.38225     53.2 9.308e+03 1.591e-10
 37.40281     53.5 9.271e+03 1.438e-10
 37.43327     54.3 9.217e+03 1.303e-10
 37.47438     55.1 9.167e+03 1.203e-10
 37.50723     56.0 9.147e+03 1.140e-10
 37.52778     56.3 9.105e+03 1.068e-10
 37.55661     57.0 9.162e+03 1.125e-10
 37.59772     57.7 9.220e+03 1.305e-10
 37.63220     58.7 9.293e+03 1.596e-10
 37.65275     59.1 9.301e+03 1.612e-10
 37.67994     60.2 9.474e+03 1.919e-10
 37.72105     60.9 9.730e+03 2.225e-10
 37.75717     61.1 1.008e+04 2.708e-10
 37.77772     61.0 1.020e+04 2.865e-10
 37.80328     60.9 1.055e+04 4.110e-10
 37.84439     61.1 1.088e+04 5.686e-10
 37.88214     61.5 1.111e+04 6.450e-10
 37.90269     61.1 1.115e+04 6.420e-10
 37.92661     61.2 1.107e+04 5.643e-10
 37.96773     61.1 1.083e+04 4.235e-10
 38.00711     61.0 1.053e+04 3.093e-10
 38.02766     60.5 1.045e+04 2.867e-10
 38.04995     60.8 1.023e+04 2.145e-10
 38.09106     61.2 1.006e+04 1.744e-10
 38.13208     61.8 9.966e+03 1.587e-10
 38.16697     62.6 9.796e+03 1.318e-10
 38.18763     62.2 9.642e+03 1.162e-10
 38.21440     63.4 9.767e+03 1.243e-10
 38.25551     64.4 9.939e+03 1.394e-10
 38.27760     65.3 1.007e+04 1.762e-10
 38.29816     65.7 9.889e+03 1.299e-10
 38.33773     66.7 1.008e+04 1.775e-10
 38.37885     67.7 1.016e+04 2.425e-10
 38.40257     69.1 1.018e+04 2.921e-10
 38.42313     69.5 1.008e+04 2.747e-10
 38.46107     71.0 1.010e+04 2.927e-10
 38.50218     72.5 1.010e+04 2.505e-10
 38.52754     73.5 1.006e+04 2.056e-10
 38.54810     74.2 1.007e+04 2.083e-10
 38.58441     75.0 1.003e+04 1.809e-10
 38.62552     76.2 9.916e+03 1.674e-10
 38.65251     77.9 9.684e+03 1.419e-10
 38.67307     78.4 9.814e+03 1.575e-10
 38.70774     80.4 9.688e+03 1.215e-10
 38.74885     82.1 9.591e+03 9.178e-11
 38.77748     83.7 9.496e+03 7.374e-11
 38.79804     84.4 9.626e+03 9.326e-11
 38.83108     86.3 9.559e+03 8.299e-11
 38.87219     88.4 9.577e+03 8.193e-11
 38.90245     90.3 9.666e+03 8.845e-11
 38.92301     91.1 9.839e+03 1.095e-10
 38.95441     92.8 1.003e+04 1.343e-10
 38.99553     94.6 1.015e+04 1.820e-10
 39.02742     96.5 1.047e+04 2.802e-10
 39.04448     97.1 1.071e+04 3.485e-10
 39.05370     97.0 1.075e+04 3.590e-10
 39.07775     97.7 1.134e+04 5.424e-10
 39.10009     97.9 1.153e+04 6.294e-10
 39.11027     98.2 1.170e+04 6.986e-10
 39.12894     98.2 1.213e+04 8.533e-10
 39.14950     97.2 1.306e+04 1.238e-09
 39.16248     95.6 1.394e+04 2.118e-09
 39.17275     95.1 1.445e+04 2.507e-09
 39.19061     94.5 1.493e+04 4.230e-09
 39.21117     94.9 1.475e+04 4.322e-09
 39.22496     95.8 1.425e+04 3.689e-09
 39.23524     95.8 1.453e+04 4.231e-09
 39.25228     95.7 1.396e+04 2.512e-09
 39.27284     94.0 1.334e+04 1.219e-09
 39.28745     90.8 1.213e+04 5.803e-10
 39.29772     89.9 1.223e+04 5.639e-10
 39.31395     86.9 1.108e+04 3.579e-10
 39.33450     86.2 1.063e+04 3.132e-10
 39.34993     86.3 1.050e+04 3.169e-10
 39.36021     85.6 1.049e+04 3.297e-10
 39.37562     86.3 1.041e+04 3.350e-10
 39.40224     86.5 1.046e+04 3.580e-10
 39.42289     86.1 1.050e+04 4.001e-10
 39.44776     87.7 1.027e+04 3.361e-10
 39.48887     89.0 9.936e+03 2.371e-10
 39.52730     89.6 9.709e+03 1.729e-10
 39.54786     89.0 9.777e+03 1.700e-10
 39.57109     89.9 9.525e+03 1.481e-10
 39.61221     91.2 9.403e+03 1.410e-10
 39.65227     93.0 9.319e+03 1.339e-10
 39.67283     92.8 9.357e+03 1.389e-10
 39.69443     94.7 9.279e+03 1.254e-10
 39.73554     96.4 9.229e+03 1.092e-10
 39.77665     98.0 9.166e+03 9.793e-11
 39.79780     99.6 9.156e+03 9.754e-11
 39.81836     99.4 9.284e+03 1.092e-10
 39.85888    101.0 9.313e+03 1.140e-10
 39.89921    102.4 9.410e+03 1.273e-10
 39.91977    102.8 9.461e+03 1.424e-10
 39.92277    104.1 9.642e+03 1.720e-10
 39.94333    104.0 9.732e+03 1.740e-10
 39.98221    104.9 1.000e+04 2.226e-10
 40.02333    104.9 1.034e+04 3.386e-10
 40.04774    104.3 1.097e+04 5.397e-10
 40.06830    104.3 1.125e+04 6.372e-10
 40.09517    103.1 1.165e+04 8.243e-10
 40.11003    102.9 1.174e+04 9.324e-10
 40.12031    102.8 1.201e+04 1.044e-09
 40.13619    102.4 1.204e+04 1.138e-09
 40.15674    102.1 1.199e+04 1.125e-09
 40.17252    101.3 1.192e+04 1.046e-09
 40.18279    101.1 1.220e+04 1.246e-09
 40.19786     99.9 1.204e+04 1.091e-09
 40.21841     98.3 1.181e+04 9.591e-10
 40.23500     97.5 1.140e+04 8.448e-10
 40.24528     97.4 1.146e+04 8.775e-10
 40.26990     95.6 1.142e+04 8.219e-10
 40.29768     94.6 1.095e+04 6.214e-10
 40.31824     94.9 1.062e+04 4.828e-10
 40.35222     94.1 1.008e+04 3.120e-10
 40.39333     92.9 1.014e+04 2.962e-10
 40.42265     91.7 1.040e+04 3.834e-10
 40.44321     93.1 9.884e+03 2.438e-10
 40.47556     92.8 1.026e+04 3.497e-10
 40.51667     92.9 1.043e+04 4.257e-10
 40.54762     93.1 1.042e+04 4.297e-10
 40.56818     94.8 1.028e+04 3.554e-10
 40.59889     94.9 1.034e+04 3.784e-10
 40.64001     94.7 1.052e+04 4.379e-10
 40.67259     94.8 1.035e+04 4.557e-10
 40.69315     96.5 1.082e+04 6.063e-10
 40.71185     95.8 1.056e+04 4.973e-10
 40.73231     96.1 1.035e+04 4.545e-10
 40.74516     96.6 1.020e+04 3.588e-10
 40.75544     97.6 1.037e+04 4.469e-10
 40.77342     97.6 1.024e+04 3.852e-10
 40.78574     97.5 1.009e+04 3.031e-10
 40.79602     97.3 1.013e+04 3.337e-10
 40.80764     97.2 1.006e+04 3.180e-10
 40.81792     98.4 1.013e+04 3.376e-10
 40.83509     97.9 1.017e+04 3.451e-10
 40.85565     97.8 1.014e+04 3.406e-10
 40.87013     98.2 1.021e+04 3.888e-10
 40.88041     98.8 1.022e+04 3.835e-10
 40.89676     98.9 1.022e+04 3.919e-10
 40.92243     99.6 1.018e+04 4.262e-10
 40.94299    100.3 1.022e+04 4.398e-10
 40.95843    101.2 1.020e+04 4.304e-10
 40.97898    101.4 1.020e+04 4.305e-10
 40.99510    102.5 1.018e+04 3.977e-10
 41.00538    102.7 1.023e+04 4.450e-10
 41.02010    103.0 1.025e+04 4.327e-10
 41.04740    104.0 1.020e+04 3.845e-10
 41.06796    104.4 1.028e+04 4.391e-10
 41.08177    105.3 1.021e+04 4.085e-10
 41.10232    105.4 1.020e+04 4.014e-10
 41.13325    106.5 1.018e+04 3.971e-10
 41.17247    108.2 1.009e+04 3.679e-10
 41.19303    107.9 1.021e+04 4.160e-10
 41.21557    108.7 1.008e+04 3.770e-10
 41.25669    110.0 1.007e+04 3.745e-10
 41.29744    111.5 1.010e+04 3.920e-10
 41.31800    110.3 1.037e+04 4.800e-10
 41.33891    111.8 1.056e+04 5.672e-10
 41.38002    113.1 1.083e+04 6.941e-10
 41.42113    114.9 1.113e+04 8.088e-10
 41.44297    116.5 1.150e+04 9.510e-10
 41.46352    113.6 1.149e+04 9.024e-10
 41.50336    114.3 1.191e+04 1.061e-09
 41.54447    114.6 1.222e+04 1.218e-09
 41.56794    114.3 1.250e+04 1.353e-09
 41.58850    111.0 1.126e+04 8.976e-10
 41.62669    110.3 1.093e+04 7.747e-10
 41.65191    109.8 1.060e+04 6.972e-10
 41.67247    108.1 1.026e+04 6.141e-10
 41.69291    108.5 1.018e+04 6.705e-10
 41.71347    107.5 9.904e+03 5.001e-10
 41.75003    108.9 1.010e+04 5.034e-10
 41.79114    110.4 1.012e+04 4.882e-10
 41.81788    112.0 1.006e+04 4.559e-10
 41.83844    111.4 9.718e+03 3.736e-10
 41.87337    113.0 9.702e+03 3.634e-10
 41.91448    114.3 9.709e+03 3.623e-10
 41.94285    115.3 9.839e+03 3.927e-10
 41.96341    114.3 9.841e+03 3.932e-10
 41.98633    115.2 1.000e+04 4.627e-10
 42.00514    116.4 1.029e+04 5.610e-10
 42.01542    116.0 1.040e+04 6.094e-10
 42.02734    117.1 1.079e+04 7.475e-10
 42.04790    118.0 1.109e+04 8.564e-10
 42.06762    118.8 1.123e+04 8.815e-10
 42.07790    118.5 1.147e+04 9.983e-10
 42.08475    119.0 1.145e+04 9.849e-10
 42.09503    118.3 1.139e+04 9.488e-10
 42.10957    118.8 1.128e+04 8.941e-10
 42.13011    119.3 1.109e+04 8.047e-10
 42.15067    119.4 1.085e+04 6.990e-10
 42.17123    119.5 1.064e+04 6.113e-10
 42.19179    119.5 1.054e+04 5.745e-10
 42.20287    119.7 1.054e+04 5.757e-10
 42.21315    119.3 1.030e+04 4.993e-10
 42.23290    119.6 1.036e+04 5.135e-10
 42.25346    119.8 1.062e+04 5.737e-10
 42.26536    119.7 1.104e+04 6.966e-10
 42.27564    119.2 1.086e+04 6.229e-10
 42.29457    119.1 1.149e+04 8.435e-10
 42.31513    119.1 1.211e+04 1.157e-09
 42.32784    119.6 1.264e+04 1.523e-09
 42.33812    119.6 1.253e+04 1.476e-09
 42.35624    120.5 1.305e+04 1.868e-09
 42.37679    121.2 1.366e+04 2.157e-09
 42.39033    121.2 1.390e+04 2.193e-09
 42.40061    120.2 1.413e+04 2.176e-09
 42.41272    120.4 1.403e+04 2.076e-09
 42.42147    120.2 1.419e+04 2.079e-09
 42.42661    118.2 1.623e+04 2.335e-09
 42.43322    114.2 2.011e+04 3.083e-09
 42.44350    109.9 2.297e+04 4.974e-09
 42.45272    105.5 2.490e+04 9.861e-09
 42.45785     94.7 2.545e+04 5.673e-08
 42.46406     92.3 2.477e+04 8.085e-08
 42.47434     90.0 2.377e+04 1.130e-07
 42.48396     86.1 2.590e+04 1.609e-07
 42.48910     66.1 3.773e+04 2.800e-07
 42.49489     49.7 4.147e+04 3.432e-07
 42.50517     33.5 3.982e+04 4.697e-07
 42.51520     21.6 3.825e+04 5.534e-07
 42.52034     -1.4 3.132e+04 3.703e-07
 42.52283     -8.1 3.340e+04 1.590e-07
 42.52797     -5.4 3.690e+04 1.732e-07
 42.53600    -12.7 4.016e+04 5.167e-08
 42.54628    -20.1 3.581e+04 2.310e-08
 42.55158    -28.6 3.026e+04 1.155e-08
 42.55672    -36.5 2.310e+04 6.693e-09
 42.56684    -42.0 1.968e+04 5.273e-09
 42.57773    -43.0 1.941e+04 5.134e-09
 42.58806    -47.3 1.570e+04 3.006e-09
 42.60291    -48.3 1.538e+04 2.711e-09
 42.62347    -49.0 1.503e+04 2.399e-09
 42.64027    -49.8 1.444e+04 1.974e-09
 42.65055    -51.9 1.364e+04 1.476e-09
 42.66458    -52.7 1.313e+04 1.250e-09
 42.68513    -53.4 1.269e+04 1.062e-09
 42.70275    -54.1 1.240e+04 9.384e-10
 42.71303    -56.9 1.346e+04 1.340e-09
 42.72625    -57.9 1.349e+04 1.335e-09
 42.74680    -58.6 1.343e+04 1.338e-09
 42.76524    -58.8 1.340e+04 1.384e-09
 42.77552    -61.1 1.480e+04 1.935e-09
 42.78791    -61.7 1.555e+04 2.253e-09
 42.80847    -63.0 1.714e+04 2.784e-09
 42.82772    -65.1 1.998e+04 3.723e-09
 42.83800    -73.1 2.360e+04 1.179e-08
 42.84439    -73.4 2.407e+04 1.271e-08
 42.85462    -75.0 2.434e+04 1.717e-08
 42.86401    -76.3 2.437e+04 2.217e-08
 42.86915    -80.0 2.466e+04 3.700e-08
 42.87518    -81.2 2.497e+04 4.351e-08
 42.88546    -82.4 2.539e+04 4.783e-08
 42.89525    -83.5 2.576e+04 5.034e-08
 42.90039    -87.8 2.699e+04 4.632e-08
 42.90601    -89.5 2.861e+04 3.586e-08
 42.91629    -92.0 2.923e+04 2.480e-08
 42.92649    -95.8 2.821e+04 1.551e-08
 42.93163   -105.2 1.940e+04 6.549e-09
 42.93685   -108.5 1.716e+04 4.946e-09
 42.94712   -110.5 1.592e+04 4.129e-09
 42.95587   -111.8 1.530e+04 3.654e-09
 42.96101   -111.2 1.575e+04 3.847e-09
 42.96287   -112.7 1.480e+04 3.340e-09
 42.97320   -113.8 1.421e+04 2.886e-09
 42.99347   -114.7 1.396e+04 2.606e-09
 43.01403   -115.1 1.380e+04 2.408e-09
 43.02546   -115.5 1.363e+04 2.215e-09
 43.03573   -116.8 1.276e+04 1.506e-09
 43.05514   -117.2 1.271e+04 1.450e-09
 43.07570   -117.6 1.270e+04 1.435e-09
 43.08794   -118.1 1.274e+04 1.444e-09
 43.09822   -119.5 1.211e+04 1.133e-09
 43.11681   -119.9 1.231e+04 1.209e-09
 43.13737   -120.4 1.253e+04 1.296e-09
 43.15043   -120.9 1.281e+04 1.415e-09
 43.16070   -122.5 1.278e+04 1.371e-09
 43.17848   -123.3 1.329e+04 1.603e-09
 43.19903   -124.0 1.377e+04 1.889e-09
 43.21291   -124.6 1.403e+04 2.162e-09
 43.22319   -126.6 1.419e+04 2.395e-09
 43.24015   -127.8 1.460e+04 2.800e-09
 43.26070   -131.8 1.707e+04 3.854e-09
 43.27540   -138.3 2.103e+04 6.819e-09
 43.28568   -143.7 2.169e+04 8.326e-09
 43.30181   -150.5 2.278e+04 1.453e-08
 43.31718   -156.2 2.215e+04 1.874e-08
 43.32741   -158.0 2.198e+04 1.937e-08
 43.33769   -161.1 2.172e+04 1.961e-08
 43.34292   -162.4 2.146e+04 1.964e-08
 43.34811   -163.7 2.085e+04 1.584e-08
 43.35829   -166.1 2.009e+04 1.416e-08
 43.36852   -167.8 1.950e+04 1.135e-08
 43.37417   -170.2 1.858e+04 8.264e-09
 43.37931   -171.5 1.791e+04 6.677e-09
 43.38890   -173.6 1.692e+04 5.059e-09
 43.39404   -173.3 1.705e+04 5.240e-09
 43.40032   -175.2 1.613e+04 4.188e-09
 43.41065   -176.7 1.541e+04 3.401e-09
 43.42515   -179.5 1.391e+04 2.342e-09
 43.44571   -181.0 1.300e+04 1.764e-09
 43.46285   -181.7 1.251e+04 1.381e-09
 43.47313   -181.5 1.212e+04 1.162e-09
 43.48682   -182.1 1.169e+04 8.880e-10
 43.50737   -182.9 1.122e+04 6.665e-10
 43.52534   -183.8 1.079e+04 5.158e-10
 43.53562   -183.4 1.036e+04 4.020e-10
 43.54849   -183.8 1.023e+04 3.623e-10
 43.56904   -184.1 1.021e+04 3.559e-10
 43.58782   -184.7 1.025e+04 3.622e-10
 43.60848   -185.1 1.024e+04 3.426e-10
 43.64118   -186.5 1.025e+04 3.531e-10
 43.68229   -187.8 1.023e+04 3.546e-10
 43.71299   -189.3 1.015e+04 3.405e-10
 43.73354   -189.5 9.711e+03 2.668e-10
 43.76452   -190.7 9.633e+03 2.497e-10
 43.80563   -191.9 9.628e+03 2.436e-10
 43.83796   -193.4 9.753e+03 2.467e-10
 43.85851   -192.6 9.223e+03 1.969e-10
 43.88785   -194.6 9.644e+03 2.341e-10
 43.92897   -197.3 1.104e+04 4.366e-10
 43.96293   -199.6 1.242e+04 8.704e-10
 43.98348   -198.9 1.200e+04 7.856e-10
 44.01119   -201.2 1.279e+04 1.227e-09
 44.03559   -202.2 1.308e+04 1.445e-09
 44.04577   -202.2 1.280e+04 1.323e-09
 44.06239   -203.0 1.291e+04 1.391e-09
 44.08294   -204.3 1.291e+04 1.427e-09
 44.09798   -205.1 1.291e+04 1.435e-09
 44.10836   -205.2 1.267e+04 1.283e-09
 44.12415   -206.2 1.252e+04 1.252e-09
 44.14461   -206.9 1.244e+04 1.248e-09
 44.16047   -207.4 1.235e+04 1.240e-09
 44.17074   -207.3 1.202e+04 1.062e-09
 44.18572   -207.6 1.201e+04 1.060e-09
 44.20628   -209.0 1.209e+04 1.079e-09
 44.22295   -215.0 1.374e+04 1.255e-09
 44.23323   -217.3 1.442e+04 1.315e-09
 44.24739   -225.7 1.904e+04 3.421e-09
 44.26021   -233.4 2.151e+04 8.225e-09
 44.27049   -230.6 2.080e+04 7.264e-09
 44.28544   -238.4 2.209e+04 1.260e-08
 44.29571   -238.7 2.144e+04 1.216e-08
 44.30906   -246.7 2.149e+04 1.336e-08
 44.32961   -254.9 2.077e+04 1.225e-08
 44.34792   -262.8 1.876e+04 8.164e-09
 44.35820   -261.8 1.769e+04 5.839e-09
 44.37073   -267.8 1.513e+04 3.265e-09
 44.39128   -271.2 1.387e+04 2.320e-09
 44.41041   -272.3 1.350e+04 2.034e-09
 44.42068   -270.8 1.293e+04 1.538e-09
 44.43239   -271.2 1.283e+04 1.478e-09
 44.45295   -271.6 1.277e+04 1.450e-09
 44.47289   -271.9 1.276e+04 1.449e-09
 44.48317   -270.5 1.228e+04 1.149e-09
 44.49406   -270.6 1.229e+04 1.170e-09
 44.51462   -270.5 1.238e+04 1.230e-09
 44.53517   -270.1 1.250e+04 1.316e-09
 44.54565   -269.7 1.261e+04 1.407e-09
 44.55593   -268.6 1.228e+04 1.169e-09
 44.57629   -268.1 1.239e+04 1.248e-09
 44.59684   -267.5 1.244e+04 1.315e-09
 44.60814   -266.7 1.245e+04 1.360e-09
 44.61842   -265.8 1.226e+04 1.175e-09
 44.63795   -264.9 1.228e+04 1.218e-09
 44.65851   -264.0 1.225e+04 1.244e-09
 44.67063   -262.9 1.224e+04 1.249e-09
 44.68090   -262.2 1.216e+04 1.151e-09
 44.69325   -261.2 1.215e+04 1.173e-09
 44.70353   -261.1 1.219e+04 1.177e-09
 44.72018   -260.0 1.219e+04 1.208e-09
 44.73311   -259.0 1.218e+04 1.213e-09
 44.74339   -258.5 1.218e+04 1.180e-09
 44.76129   -257.5 1.217e+04 1.192e-09
 44.78185   -256.4 1.212e+04 1.189e-09
 44.79560   -255.4 1.208e+04 1.175e-09
 44.80587   -255.2 1.223e+04 1.250e-09
 44.82296   -254.3 1.225e+04 1.277e-09
 44.84351   -253.4 1.226e+04 1.298e-09
 44.85808   -252.5 1.229e+04 1.321e-09
 44.86836   -252.5 1.264e+04 1.539e-09
 44.88463   -251.6 1.269e+04 1.590e-09
 44.90518   -250.8 1.271e+04 1.612e-09
 44.92057   -250.1 1.271e+04 1.619e-09
 44.93084   -250.3 1.309e+04 1.890e-09
 44.94629   -249.6 1.303e+04 1.855e-09
 44.96685   -249.0 1.302e+04 1.835e-09
 44.98305   -248.7 1.304e+04 1.834e-09
 44.99333   -248.6 1.326e+04 1.981e-09
 45.00796   -248.2 1.332e+04 1.983e-09
 45.02852   -248.6 1.375e+04 2.070e-09
 45.04554   -251.8 1.666e+04 3.551e-09
 45.05581   -251.8 1.544e+04 2.401e-09
 45.06963   -257.5 2.069e+04 7.541e-09
 45.08187   -259.3 2.215e+04 2.707e-08
 45.08696   -260.4 2.232e+04 3.169e-08
 45.09523   -260.7 2.230e+04 1.034e-07
 45.10551   -260.6 2.231e+04 2.399e-07
 45.11306   -261.1 2.241e+04 3.689e-07
 45.11820   -261.5 2.210e+04 5.479e-07
 45.12606   -265.1 2.218e+04 6.096e-07
 45.13133   -268.7 2.201e+04 5.502e-07
 45.13646   -269.8 2.232e+04 9.381e-07
 45.14430   -271.2 2.230e+04 4.393e-07
 45.14944   -271.9 2.198e+04 4.340e-07
 45.15690   -271.0 2.211e+04 1.336e-07
 45.16717   -269.6 2.162e+04 3.538e-08
 45.17555   -269.2 2.053e+04 1.151e-08
 45.18069   -269.2 2.024e+04 1.509e-08
 45.18773   -271.0 1.898e+04 7.605e-09
 45.19801   -273.3 1.735e+04 4.798e-09
 45.20679   -274.4 1.598e+04 3.727e-09
 45.21193   -273.7 1.627e+04 4.352e-09
 45.21856   -274.2 1.560e+04 3.656e-09
 45.23294   -274.7 1.522e+04 3.179e-09
 45.24327   -273.2 1.553e+04 4.125e-09
 45.25463   -274.1 1.503e+04 3.178e-09
 45.27519   -275.5 1.416e+04 2.213e-09
 45.29548   -276.7 1.338e+04 1.632e-09
 45.30575   -275.7 1.368e+04 1.861e-09
 45.31630   -276.8 1.303e+04 1.404e-09
 45.33686   -277.5 1.265e+04 1.185e-09
 45.35741   -277.9 1.239e+04 1.065e-09
 45.36824   -277.9 1.218e+04 9.726e-10
 45.37852   -277.5 1.203e+04 8.784e-10
 45.39853   -277.4 1.178e+04 7.990e-10
 45.41908   -277.2 1.154e+04 7.062e-10
 45.43072   -276.9 1.127e+04 5.945e-10
 45.44100   -276.4 1.123e+04 5.943e-10
 45.46019   -275.6 1.097e+04 4.917e-10
 45.48075   -274.8 1.078e+04 4.085e-10
 45.49321   -274.1 1.069e+04 3.611e-10
 45.50349   -273.7 1.067e+04 3.781e-10
 45.53224   -273.4 1.057e+04 3.427e-10
 45.57345   -272.3 1.030e+04 2.753e-10
 45.60810   -270.7 9.952e+03 2.148e-10
 45.62865   -270.4 9.968e+03 2.230e-10
 45.65567   -268.7 9.628e+03 1.729e-10
 45.69678   -266.9 9.477e+03 1.475e-10
 45.73307   -264.9 9.466e+03 1.390e-10
 45.75362   -264.9 9.455e+03 1.383e-10
 45.77901   -263.2 9.459e+03 1.373e-10
 45.82012   -262.2 9.494e+03 1.391e-10
 45.85804   -262.1 9.892e+03 1.826e-10
 45.87859   -262.7 1.012e+04 2.130e-10
 45.90234   -262.9 1.104e+04 4.129e-10
 45.94346   -263.1 1.171e+04 7.114e-10
 45.98227   -263.6 1.216e+04 9.970e-10
 46.00127   -261.5 1.210e+04 9.682e-10
 46.00356   -262.1 1.196e+04 8.947e-10
 46.02568   -262.6 1.205e+04 9.687e-10
 46.06679   -262.8 1.203e+04 9.704e-10
 46.10790   -262.7 1.189e+04 8.985e-10
 46.14902   -261.6 1.118e+04 5.535e-10
 46.19013   -260.4 1.100e+04 4.752e-10
 46.23124   -259.0 1.096e+04 4.396e-10
 46.25350   -257.4 1.098e+04 4.318e-10
 46.27406   -257.3 1.065e+04 3.394e-10
 46.31346   -256.1 1.069e+04 3.380e-10
 46.35458   -254.9 1.083e+04 3.555e-10
 46.37847   -253.7 1.096e+04 3.882e-10
 46.39903   -253.8 1.051e+04 3.285e-10
 46.43680   -252.5 1.059e+04 3.593e-10
 46.47791   -251.0 1.064e+04 3.823e-10
 46.50344   -249.3 1.064e+04 3.824e-10
 46.52400   -248.4 1.031e+04 3.218e-10
 46.56014   -246.7 1.029e+04 3.054e-10
 46.60125   -244.8 1.031e+04 2.942e-10
 46.62841   -242.9 1.033e+04 2.921e-10
 46.64897   -242.9 9.945e+03 2.247e-10
 46.68347   -240.8 9.941e+03 2.247e-10
 46.72458   -238.6 1.003e+04 2.342e-10
 46.75338   -236.5 1.025e+04 2.782e-10
 46.77394   -236.1 9.763e+03 2.050e-10
 46.80681   -234.2 1.012e+04 2.643e-10
 46.84792   -232.7 1.057e+04 3.570e-10
 46.86890   -231.6 1.119e+04 5.067e-10
 46.87868   -230.3 1.083e+04 4.155e-10
 46.89881   -229.7 1.058e+04 3.487e-10
 46.91977   -229.4 1.114e+04 4.879e-10
 46.94023   -229.4 1.118e+04 5.450e-10
 46.97116   -229.7 1.176e+04 7.794e-10
 47.00332   -229.7 1.322e+04 1.690e-09
 47.02388   -229.0 1.291e+04 1.334e-09
 47.04310   -229.1 1.461e+04 3.294e-09
 47.06356   -228.9 1.575e+04 5.267e-09
 47.07589   -228.7 1.672e+04 7.630e-09
 47.08617   -228.8 1.648e+04 6.785e-09
 47.10467   -228.9 1.728e+04 9.390e-09
 47.12523   -229.0 1.763e+04 1.130e-08
 47.13838   -229.1 1.765e+04 1.177e-08
 47.14866   -228.6 1.739e+04 1.023e-08
 47.16634   -228.5 1.743e+04 1.077e-08
 47.18690   -228.5 1.711e+04 1.050e-08
 47.20086   -228.5 1.646e+04 8.510e-09
 47.21114   -228.1 1.631e+04 7.069e-09
 47.22801   -227.8 1.567e+04 5.989e-09
 47.24857   -227.4 1.501e+04 4.679e-09
 47.26335   -227.3 1.450e+04 3.727e-09
 47.27363   -227.3 1.428e+04 3.211e-09
 47.28968   -227.4 1.421e+04 3.072e-09
 47.30174   -227.5 1.422e+04 3.072e-09
 47.31202   -227.1 1.394e+04 2.535e-09
 47.32583   -227.3 1.401e+04 2.601e-09
 47.33611   -227.7 1.383e+04 2.310e-09
 47.35135   -228.0 1.409e+04 2.545e-09
 47.37190   -228.4 1.428e+04 2.728e-09
 47.38832   -228.8 1.436e+04 2.798e-09
 47.39860   -229.4 1.404e+04 2.419e-09
 47.41301   -229.9 1.405e+04 2.383e-09
 47.43357   -230.4 1.399e+04 2.162e-09
 47.45080   -230.9 1.386e+04 1.896e-09
 47.46108   -231.3 1.354e+04 1.642e-09
 47.47468   -231.7 1.343e+04 1.487e-09
 47.49524   -231.8 1.335e+04 1.401e-09
 47.51329   -231.9 1.331e+04 1.361e-09
 47.52357   -232.1 1.323e+04 1.285e-09
 47.54673   -232.6 1.324e+04 1.262e-09
 47.58794   -232.2 1.333e+04 1.311e-09
 47.61867   -231.6 1.372e+04 1.616e-09
 47.63826   -231.5 1.466e+04 2.627e-09
 47.64854   -231.2 1.456e+04 2.266e-09
 47.65969   -231.0 1.552e+04 3.718e-09
 47.68024   -230.7 1.630e+04 5.521e-09
 47.70074   -230.6 1.682e+04 6.806e-09
 47.72130   -230.8 1.703e+04 7.345e-09
 47.73478   -231.5 1.704e+04 7.481e-09
 47.74506   -231.2 1.667e+04 6.336e-09
 47.76247   -231.6 1.630e+04 5.437e-09
 47.77351   -232.1 1.572e+04 3.884e-09
 47.78378   -231.2 1.575e+04 4.050e-09
 47.80358   -231.8 1.519e+04 2.779e-09
 47.82413   -232.6 1.464e+04 1.844e-09
 47.83599   -233.4 1.402e+04 1.234e-09
 47.84627   -232.3 1.426e+04 1.398e-09
 47.86525   -233.0 1.374e+04 9.736e-10
 47.88580   -233.2 1.318e+04 6.956e-10
 47.89848   -233.1 1.267e+04 5.151e-10
 47.90875   -232.3 1.299e+04 5.743e-10
 47.92691   -232.2 1.247e+04 4.169e-10
 47.94747   -231.9 1.222e+04 3.411e-10
 47.96096   -231.4 1.219e+04 3.183e-10
 47.97124   -231.3 1.219e+04 3.191e-10
 47.99896   -231.1 1.219e+04 3.096e-10
 48.02364   -231.1 1.219e+04 3.064e-10
 48.04420   -230.2 1.217e+04 3.003e-10
 48.08128   -230.5 1.228e+04 3.157e-10
 48.12239   -230.9 1.250e+04 3.899e-10
 48.14851   -230.6 1.258e+04 4.409e-10
 48.15870   -230.4 1.261e+04 4.477e-10
 48.16781   -230.9 1.269e+04 5.035e-10
 48.17809   -231.7 1.271e+04 5.463e-10
 48.19414   -232.3 1.274e+04 5.978e-10
 48.21090   -232.8 1.281e+04 6.396e-10
 48.22118   -232.9 1.301e+04 6.820e-10
 48.23525   -233.3 1.313e+04 7.533e-10
 48.25581   -233.6 1.327e+04 8.377e-10
 48.27339   -233.8 1.343e+04 9.435e-10
 48.28367   -234.2 1.374e+04 1.182e-09
 48.29692   -234.5 1.392e+04 1.404e-09
 48.31748   -234.5 1.409e+04 1.681e-09
 48.33587   -234.3 1.426e+04 2.012e-09
 48.34615   -234.8 1.460e+04 2.493e-09
 48.35859   -234.5 1.473e+04 2.875e-09
 48.37915   -234.2 1.473e+04 3.148e-09
 48.39836   -233.8 1.471e+04 3.249e-09
 48.40864   -234.4 1.475e+04 3.328e-09
 48.42026   -233.8 1.470e+04 3.369e-09
 48.44081   -233.1 1.466e+04 3.414e-09
 48.46084   -232.3 1.461e+04 3.440e-09
 48.47112   -232.7 1.430e+04 3.038e-09
 48.48193   -231.8 1.421e+04 2.846e-09
 48.50248   -231.0 1.410e+04 2.541e-09
 48.52304   -230.4 1.400e+04 2.136e-09
 48.53361   -229.8 1.387e+04 1.712e-09
 48.54388   -230.1 1.356e+04 1.321e-09
 48.56415   -229.7 1.346e+04 1.073e-09
 48.58471   -229.5 1.332e+04 8.860e-10
 48.59609   -229.2 1.315e+04 7.959e-10
 48.60196   -229.6 1.307e+04 7.182e-10
 48.62150   -230.9 1.266e+04 4.942e-10
 48.64849   -228.2 1.230e+04 4.579e-10
 48.66905   -229.0 1.219e+04 5.511e-10
 48.69796   -226.7 1.209e+04 5.908e-10
 48.73907   -224.5 1.203e+04 6.086e-10
 48.77346   -222.2 1.202e+04 6.282e-10
 48.79402   -222.7 1.238e+04 8.649e-10
 48.82130   -220.6 1.247e+04 8.977e-10
 48.86241   -218.8 1.287e+04 1.049e-09
 48.89843   -217.5 1.356e+04 1.460e-09
 48.91899   -219.3 1.403e+04 2.105e-09
 48.93426   -217.8 1.453e+04 3.088e-09
 48.95471   -216.6 1.508e+04 4.069e-09
 48.97100   -215.5 1.579e+04 5.387e-09
 48.98128   -216.2 1.640e+04 6.730e-09
 48.99583   -215.6 1.725e+04 8.976e-09
 49.01638   -215.5 1.785e+04 1.095e-08
 49.03349   -215.6 1.809e+04 1.194e-08
 49.04071   -216.8 1.831e+04 1.313e-08
 49.04416   -216.8 1.704e+04 8.306e-09
 49.05749   -216.9 1.706e+04 8.389e-09
 49.07805   -217.1 1.701e+04 8.204e-09
 49.09597   -217.3 1.676e+04 7.540e-09
 49.10625   -218.4 1.667e+04 7.495e-09
 49.11916   -218.6 1.639e+04 6.889e-09
 49.13972   -218.8 1.608e+04 6.259e-09
 49.15846   -218.9 1.579e+04 5.653e-09
 49.16873   -219.3 1.552e+04 5.071e-09
 49.18083   -219.4 1.522e+04 4.352e-09
 49.20139   -219.5 1.490e+04 3.631e-09
 49.22094   -219.7 1.454e+04 2.972e-09
 49.23122   -220.2 1.410e+04 2.392e-09
 49.24250   -220.4 1.377e+04 2.014e-09
 49.26305   -220.5 1.348e+04 1.750e-09
 49.28343   -220.5 1.320e+04 1.530e-09
 49.29380   -221.0 1.325e+04 1.564e-09
 49.31464   -220.7 1.276e+04 1.193e-09
 49.35575   -219.7 1.239e+04 9.420e-10
 49.38649   -218.3 1.207e+04 7.608e-10
 49.40695   -217.7 1.199e+04 6.752e-10
 49.41868   -216.7 1.189e+04 5.704e-10
 49.42895   -216.3 1.201e+04 5.824e-10
 49.44806   -215.9 1.199e+04 5.292e-10
 49.46702   -215.5 1.192e+04 4.712e-10
 49.48767   -214.8 1.194e+04 4.549e-10
 49.52020   -213.3 1.176e+04 3.479e-10
 49.54384   -211.5 1.152e+04 2.575e-10
 49.56440   -211.4 1.173e+04 2.915e-10
 49.60242   -209.7 1.157e+04 2.286e-10
 49.64354   -208.0 1.156e+04 2.044e-10
 49.66881   -206.3 1.157e+04 2.027e-10
 49.68937   -206.4 1.181e+04 3.097e-10
 49.72576   -204.9 1.183e+04 3.173e-10
 49.76687   -203.4 1.186e+04 3.341e-10
 49.79378   -202.0 1.186e+04 3.502e-10
 49.81434   -202.4 1.192e+04 4.371e-10
 49.84910   -200.9 1.185e+04 4.310e-10
 49.89021   -199.4 1.183e+04 4.361e-10
 49.91875   -197.8 1.185e+04 4.636e-10
 49.93931   -198.1 1.181e+04 4.684e-10
 49.97243   -196.6 1.198e+04 5.319e-10
 50.01354   -195.3 1.222e+04 6.675e-10
 50.04372   -194.1 1.250e+04 8.657e-10
 50.06428   -195.0 1.259e+04 8.891e-10
 50.09577   -194.0 1.286e+04 1.130e-09
 50.13688   -193.1 1.305e+04 1.343e-09
 50.16869   -192.2 1.315e+04 1.475e-09
 50.18925   -193.6 1.321e+04 1.568e-09
 50.21910   -192.5 1.314e+04 1.586e-09
 50.26022   -191.1 1.312e+04 1.574e-09
 50.29366   -189.7 1.315e+04 1.612e-09
 50.31422   -190.8 1.303e+04 1.556e-09
 50.33319   -189.4 1.304e+04 1.560e-09
 50.35374   -189.5 1.315e+04 1.620e-09
 50.38355   -188.4 1.326e+04 1.717e-09
 50.41863   -187.8 1.333e+04 1.828e-09
 50.43919   -188.6 1.297e+04 1.499e-09
 50.46578   -188.7 1.319e+04 1.664e-09
 50.50689   -189.1 1.361e+04 2.073e-09
 50.54360   -190.8 1.408e+04 2.793e-09
 50.56406   -192.5 1.432e+04 3.443e-09
 50.57864   -192.7 1.446e+04 3.951e-09
 50.59920   -193.1 1.462e+04 4.351e-09
 50.61617   -193.5 1.470e+04 4.588e-09
 50.62645   -194.1 1.461e+04 4.417e-09
 50.64031   -194.5 1.448e+04 4.279e-09
 50.66086   -194.8 1.428e+04 3.940e-09
 50.67865   -195.0 1.403e+04 3.472e-09
 50.68893   -195.4 1.378e+04 2.998e-09
 50.71235   -196.0 1.345e+04 2.439e-09
 50.75356   -196.3 1.286e+04 1.723e-09
 50.79354   -195.6 1.256e+04 1.353e-09
 50.81410   -195.6 1.237e+04 1.150e-09
 50.83578   -194.6 1.221e+04 1.007e-09
 50.87690   -193.5 1.209e+04 9.245e-10
 50.91801   -192.4 1.205e+04 8.903e-10
 50.93907   -191.3 1.201e+04 8.759e-10
 50.95962   -191.1 1.196e+04 8.241e-10
 51.00023   -189.8 1.191e+04 8.073e-10
 51.04134   -188.5 1.188e+04 7.846e-10
 51.06404   -187.1 1.190e+04 7.435e-10
 51.08459   -186.9 1.184e+04 6.484e-10
 51.12357   -185.5 1.183e+04 6.000e-10
 51.16468   -184.0 1.177e+04 5.443e-10
 51.18901   -182.5 1.169e+04 4.910e-10
 51.20303   -181.8 1.158e+04 4.362e-10
 51.21982   -181.9 1.166e+04 4.471e-10
 51.24690   -180.5 1.160e+04 4.211e-10
 51.28802   -179.0 1.159e+04 4.158e-10
 51.31398   -177.5 1.158e+04 4.224e-10
 51.33454   -176.6 1.150e+04 3.745e-10
 51.37024   -175.1 1.154e+04 3.955e-10
 51.41135   -173.7 1.160e+04 4.287e-10
 51.43895   -172.3 1.167e+04 4.751e-10
 51.45951   -171.5 1.162e+04 4.142e-10
 51.49358   -170.2 1.172e+04 4.746e-10
 51.53469   -168.9 1.185e+04 5.755e-10
 51.56392   -167.6 1.201e+04 7.182e-10
 51.58448   -167.1 1.205e+04 7.228e-10
 51.61691   -165.9 1.227e+04 9.380e-10
 51.65802   -164.9 1.252e+04 1.232e-09
 51.68889   -164.0 1.270e+04 1.492e-09
 51.70945   -163.6 1.274e+04 1.536e-09
 51.74025   -162.9 1.283e+04 1.693e-09
 51.78136   -162.1 1.284e+04 1.732e-09
 51.81386   -161.3 1.281e+04 1.727e-09
 51.83442   -161.2 1.276e+04 1.694e-09
 51.86358   -160.2 1.264e+04 1.596e-09
 51.90470   -159.0 1.251e+04 1.467e-09
 51.93883   -157.6 1.243e+04 1.402e-09
 51.95939   -157.4 1.239e+04 1.358e-09
 51.98692   -156.1 1.245e+04 1.407e-09
 52.02803   -154.9 1.271e+04 1.678e-09
 52.06380   -153.8 1.307e+04 2.177e-09
 52.08054   -154.1 1.303e+04 2.077e-09
 52.08589   -154.5 1.257e+04 1.361e-09
 52.11026   -153.8 1.284e+04 1.697e-09
 52.15137   -153.5 1.308e+04 2.038e-09
 52.18877   -153.5 1.324e+04 2.309e-09
 52.20933   -154.4 1.288e+04 1.716e-09
 52.23359   -154.6 1.292e+04 1.895e-09
 52.27470   -154.7 1.293e+04 2.032e-09
 52.31374   -154.7 1.296e+04 2.142e-09
 52.33430   -155.5 1.287e+04 2.004e-09
 52.35693   -155.6 1.296e+04 2.161e-09
 52.39804   -155.8 1.305e+04 2.328e-09
 52.43871   -156.1 1.313e+04 2.500e-09
 52.45927   -157.4 1.283e+04 2.026e-09
 52.48027   -157.7 1.275e+04 2.006e-09
 52.52138   -157.7 1.260e+04 1.918e-09
 52.56249   -157.4 1.239e+04 1.705e-09
 52.58424   -156.7 1.208e+04 1.353e-09
 52.60479   -157.1 1.158e+04 9.138e-10
 52.64471   -155.9 1.132e+04 6.912e-10
 52.68583   -154.5 1.111e+04 5.094e-10
 52.70921   -152.9 1.095e+04 3.790e-10
 52.72976   -153.0 1.093e+04 3.721e-10
 52.76805   -151.3 1.086e+04 3.087e-10
 52.80916   -149.7 1.083e+04 2.704e-10
 52.83418   -148.1 1.082e+04 2.545e-10
 52.85473   -148.2 1.090e+04 2.871e-10
 52.89139   -146.7 1.091e+04 2.852e-10
 52.93140   -145.4 1.098e+04 3.039e-10
 52.95196   -145.5 1.096e+04 3.011e-10
 52.95915   -144.3 1.102e+04 3.564e-10
 52.97970   -144.4 1.114e+04 4.144e-10
 53.01472   -143.2 1.121e+04 5.048e-10
 53.05583   -142.0 1.128e+04 5.683e-10
 53.08412   -140.9 1.130e+04 5.862e-10
 53.10467   -141.0 1.133e+04 6.002e-10
 53.13806   -139.8 1.132e+04 5.941e-10
 53.17917   -138.5 1.125e+04 5.436e-10
 53.20909   -137.2 1.118e+04 4.838e-10
 53.22964   -137.0 1.120e+04 4.897e-10
 53.26139   -135.7 1.120e+04 4.744e-10
 53.30251   -134.6 1.124e+04 4.846e-10
 53.33406   -133.6 1.130e+04 5.135e-10
 53.35461   -133.2 1.143e+04 6.189e-10
 53.38473   -132.4 1.147e+04 6.501e-10
 53.42584   -131.8 1.147e+04 6.495e-10
 53.45903   -131.1 1.128e+04 5.644e-10
 53.47958   -130.7 1.148e+04 7.269e-10
 53.50807   -129.9 1.117e+04 5.336e-10
 53.54918   -128.9 1.087e+04 3.651e-10
 53.58400   -128.0 1.065e+04 2.676e-10
 53.60455   -127.4 1.079e+04 3.502e-10
 53.63140   -126.3 1.065e+04 2.762e-10
 53.67251   -125.1 1.058e+04 2.427e-10
 53.70897   -123.8 1.054e+04 2.249e-10
 53.72952   -123.4 1.058e+04 2.339e-10
 53.75474   -122.0 1.053e+04 2.096e-10
 53.79585   -120.6 1.050e+04 1.872e-10
 53.81803   -119.1 1.049e+04 1.667e-10
 53.83557   -119.5 1.048e+04 1.481e-10
 53.85449   -119.3 1.048e+04 1.412e-10
 53.87807   -117.9 1.048e+04 1.228e-10
 53.91919   -116.5 1.050e+04 1.131e-10
 53.95891   -115.2 1.051e+04 1.103e-10
 53.97946   -115.1 1.048e+04 1.165e-10
 54.00141   -113.8 1.054e+04 1.200e-10
 54.04252   -112.4 1.059e+04 1.335e-10
 54.08363   -111.0 1.061e+04 1.444e-10
 54.10444   -109.5 1.062e+04 1.474e-10
 54.12499   -109.2 1.064e+04 1.572e-10
 54.16586   -107.6 1.064e+04 1.572e-10
 54.20697   -105.9 1.060e+04 1.505e-10
 54.22941   -103.9 1.056e+04 1.286e-10
 54.24996   -103.6 1.059e+04 1.456e-10
 54.28919   -101.5 1.057e+04 1.175e-10
 54.33031    -99.4 1.059e+04 9.309e-11
 54.35438    -97.4 1.065e+04 7.528e-11
 54.37493    -97.1 1.067e+04 8.508e-11
 54.41253    -95.1 1.074e+04 7.430e-11
 54.45364    -93.1 1.077e+04 7.107e-11
 54.47935    -91.0 1.079e+04 6.991e-11
 54.49990    -90.8 1.078e+04 8.435e-11
 54.53587    -88.9 1.086e+04 9.068e-11
 54.57698    -87.0 1.088e+04 1.037e-10
 54.60432    -85.1 1.089e+04 1.190e-10
 54.62487    -84.6 1.088e+04 1.280e-10
 54.65920    -82.6 1.089e+04 1.378e-10
 54.68410    -80.5 1.091e+04 1.422e-10
 54.70466    -80.8 1.090e+04 1.240e-10
 54.72929    -78.8 1.089e+04 1.126e-10
 54.74984    -78.3 1.086e+04 1.033e-10
 54.78254    -76.3 1.082e+04 8.941e-11
 54.82365    -74.5 1.073e+04 8.006e-11
 54.85426    -72.7 1.062e+04 7.526e-11
 54.87481    -72.2 1.057e+04 6.930e-11
 54.90587    -70.2 1.048e+04 6.791e-11
 54.94699    -68.1 1.043e+04 6.652e-11
 54.97923    -65.9 1.038e+04 6.454e-11
 54.99978    -65.2 1.034e+04 6.208e-11
 55.02921    -62.9 1.033e+04 5.881e-11
 55.07032    -60.8 1.035e+04 5.568e-11
 55.10420    -58.7 1.038e+04 5.435e-11
 55.12475    -58.0 1.037e+04 5.275e-11
 55.15255    -56.4 1.055e+04 5.303e-11
 55.19366    -55.1 1.052e+04 7.209e-11
 55.22917    -53.5 1.043e+04 1.101e-10
 55.24972    -52.9 1.048e+04 1.203e-10
 55.27588    -50.8 1.051e+04 1.772e-10
 55.31699    -48.7 1.059e+04 2.167e-10
 55.35414    -46.9 1.059e+04 2.229e-10
 55.37469    -46.3 1.066e+04 2.476e-10
 55.39922    -44.4 1.045e+04 2.153e-10
 55.44033    -42.3 1.032e+04 1.528e-10
 55.47911    -40.5 1.022e+04 1.043e-10
 55.49966    -39.7 1.023e+04 1.068e-10
 55.52255    -38.0 1.015e+04 7.761e-11
 55.55018    -36.3 1.003e+04 6.539e-11
 55.57073    -36.6 9.953e+03 6.366e-11
 55.60408    -34.6 9.882e+03 6.128e-11
 55.62463    -33.9 9.931e+03 6.138e-11
 55.64589    -31.9 9.966e+03 6.323e-11
 55.68700    -29.7 1.000e+04 6.384e-11
 55.72811    -27.8 1.008e+04 6.158e-11
 55.74960    -26.1 1.011e+04 6.057e-11
 55.77016    -25.6 1.017e+04 7.942e-11
 55.81034    -24.5 1.024e+04 9.120e-11
 55.85145    -23.8 1.031e+04 1.323e-10
 55.87457    -22.5 1.033e+04 2.159e-10
 55.89513    -21.9 1.043e+04 2.463e-10
 55.93367    -20.2 1.049e+04 3.043e-10
 55.97479    -18.9 1.033e+04 2.839e-10
 55.99954    -17.0 1.008e+04 1.869e-10
 56.02010    -16.5 1.000e+04 1.537e-10
 56.05701    -15.2 1.004e+04 8.569e-11
 56.09812    -14.3 9.971e+03 5.432e-11
 56.12451    -13.2 9.853e+03 4.052e-11
 56.14507    -12.7 9.858e+03 3.930e-11
 56.18035    -11.5 9.822e+03 3.489e-11
 56.22146     -9.9 9.748e+03 3.460e-11
 56.24948     -8.3 9.711e+03 3.587e-11
 56.27004     -7.9 9.731e+03 3.852e-11
 56.30368     -6.3 9.686e+03 4.271e-11
 56.34479     -4.6 9.645e+03 4.846e-11
 56.37445     -2.9 9.608e+03 5.881e-11
 56.39501     -2.1 9.552e+03 5.488e-11
 56.41625     -0.1 9.491e+03 6.046e-11
 56.43680     -0.2 9.484e+03 5.960e-11
 56.46813      1.7 9.467e+03 5.915e-11
 56.49942      3.7 9.412e+03 5.677e-11
 56.51998      4.3 9.412e+03 4.396e-11
 56.55035      6.2 9.365e+03 3.979e-11
 56.59147      8.0 9.358e+03 3.408e-11
 56.62439      9.7 9.383e+03 2.880e-11
 56.64495     10.3 9.382e+03 2.848e-11
 56.67369     11.9 9.425e+03 2.516e-11
 56.71480     13.4 9.396e+03 2.374e-11
 56.74936     15.2 9.376e+03 2.380e-11
 56.76992     15.9 9.373e+03 2.886e-11
 56.79703     17.6 9.367e+03 2.934e-11
 56.83814     19.3 9.353e+03 3.169e-11
 56.87434     21.0 9.335e+03 3.689e-11
 56.89489     21.8 9.377e+03 4.038e-11
 56.92036     23.7 9.372e+03 4.800e-11
 56.96147     25.6 9.390e+03 5.656e-11
 56.99931     27.5 9.492e+03 5.791e-11
 57.01986     28.0 9.532e+03 6.261e-11
 57.04370     29.8 9.549e+03 6.105e-11
 57.08481     31.5 9.586e+03 5.532e-11
 57.12428     33.1 9.631e+03 4.831e-11
 57.14483     33.5 9.648e+03 5.834e-11
 57.16703     35.0 9.683e+03 5.730e-11
 57.20815     36.3 9.735e+03 5.966e-11
 57.24925     37.6 9.796e+03 6.937e-11
 57.28231     39.6 9.914e+03 1.048e-10
 57.30288     39.6 9.882e+03 9.991e-11
 57.33148     41.0 9.967e+03 1.124e-10
 57.37259     42.3 1.004e+04 1.187e-10
 57.39477     43.4 1.009e+04 1.206e-10
 57.41533     44.1 1.014e+04 1.233e-10
 57.45482     45.2 1.021e+04 1.256e-10
 57.49593     45.3 1.038e+04 1.390e-10
 57.51974     45.1 1.066e+04 1.954e-10
 57.54030     45.4 1.083e+04 2.300e-10
 57.57815     45.0 1.123e+04 4.181e-10
 57.61927     44.4 1.163e+04 5.924e-10
 57.64471     43.3 1.165e+04 5.877e-10
 57.66527     43.8 1.179e+04 6.265e-10
 57.70149     42.9 1.151e+04 4.515e-10
 57.74260     41.8 1.113e+04 2.762e-10
 57.76968     40.7 1.075e+04 2.079e-10
 57.79024     41.1 1.073e+04 2.005e-10
 57.82483     40.5 1.074e+04 2.061e-10
 57.86594     40.0 1.089e+04 2.688e-10
 57.89465     39.9 1.111e+04 4.158e-10
 57.91521     40.3 1.135e+04 5.588e-10
 57.94816     40.4 1.148e+04 6.643e-10
 57.98927     40.5 1.140e+04 6.335e-10
 58.01962     40.9 1.110e+04 4.908e-10
 58.04018     41.1 1.119e+04 5.059e-10
 58.07150     41.6 1.077e+04 3.105e-10
 58.11261     42.0 1.043e+04 1.839e-10
 58.14459     42.4 1.018e+04 1.244e-10
 58.15982     42.7 1.021e+04 1.100e-10
 58.16895     42.0 1.019e+04 1.120e-10
 58.19483     42.8 9.932e+03 1.008e-10
 58.23595     44.0 9.933e+03 1.027e-10
 58.26956     44.9 1.000e+04 1.146e-10
 58.29012     44.8 1.011e+04 1.246e-10
 58.31817     45.2 1.037e+04 2.079e-10
 58.35928     45.7 1.072e+04 3.638e-10
 58.39453     46.1 1.106e+04 5.195e-10
 58.41509     46.1 1.122e+04 5.687e-10
 58.44151     45.9 1.123e+04 5.532e-10
 58.48262     45.7 1.120e+04 4.868e-10
 58.51335     45.2 1.118e+04 4.322e-10
 58.52959     45.1 1.116e+04 4.228e-10
 58.53996     45.1 1.113e+04 3.797e-10
 58.56484     44.3 1.113e+04 3.959e-10
 58.60595     43.5 1.112e+04 4.029e-10
 58.64447     42.5 1.107e+04 3.763e-10
 58.66503     42.8 1.141e+04 4.900e-10
 58.68818     41.9 1.127e+04 3.810e-10
 58.72929     40.8 1.093e+04 2.619e-10
 58.76944     39.9 1.048e+04 2.105e-10
 58.79000     40.0 1.084e+04 2.896e-10
 58.81151     39.3 1.068e+04 2.658e-10
 58.85263     39.2 1.064e+04 2.634e-10
 58.89374     39.5 1.062e+04 2.657e-10
 58.91497     40.0 1.064e+04 2.736e-10
 58.93553     39.0 1.128e+04 5.314e-10
 58.97596     39.4 1.127e+04 5.371e-10
 59.01446     39.7 1.137e+04 5.979e-10
 59.03502     39.9 1.135e+04 5.600e-10
 59.03994     39.9 1.172e+04 7.864e-10
 59.06050     38.3 1.222e+04 1.287e-09
 59.09930     38.4 1.270e+04 1.807e-09
 59.13003     38.4 1.288e+04 2.051e-09
 59.15049     38.5 1.285e+04 2.057e-09
 59.16472     39.1 1.264e+04 1.768e-09
 59.18537     38.3 1.205e+04 1.236e-09
 59.22263     38.3 1.145e+04 7.944e-10
 59.26375     38.3 1.084e+04 5.537e-10
 59.28988     38.6 1.053e+04 4.550e-10
 59.31044     38.3 9.959e+03 2.780e-10
 59.34597     39.4 9.950e+03 2.776e-10
 59.38708     40.6 9.974e+03 2.905e-10
 59.41485     41.8 9.961e+03 3.066e-10
 59.43541     42.4 9.739e+03 2.478e-10
 59.46931     43.8 9.713e+03 2.487e-10
 59.51042     45.3 9.607e+03 2.407e-10
 59.53982     46.9 9.469e+03 2.163e-10
 59.56038     47.8 9.345e+03 1.784e-10
 59.59264     49.5 9.247e+03 1.588e-10
 59.63375     51.2 9.208e+03 1.471e-10
 59.66479     52.9 9.231e+03 1.426e-10
 59.68535     53.6 9.204e+03 1.516e-10
 59.71598     55.1 9.315e+03 1.743e-10
 59.75709     56.4 9.525e+03 2.306e-10
 59.78976     57.7 9.818e+03 3.268e-10
 59.81032     58.5 1.003e+04 4.354e-10
 59.83931     59.7 1.036e+04 5.841e-10
 59.88043     60.5 1.052e+04 6.494e-10
 59.91473     61.3 1.031e+04 5.295e-10
 59.93529     61.6 1.033e+04 5.458e-10
 59.96265     62.2 1.017e+04 4.764e-10
 60.00376     62.7 9.977e+03 3.969e-10
 60.03970     63.1 9.814e+03 3.377e-10
 60.06026     63.2 9.705e+03 3.071e-10
 60.08599     63.5 9.639e+03 2.866e-10
 60.12710     64.0 9.606e+03 2.840e-10
 60.16467     64.5 9.642e+03 2.895e-10
 60.18523     64.3 9.852e+03 3.260e-10
 60.20932     64.6 9.965e+03 3.633e-10
 60.25043     65.0 1.010e+04 4.213e-10
 60.28964     65.4 1.022e+04 4.820e-10
 60.31020     65.1 1.020e+04 4.674e-10
 60.33266     65.5 1.019e+04 4.581e-10
 60.37377     65.8 1.014e+04 4.142e-10
 60.41461     66.1 1.000e+04 3.368e-10
 60.43517     65.3 9.757e+03 2.399e-10
 60.45599     65.4 9.781e+03 2.417e-10
 60.49711     64.9 9.946e+03 2.739e-10
 60.53822     64.3 1.030e+04 4.020e-10
 60.56014     63.6 1.090e+04 7.095e-10
 60.58069     63.2 1.071e+04 7.272e-10
 60.62044     62.8 1.124e+04 1.055e-09
 60.66155     62.0 1.174e+04 1.158e-09
 60.68511     60.7 1.178e+04 1.118e-09
 60.70566     60.5 1.134e+04 8.031e-10
 60.74378     59.6 1.123e+04 6.894e-10
 60.76716     59.5 1.105e+04 5.275e-10
 60.78772     60.0 1.083e+04 4.079e-10
 60.81008     59.8 1.078e+04 3.002e-10
 60.83063     59.7 1.070e+04 2.998e-10
 60.86712     59.5 1.085e+04 2.889e-10
 60.90823     59.4 1.092e+04 2.899e-10
 60.93505     59.2 1.103e+04 2.994e-10
 60.95560     58.8 1.123e+04 3.598e-10
 60.99045     58.3 1.131e+04 3.560e-10
 61.03156     57.8 1.149e+04 3.765e-10
 61.05992     56.7 1.175e+04 4.274e-10
 61.07010     56.2 1.169e+04 4.025e-10
 61.08276     55.3 1.191e+04 4.889e-10
 61.10331     54.2 1.209e+04 6.618e-10
 61.12231     53.5 1.218e+04 9.183e-10
 61.13259     53.1 1.224e+04 9.333e-10
 61.14443     52.7 1.246e+04 1.291e-09
 61.16498     52.6 1.258e+04 1.555e-09
 61.18489     52.9 1.237e+04 1.359e-09
 61.20555     52.8 1.254e+04 1.455e-09
 61.23712     53.1 1.205e+04 1.108e-09
 61.27824     53.4 1.148e+04 6.961e-10
 61.30996     53.7 1.090e+04 4.525e-10
 61.33052     53.4 1.084e+04 4.116e-10
 61.36046     54.3 1.072e+04 3.943e-10
 61.40157     55.6 1.077e+04 4.080e-10
 61.43493     56.8 1.092e+04 4.592e-10
 61.45549     56.3 1.088e+04 4.510e-10
 61.48380     57.3 1.093e+04 4.709e-10
 61.52491     58.1 1.096e+04 4.697e-10
 61.55564     58.4 1.099e+04 4.741e-10
 61.56998     58.6 1.102e+04 4.814e-10
 61.58036     57.9 1.101e+04 4.359e-10
 61.60713     58.2 1.104e+04 4.440e-10
 61.63257     58.7 1.108e+04 4.924e-10
 61.63802     58.0 1.109e+04 4.472e-10
 61.64332     57.8 1.119e+04 4.784e-10
 61.65833     57.9 1.134e+04 5.184e-10
 61.67888     57.6 1.155e+04 5.823e-10
 61.69495     57.4 1.173e+04 6.598e-10
 61.70523     56.8 1.165e+04 6.328e-10
 61.71999     56.5 1.185e+04 7.340e-10
 61.74055     56.3 1.202e+04 8.397e-10
 61.75744     55.7 1.236e+04 1.043e-09
 61.76772     55.7 1.221e+04 9.789e-10
 61.78166     55.6 1.233e+04 1.053e-09
 61.80222     55.0 1.258e+04 1.218e-09
 61.81992     54.7 1.262e+04 1.286e-09
 61.83020     54.7 1.234e+04 1.109e-09
 61.85371     54.0 1.232e+04 1.191e-09
 61.89492     53.1 1.228e+04 1.202e-09
 61.93481     52.5 1.204e+04 1.118e-09
 61.95537     53.5 1.158e+04 8.371e-10
 61.97714     53.5 1.136e+04 7.343e-10
 62.01825     53.7 1.112e+04 6.058e-10
 62.05936     54.2 1.085e+04 4.850e-10
 62.08034     55.0 1.054e+04 3.851e-10
 62.10089     56.4 1.049e+04 3.839e-10
 62.14159     57.5 1.024e+04 3.089e-10
 62.18270     59.0 1.001e+04 2.391e-10
 62.20531     60.5 9.819e+03 1.822e-10
 62.22586     61.7 9.848e+03 1.925e-10
 62.26492     63.3 9.686e+03 1.460e-10
 62.30604     64.8 9.456e+03 1.273e-10
 62.33028     66.6 9.395e+03 1.264e-10
 62.35083     67.6 9.345e+03 1.306e-10
 62.38826     69.4 9.341e+03 1.318e-10
 62.42937     71.2 9.345e+03 1.438e-10
 62.45525     72.9 9.419e+03 1.754e-10
 62.47580     73.8 9.343e+03 1.713e-10
 62.49931     75.5 9.461e+03 2.126e-10
 62.51986     74.8 9.307e+03 1.853e-10
 62.55271     76.4 9.448e+03 2.245e-10
 62.58022     77.9 9.630e+03 2.471e-10
 62.60077     78.7 9.405e+03 2.092e-10
 62.63493     80.0 9.540e+03 2.242e-10
 62.67604     81.2 9.620e+03 2.290e-10
 62.70519     82.3 9.649e+03 2.270e-10
 62.72574     83.1 9.625e+03 2.366e-10
 62.75827     84.2 9.792e+03 2.675e-10
 62.79938     85.3 9.958e+03 3.033e-10
 62.83016     86.3 1.012e+04 3.391e-10
 62.85062     86.4 1.036e+04 4.153e-10
 62.87113     86.3 1.056e+04 4.784e-10
 62.89169     86.0 1.083e+04 5.787e-10
 62.90273     85.5 1.112e+04 7.341e-10
 62.91300     85.1 1.157e+04 1.068e-09
 62.93215     84.8 1.181e+04 1.368e-09
 62.94243     84.8 1.178e+04 1.383e-09
 62.95335     84.9 1.203e+04 1.753e-09
 62.96521     85.2 1.225e+04 2.075e-09
 62.97549     85.6 1.231e+04 2.128e-09
 62.99447     85.7 1.228e+04 2.075e-09
 63.01502     85.8 1.213e+04 1.874e-09
 63.02770     85.9 1.183e+04 1.540e-09
 63.03797     85.4 1.146e+04 1.104e-09
 63.05613     84.8 1.105e+04 8.497e-10
 63.07669     84.1 1.067e+04 6.770e-10
 63.09018     83.5 1.033e+04 5.654e-10
 63.10046     82.8 1.008e+04 4.973e-10
 63.11780     82.6 1.006e+04 4.982e-10
 63.13836     82.6 1.009e+04 5.132e-10
 63.15267     82.5 1.025e+04 5.590e-10
 63.16294     81.9 1.038e+04 5.738e-10
 63.17947     81.6 1.060e+04 6.774e-10
 63.20003     81.4 1.079e+04 8.168e-10
 63.21515     81.3 1.097e+04 9.823e-10
 63.22543     81.0 1.091e+04 9.989e-10
 63.24114     81.3 1.105e+04 1.132e-09
 63.26169     81.5 1.121e+04 1.182e-09
 63.27764     81.7 1.124e+04 1.174e-09
 63.28791     81.2 1.110e+04 1.005e-09
 63.30281     80.9 1.112e+04 9.417e-10
 63.32336     80.3 1.110e+04 8.679e-10
 63.34012     79.4 1.112e+04 8.624e-10
 63.35040     78.6 1.096e+04 8.179e-10
 63.36528     78.5 1.104e+04 8.697e-10
 63.38594     76.1 1.177e+04 1.342e-09
 63.41606     75.4 1.211e+04 1.569e-09
 63.45501     74.4 1.212e+04 1.540e-09
 63.47556     75.1 1.197e+04 1.441e-09
 63.49828     74.2 1.183e+04 1.282e-09
 63.53940     73.6 1.129e+04 8.369e-10
 63.57998     73.1 1.046e+04 4.220e-10
 63.60053     74.3 1.037e+04 3.973e-10
 63.62162     73.5 9.421e+03 1.913e-10
 63.66273     72.7 8.893e+03 1.217e-10
 63.70384     72.6 8.858e+03 1.036e-10
 63.72550     72.9 8.886e+03 1.019e-10
 63.74606     74.0 9.024e+03 1.336e-10
 63.78607     74.0 9.108e+03 1.398e-10
 63.82718     74.1 9.186e+03 1.486e-10
 63.85048     74.1 9.213e+03 1.566e-10
 63.87103     75.0 9.307e+03 1.886e-10
 63.90940     75.1 9.221e+03 1.792e-10
 63.95052     75.2 9.183e+03 1.803e-10
 63.97545     75.5 9.179e+03 1.944e-10
 63.99600     76.0 8.992e+03 1.527e-10
 64.03274     76.4 9.003e+03 1.678e-10
 64.07385     76.8 9.046e+03 1.881e-10
 64.10042     77.3 9.047e+03 1.899e-10
 64.12097     78.2 8.858e+03 1.511e-10
 64.15608     78.8 8.840e+03 1.447e-10
 64.19719     79.3 8.790e+03 1.292e-10
 64.22539     79.9 8.734e+03 1.157e-10
 64.23909     80.8 8.636e+03 1.005e-10
 64.25201     81.1 8.801e+03 1.284e-10
 64.27941     81.8 8.797e+03 1.294e-10
 64.32052     82.6 8.844e+03 1.416e-10
 64.35036     83.6 8.997e+03 1.774e-10
 64.37091     84.4 9.052e+03 1.948e-10
 64.40275     85.7 9.320e+03 2.772e-10
 64.44386     86.8 9.456e+03 3.164e-10
 64.47533     87.6 9.446e+03 3.100e-10
 64.49588     88.4 9.656e+03 3.877e-10
 64.52608     89.0 9.540e+03 3.463e-10
 64.56720     89.7 9.257e+03 2.514e-10
 64.60030     90.4 8.919e+03 1.701e-10
 64.62085     90.9 9.020e+03 2.045e-10
 64.64942     91.6 8.694e+03 1.430e-10
 64.69053     92.5 8.462e+03 1.124e-10
 64.72527     93.6 8.326e+03 1.000e-10
 64.74582     94.0 8.354e+03 1.024e-10
 64.77276     95.2 8.237e+03 9.018e-11
 64.81387     96.4 8.154e+03 8.023e-11
 64.85024     97.6 8.076e+03 6.967e-11
 64.87079     97.9 8.100e+03 6.953e-11
 64.89609     98.9 7.971e+03 6.074e-11
 64.93720    100.0 7.903e+03 5.966e-11
 64.97521    101.0 7.895e+03 6.040e-11
 64.99576    101.3 7.977e+03 6.963e-11
 65.01943    102.4 7.950e+03 7.426e-11
 65.06054    103.7 7.941e+03 8.284e-11
 65.09752    105.1 7.902e+03 9.217e-11
 65.11661    105.6 7.930e+03 9.172e-11
 65.12073    106.2 7.973e+03 9.383e-11
 65.14276    107.6 7.931e+03 9.003e-11
 65.18388    109.0 7.866e+03 8.162e-11
 65.22499    110.3 7.785e+03 7.175e-11
 65.26610    112.0 7.662e+03 6.054e-11
 65.30721    113.5 7.662e+03 6.118e-11
 65.34832    115.1 7.673e+03 6.454e-11
 65.37067    116.6 7.722e+03 7.429e-11
 65.39123    116.9 7.774e+03 8.309e-11
 65.43055    118.5 7.896e+03 1.055e-10
 65.47166    120.1 8.072e+03 1.380e-10
 65.49564    121.6 8.312e+03 1.829e-10
 65.51620    122.0 8.431e+03 1.961e-10
 65.55388    123.4 8.727e+03 2.554e-10
 65.59500    124.6 9.034e+03 3.266e-10
 65.62061    125.6 9.280e+03 3.874e-10
 65.64117    125.9 9.317e+03 4.085e-10
 65.67722    126.8 9.449e+03 4.476e-10
 65.71833    127.6 9.452e+03 4.479e-10
 65.74558    128.5 9.417e+03 4.392e-10
 65.76614    129.1 9.343e+03 4.318e-10
 65.80056    130.0 9.286e+03 4.118e-10
 65.84167    131.0 9.123e+03 3.605e-10
 65.87055    132.0 8.897e+03 2.933e-10
 65.89111    132.6 8.796e+03 2.695e-10
 65.92389    133.7 8.620e+03 2.237e-10
 65.96360    134.7 8.410e+03 1.818e-10
 65.98415    135.0 8.443e+03 1.837e-10
 65.99552    136.0 8.308e+03 1.592e-10
 66.01608    136.8 8.393e+03 1.760e-10
 66.04723    137.8 8.305e+03 1.553e-10
 66.08834    138.8 8.314e+03 1.520e-10
 66.12049    139.7 8.352e+03 1.545e-10
 66.14105    140.6 8.450e+03 1.786e-10
 66.17056    140.9 8.536e+03 1.868e-10
 66.21168    140.9 8.776e+03 2.287e-10
 66.24546    140.6 9.356e+03 3.633e-10
 66.26602    142.1 9.510e+03 4.283e-10
 66.29390    141.7 1.057e+04 7.713e-10
 66.33501    140.9 1.158e+04 1.320e-09
 66.37043    140.0 1.218e+04 1.743e-09
 66.39089    139.9 1.259e+04 2.308e-09
 66.40671    139.0 1.259e+04 2.097e-09
 66.42727    138.4 1.277e+04 2.194e-09
 66.45825    137.8 1.232e+04 1.648e-09
 66.49541    136.8 1.142e+04 9.912e-10
 66.51596    137.3 1.143e+04 9.379e-10
 66.54057    136.6 1.032e+04 4.597e-10
 66.58168    136.5 9.435e+03 2.045e-10
 66.62038    136.4 8.916e+03 9.679e-11
 66.64093    136.4 8.538e+03 7.937e-11
 66.66391    136.6 8.290e+03 7.340e-11
 66.70502    137.9 8.256e+03 7.296e-11
 66.74535    139.6 8.249e+03 7.349e-11
 66.76590    140.3 8.296e+03 7.291e-11
 66.78724    142.0 8.282e+03 8.182e-11
 66.82836    143.6 8.305e+03 9.682e-11
 66.85022    145.1 8.361e+03 1.190e-10
 66.87078    145.1 8.365e+03 1.192e-10
 66.89087    146.6 8.483e+03 1.536e-10
 66.91143    147.1 8.653e+03 1.847e-10
 66.95169    148.5 8.883e+03 2.410e-10
 66.99280    149.7 9.153e+03 3.153e-10
 67.01584    150.6 9.463e+03 4.129e-10
 67.03640    150.4 9.767e+03 4.573e-10
 67.07503    151.0 1.007e+04 5.825e-10
 67.11614    151.4 1.034e+04 7.179e-10
 67.14081    151.6 1.054e+04 8.375e-10
 67.16137    151.0 1.039e+04 8.004e-10
 67.19836    151.3 1.029e+04 7.732e-10
 67.23948    151.7 1.023e+04 7.670e-10
 67.26578    152.2 1.025e+04 7.842e-10
 67.28634    152.2 9.692e+03 6.156e-10
 67.32170    152.8 9.853e+03 6.836e-10
 67.36281    152.9 1.027e+04 8.706e-10
 67.39075    152.9 1.078e+04 1.157e-09
 67.41131    153.4 1.050e+04 9.868e-10
 67.44504    153.1 1.112e+04 1.330e-09
 67.48615    152.4 1.139e+04 1.442e-09
 67.51572    150.8 1.129e+04 1.321e-09
 67.52590    151.3 1.149e+04 1.413e-09
 67.53734    150.3 1.140e+04 1.312e-09
 67.56827    149.2 1.154e+04 1.279e-09
 67.60948    146.1 1.032e+04 6.544e-10
 67.64069    142.1 8.663e+03 3.513e-10
 67.66125    142.1 9.787e+03 6.260e-10
 67.69171    138.5 8.644e+03 4.466e-10
 67.71630    136.5 8.561e+03 3.990e-10
 67.73685    136.7 8.508e+03 3.709e-10
 67.76566    135.7 8.477e+03 3.523e-10
 67.78622    135.2 8.541e+03 3.767e-10
 67.81504    134.4 8.340e+03 2.787e-10
 67.85616    133.4 8.033e+03 1.837e-10
 67.89063    132.2 7.628e+03 1.248e-10
 67.91119    132.1 7.714e+03 1.441e-10
 67.93838    131.2 7.541e+03 1.287e-10
 67.97949    130.6 7.537e+03 1.298e-10
 68.01560    129.9 7.607e+03 1.379e-10
 68.03616    130.4 7.914e+03 1.825e-10
 68.06172    129.3 8.191e+03 2.085e-10
 68.10283    127.7 8.583e+03 2.570e-10
 68.14057    125.8 9.026e+03 3.291e-10
 68.16113    125.9 9.709e+03 5.696e-10
 68.18505    123.9 9.920e+03 6.040e-10
 68.22616    121.7 9.895e+03 5.841e-10
 68.26554    119.7 9.721e+03 4.946e-10
 68.28610    120.3 9.893e+03 5.752e-10
 68.30839    118.4 9.569e+03 4.418e-10
 68.34950    116.7 9.346e+03 3.702e-10
 68.39051    115.4 9.214e+03 3.359e-10
 68.43163    115.7 9.189e+03 3.116e-10
 68.47284    115.2 9.047e+03 2.615e-10
 68.51395    114.8 8.910e+03 2.108e-10
 68.53604    114.7 8.865e+03 1.795e-10
 68.55660    115.4 8.949e+03 1.585e-10
 68.58237    115.1 8.981e+03 1.602e-10
 68.60292    116.5 8.849e+03 1.579e-10
 68.63728    116.4 8.960e+03 1.705e-10
 68.66101    116.1 9.487e+03 2.725e-10
 68.68157    115.8 9.642e+03 2.604e-10
 68.71951    115.7 1.063e+04 5.500e-10
 68.76062    115.7 1.137e+04 8.991e-10
 68.78598    115.3 1.163e+04 9.527e-10
 68.80654    114.5 1.114e+04 6.876e-10
 68.84284    114.3 1.103e+04 5.673e-10
 68.88396    114.4 1.072e+04 3.846e-10
 68.91095    114.5 1.047e+04 2.504e-10
 68.93151    114.1 1.021e+04 2.016e-10
 68.96618    115.0 1.019e+04 1.994e-10
 69.00729    116.2 1.022e+04 2.062e-10
 69.03592    117.5 1.036e+04 2.355e-10
 69.05648    117.4 1.029e+04 2.418e-10
 69.08952    118.5 1.051e+04 2.979e-10
 69.13063    119.5 1.074e+04 3.660e-10
 69.16089    120.2 1.094e+04 4.043e-10
 69.18145    119.8 1.085e+04 3.997e-10
 69.21285    120.4 1.083e+04 3.835e-10
 69.25396    120.9 1.074e+04 3.386e-10
 69.28586    121.6 1.067e+04 2.887e-10
 69.30642    121.5 1.076e+04 2.223e-10
 69.33619    121.9 1.089e+04 2.173e-10
 69.37730    121.2 1.120e+04 2.326e-10
 69.41083    119.6 1.237e+04 4.446e-10
 69.43139    118.0 1.268e+04 7.898e-10
 69.44834    118.1 1.307e+04 1.049e-09
 69.46890    118.6 1.275e+04 7.730e-10
 69.50064    117.9 1.339e+04 1.441e-09
 69.53137    116.8 1.404e+04 2.175e-09
 69.54588    115.8 1.457e+04 2.767e-09
 69.55616    115.8 1.431e+04 2.517e-09
 69.57239    114.4 1.477e+04 2.701e-09
 69.59294    112.8 1.526e+04 2.989e-09
 69.60837    111.2 1.566e+04 3.460e-09
 69.61865    110.9 1.545e+04 2.963e-09
 69.63406    109.6 1.555e+04 3.548e-09
 69.65461    108.9 1.540e+04 3.778e-09
 69.67085    108.5 1.526e+04 3.627e-09
 69.68113    108.5 1.506e+04 3.579e-09
 69.69572    108.3 1.487e+04 3.275e-09
 69.71628    108.1 1.439e+04 2.778e-09
 69.73334    107.7 1.401e+04 2.114e-09
 69.74362    108.1 1.398e+04 2.197e-09
 69.75739    107.6 1.356e+04 1.696e-09
 69.77795    107.1 1.313e+04 1.408e-09
 69.79582    106.8 1.277e+04 1.284e-09
 69.80610    107.3 1.290e+04 1.208e-09
 69.81906    107.2 1.269e+04 1.205e-09
 69.83962    107.4 1.262e+04 1.208e-09
 69.85831    107.6 1.254e+04 1.219e-09
 69.86859    107.4 1.266e+04 1.328e-09
 69.88073    107.5 1.272e+04 1.397e-09
 69.89156    107.5 1.279e+04 1.437e-09
 69.90184    107.9 1.349e+04 1.942e-09
 69.92079    107.8 1.358e+04 2.056e-09
 69.93107    107.2 1.359e+04 2.553e-09
 69.94240    107.0 1.351e+04 2.500e-09
 69.96295    107.0 1.320e+04 2.274e-09
 69.98328    107.0 1.270e+04 1.873e-09
 69.99356    107.3 1.243e+04 1.876e-09
 70.00406    107.5 1.189e+04 1.350e-09
 70.02462    107.5 1.147e+04 9.200e-10
 70.04518    107.2 1.122e+04 6.229e-10
 70.05604    106.5 1.105e+04 4.342e-10
 70.06632    104.8 1.105e+04 3.480e-10
 70.08629    104.0 1.079e+04 3.061e-10
 70.11722    104.2 1.043e+04 2.727e-10
 70.15843    104.8 1.007e+04 2.400e-10
 70.18121    105.6 9.785e+03 2.134e-10
 70.20176    104.9 9.669e+03 2.068e-10
 70.24065    105.9 9.504e+03 1.706e-10
 70.28177    106.8 9.329e+03 1.545e-10
 70.30618    107.8 9.274e+03 1.531e-10
 70.31837    107.1 9.190e+03 1.271e-10
 70.33507    107.3 9.203e+03 1.422e-10
 70.36399    108.3 9.196e+03 1.423e-10
 70.40510    109.3 9.181e+03 1.458e-10
 70.43115    110.2 9.183e+03 1.547e-10
 70.45170    109.2 9.168e+03 1.528e-10
 70.48733    110.0 9.198e+03 1.634e-10
 70.52844    110.7 9.201e+03 1.655e-10
 70.55612    111.4 9.188e+03 1.630e-10
 70.57667    110.9 9.145e+03 1.669e-10
 70.61066    111.7 9.085e+03 1.599e-10
 70.65177    112.7 8.989e+03 1.490e-10
 70.68109    113.7 8.876e+03 1.381e-10
 70.70165    113.6 8.832e+03 1.365e-10
 70.73400    114.8 8.722e+03 1.202e-10
 70.77511    116.0 8.701e+03 1.117e-10
 70.80606    117.1 8.715e+03 1.116e-10
 70.82662    116.9 8.613e+03 9.899e-11
 70.85733    117.9 8.642e+03 1.034e-10
 70.89845    118.7 8.707e+03 1.191e-10
 70.93103    119.5 8.827e+03 1.507e-10
 70.95159    119.3 8.907e+03 1.623e-10
 70.98067    120.2 9.109e+03 2.139e-10
 71.02178    121.1 9.342e+03 2.730e-10
 71.05600    121.9 9.574e+03 3.325e-10
 71.07656    121.7 9.679e+03 3.662e-10
 71.10401    122.6 9.885e+03 4.244e-10
 71.14512    123.4 1.024e+04 5.163e-10
 71.17585    123.4 1.052e+04 6.268e-10
 71.19067    123.5 1.071e+04 7.033e-10
 71.19568    123.1 1.095e+04 8.247e-10
 71.20133    122.8 1.092e+04 8.396e-10
 71.21687    123.1 1.111e+04 9.115e-10
 71.23742    123.4 1.124e+04 9.509e-10
 71.25354    123.6 1.128e+04 9.593e-10
 71.26382    123.7 1.107e+04 8.710e-10
 71.27854    123.8 1.107e+04 8.570e-10
 71.29909    123.9 1.102e+04 8.232e-10
 71.31602    123.9 1.094e+04 7.849e-10
 71.32640    123.7 1.080e+04 6.995e-10
 71.35068    124.3 1.066e+04 6.454e-10
 71.39179    125.3 1.046e+04 5.621e-10
 71.43091    126.4 1.021e+04 4.839e-10
 71.45147    126.8 9.549e+03 3.361e-10
 71.47401    127.4 9.212e+03 2.724e-10
 71.51513    128.2 9.283e+03 2.543e-10
 71.55588    129.1 1.042e+04 3.011e-10
 71.57634    127.7 1.224e+04 4.311e-10
 71.58688    127.4 1.330e+04 7.388e-10
 71.60743    127.6 1.398e+04 1.310e-09
 71.62370    128.2 1.445e+04 2.137e-09
 71.63398    128.9 1.237e+04 7.036e-10
 71.63873    129.2 1.302e+04 1.158e-09
 71.64900    128.6 1.344e+04 1.902e-09
 71.66910    129.0 1.425e+04 2.908e-09
 71.68966    128.8 1.540e+04 4.404e-09
 71.70121    128.4 1.678e+04 6.715e-09
 71.71149    127.9 1.788e+04 8.547e-09
 71.73077    126.8 1.941e+04 1.230e-08
 71.75132    125.6 2.030e+04 1.532e-08
 71.76365    123.8 2.101e+04 1.768e-08
 71.77393    121.7 2.053e+04 1.650e-08
 71.79244    119.7 2.046e+04 1.651e-08
 71.81299    117.1 2.010e+04 1.573e-08
 71.82618    115.0 1.923e+04 1.346e-08
 71.83646    113.1 1.831e+04 1.109e-08
 71.85410    112.2 1.738e+04 8.885e-09
 71.87466    111.0 1.632e+04 6.676e-09
 71.88862    110.4 1.606e+04 5.622e-09
 71.89371    107.4 1.721e+04 6.007e-09
 71.90026    101.3 2.214e+04 6.982e-09
 71.91054     93.0 2.701e+04 1.090e-08
 71.91981     86.2 2.781e+04 1.878e-08
 71.92495     80.8 2.549e+04 3.110e-08
 71.93109     78.0 2.370e+04 3.806e-08
 71.94137     76.2 2.246e+04 4.360e-08
 71.95105     74.7 2.276e+04 4.192e-08
 71.95619     70.6 2.576e+04 2.655e-08
 71.96193     66.5 2.913e+04 1.541e-08
 71.97220     60.0 3.099e+04 7.066e-09
 71.98230     51.2 2.716e+04 2.899e-09
 71.98744     39.4 1.496e+04 1.608e-09
 71.99276     36.9 1.238e+04 1.527e-09
 72.00304     36.7 1.191e+04 1.567e-09
 72.01359     37.9 1.213e+04 1.544e-09
 72.02391     36.5 1.179e+04 1.458e-09
 72.03911     36.7 1.188e+04 1.438e-09
 72.05674     36.9 1.192e+04 1.342e-09
 72.06702     35.8 1.227e+04 1.458e-09
 72.07612     35.7 1.205e+04 1.223e-09
 72.08640     34.0 1.157e+04 9.434e-10
 72.10078     33.8 1.134e+04 8.320e-10
 72.12133     33.8 1.116e+04 7.748e-10
 72.13861     33.9 1.106e+04 7.585e-10
 72.14888     33.1 1.094e+04 7.236e-10
 72.16244     33.6 1.098e+04 7.509e-10
 72.18300     34.2 1.108e+04 7.949e-10
 72.20109     34.9 1.119e+04 8.454e-10
 72.21137     34.2 1.116e+04 8.298e-10
 72.22411     34.9 1.127e+04 8.782e-10
 72.24467     35.6 1.137e+04 9.253e-10
 72.26358     36.4 1.147e+04 9.773e-10
 72.27386     35.7 1.145e+04 9.647e-10
 72.28578     36.5 1.164e+04 1.055e-09
 72.30634     37.1 1.189e+04 1.175e-09
 72.32606     37.7 1.220e+04 1.339e-09
 72.33634     36.8 1.236e+04 1.422e-09
 72.34745     37.3 1.285e+04 1.722e-09
 72.36800     37.6 1.340e+04 2.149e-09
 72.38855     37.8 1.398e+04 2.724e-09
 72.40910     37.2 1.464e+04 3.542e-09
 72.42967     37.7 1.526e+04 4.487e-09
 72.45023     38.2 1.571e+04 5.289e-09
 72.46131     38.7 1.588e+04 5.426e-09
 72.47159     37.9 1.503e+04 3.893e-09
 72.48977     38.1 1.497e+04 3.609e-09
 72.50005     37.8 1.461e+04 3.132e-09
 72.51190     37.8 1.444e+04 2.905e-09
 72.52380     37.8 1.420e+04 2.626e-09
 72.53407     36.7 1.327e+04 1.872e-09
 72.55301     36.8 1.300e+04 1.677e-09
 72.57356     37.1 1.273e+04 1.500e-09
 72.58628     37.6 1.250e+04 1.351e-09
 72.59656     36.9 1.175e+04 9.526e-10
 72.61468     37.5 1.163e+04 8.721e-10
 72.63523     38.1 1.155e+04 8.108e-10
 72.64877     38.7 1.151e+04 7.608e-10
 72.65904     38.0 1.102e+04 5.662e-10
 72.67634     38.5 1.096e+04 5.338e-10
 72.69690     39.1 1.090e+04 5.093e-10
 72.71125     39.7 1.081e+04 4.901e-10
 72.72153     39.2 1.051e+04 4.035e-10
 72.73801     40.0 1.042e+04 3.919e-10
 72.75857     40.8 1.037e+04 3.749e-10
 72.77374     41.6 1.039e+04 3.650e-10
 72.78401     41.0 1.039e+04 3.544e-10
 72.79968     41.5 1.048e+04 3.640e-10
 72.82024     41.3 1.070e+04 3.871e-10
 72.83622     40.4 1.154e+04 4.282e-10
 72.84650     38.4 1.238e+04 6.020e-10
 72.86135     37.8 1.304e+04 9.697e-10
 72.88190     37.7 1.346e+04 1.525e-09
 72.89871     38.1 1.369e+04 2.127e-09
 72.90898     37.7 1.385e+04 2.671e-09
 72.92281     38.3 1.399e+04 2.904e-09
 72.93309     39.3 1.371e+04 2.458e-09
 72.94357     39.3 1.396e+04 2.735e-09
 72.96119     38.8 1.433e+04 3.057e-09
 72.97147     37.7 1.438e+04 3.111e-09
 72.98468     36.4 1.481e+04 3.594e-09
 73.00524     35.2 1.517e+04 4.248e-09
 73.02368     34.5 1.508e+04 4.389e-09
 73.03395     33.5 1.465e+04 3.805e-09
 73.04635     33.7 1.423e+04 3.518e-09
 73.06691     34.2 1.352e+04 2.719e-09
 73.08616     34.3 1.267e+04 1.790e-09
 73.09644     33.9 1.216e+04 1.299e-09
 73.10802     33.2 1.152e+04 7.889e-10
 73.12858     32.0 1.098e+04 5.039e-10
 73.14865     31.0 1.044e+04 3.719e-10
 73.15892     30.3 1.022e+04 3.153e-10
 73.16969     30.3 1.005e+04 3.047e-10
 73.19024     30.8 1.004e+04 3.023e-10
 73.21080     31.3 1.005e+04 3.034e-10
 73.22141     32.7 1.010e+04 3.132e-10
 73.24206     33.0 1.017e+04 2.990e-10
 73.28294     35.0 1.020e+04 3.133e-10
 73.32405     37.0 1.021e+04 3.211e-10
 73.34657     39.1 1.022e+04 3.283e-10
 73.36713     39.4 1.019e+04 3.021e-10
 73.40628     41.4 1.016e+04 3.148e-10
 73.44739     43.7 1.020e+04 3.318e-10
 73.47155     45.5 1.021e+04 3.522e-10
 73.49210     46.0 1.027e+04 3.506e-10
 73.51924     47.4 1.029e+04 3.840e-10
 73.53383     48.3 1.042e+04 4.512e-10
 73.54411     48.4 1.046e+04 4.528e-10
 73.56025     49.3 1.069e+04 5.631e-10
 73.58081     50.2 1.100e+04 7.085e-10
 73.59632     51.0 1.131e+04 8.777e-10
 73.60660     50.9 1.140e+04 9.088e-10
 73.62192     51.7 1.168e+04 1.085e-09
 73.64248     52.6 1.193e+04 1.264e-09
 73.65881     53.5 1.220e+04 1.445e-09
 73.66908     53.3 1.222e+04 1.445e-09
 73.68359     54.1 1.246e+04 1.596e-09
 73.70414     54.9 1.260e+04 1.703e-09
 73.72129     55.4 1.270e+04 1.772e-09
 73.73157     54.3 1.288e+04 1.822e-09
 73.74526     53.3 1.352e+04 2.054e-09
 73.76581     50.9 1.490e+04 2.769e-09
 73.78378     47.9 1.627e+04 4.425e-09
 73.79405     46.1 1.647e+04 5.634e-09
 73.79916     44.6 1.663e+04 7.317e-09
 73.80944     46.2 1.726e+04 8.391e-09
 73.82748     45.7 1.720e+04 9.775e-09
 73.84285     45.4 1.688e+04 8.727e-09
 73.85130     45.2 1.654e+04 7.669e-09
 73.85644     44.7 1.614e+04 6.671e-09
 73.86336     44.7 1.563e+04 5.021e-09
 73.87363     44.6 1.543e+04 4.581e-09
 73.88910     44.6 1.505e+04 3.072e-09
 73.90875     42.5 1.386e+04 1.363e-09
 73.91902     39.1 1.248e+04 7.560e-10
 73.93026     34.7 1.020e+04 3.488e-10
 73.95082     32.2 9.504e+03 2.652e-10
 73.97123     32.2 9.451e+03 2.603e-10
 73.98151     32.0 9.437e+03 2.532e-10
 73.99193     32.1 9.438e+03 2.528e-10
 74.02286     33.3 9.431e+03 2.482e-10
 74.06407     34.3 9.287e+03 2.274e-10
 74.09640     34.7 9.172e+03 2.068e-10
 74.11695     33.8 9.015e+03 1.729e-10
 74.14629     34.1 8.968e+03 1.652e-10
 74.18741     34.5 8.958e+03 1.642e-10
 74.22137     34.8 8.954e+03 1.646e-10
 74.24192     34.5 8.846e+03 1.471e-10
 74.26963     34.9 8.892e+03 1.512e-10
 74.31074     35.0 9.069e+03 1.729e-10
 74.34634     34.7 9.452e+03 2.298e-10
 74.36689     34.9 9.319e+03 2.115e-10
 74.39297     34.7 9.803e+03 3.053e-10
 74.43408     34.6 1.023e+04 4.182e-10
 74.46481     34.7 1.039e+04 4.736e-10
 74.48139     34.0 1.056e+04 5.481e-10
 74.49167     34.4 1.050e+04 5.100e-10
 74.50583     33.4 1.060e+04 5.764e-10
 74.52638     32.4 1.066e+04 6.305e-10
 74.54387     31.2 1.074e+04 6.954e-10
 74.55415     31.4 1.076e+04 6.882e-10
 74.56750     30.2 1.087e+04 7.846e-10
 74.58805     29.3 1.096e+04 8.723e-10
 74.60636     28.4 1.096e+04 8.930e-10
 74.61664     28.5 1.099e+04 8.891e-10
 74.62916     27.7 1.093e+04 8.730e-10
 74.64972     26.8 1.080e+04 8.266e-10
 74.66523     25.8 1.058e+04 6.987e-10
 74.67408     26.4 1.042e+04 6.471e-10
 74.67912     26.3 1.037e+04 6.101e-10
 74.69083     24.7 1.014e+04 5.065e-10
 74.72115     24.3 9.721e+03 3.808e-10
 74.74180     24.3 9.706e+03 3.700e-10
 74.76297     23.3 9.224e+03 2.737e-10
 74.80409     22.5 8.994e+03 2.476e-10
 74.84520     22.1 9.008e+03 2.521e-10
 74.86677     21.5 9.153e+03 2.771e-10
 74.88733     21.2 9.150e+03 2.785e-10
 74.92742     20.3 9.368e+03 3.317e-10
 74.96853     19.1 9.707e+03 4.351e-10
 74.99174     17.5 1.012e+04 6.010e-10
 75.01230     16.6 1.012e+04 5.799e-10
 75.05076     14.4 1.059e+04 7.904e-10
 75.09187     11.7 1.115e+04 1.015e-09
 75.11671      9.8 1.142e+04 1.086e-09
 75.13727      9.7 1.135e+04 1.035e-09
 75.16372      8.9 1.127e+04 9.945e-10
 75.17900      7.9 1.099e+04 8.373e-10
 75.18928      7.6 1.092e+04 8.036e-10
 75.20473      7.1 1.062e+04 6.369e-10
 75.22529      6.3 1.040e+04 5.108e-10
 75.24149      5.4 1.024e+04 4.099e-10
 75.25177      5.2 1.028e+04 4.089e-10
 75.26640      4.5 1.017e+04 3.601e-10
 75.28696      4.6 1.014e+04 3.497e-10
 75.30397      4.6 1.014e+04 3.508e-10
 75.31425      4.4 1.024e+04 3.831e-10
 75.32807      4.7 1.029e+04 3.968e-10
 75.34863      5.1 1.036e+04 4.190e-10
 75.36646      5.5 1.046e+04 4.583e-10
 75.37674      5.3 1.051e+04 4.986e-10
 75.38974      5.8 1.064e+04 5.331e-10
 75.41029      6.3 1.082e+04 5.898e-10
 75.42894      6.8 1.101e+04 6.768e-10
 75.43922      6.3 1.113e+04 6.918e-10
 75.45141      5.7 1.151e+04 8.183e-10
 75.47196      3.1 1.359e+04 1.274e-09
 75.49143     -1.2 1.634e+04 2.997e-09
 75.50171     -4.0 1.729e+04 4.705e-09
 75.51307     -6.4 1.844e+04 1.023e-08
 75.53130     -7.0 1.910e+04 1.630e-08
 75.54158     -6.8 1.933e+04 1.658e-08
 75.54900     -7.4 1.974e+04 2.106e-08
 75.55896     -7.7 1.981e+04 2.285e-08
 75.56409     -8.1 1.962e+04 2.246e-08
 75.56950     -7.5 1.922e+04 2.101e-08
 75.57978     -6.8 1.889e+04 1.677e-08
 75.59006     -6.9 1.848e+04 1.120e-08
 75.59534     -8.4 1.783e+04 7.268e-09
 75.60048     -9.7 1.722e+04 5.783e-09
 75.61062    -10.6 1.619e+04 3.887e-09
 75.62089    -10.9 1.605e+04 3.725e-09
 75.62663    -12.5 1.464e+04 2.115e-09
 75.63695    -14.3 1.362e+04 1.512e-09
 75.65697    -16.9 1.171e+04 8.120e-10
 75.67752    -17.8 1.080e+04 5.590e-10
 75.68916    -17.6 1.060e+04 4.474e-10
 75.69944    -17.8 1.031e+04 3.648e-10
 75.71863    -17.6 1.023e+04 3.015e-10
 75.73919    -17.5 1.009e+04 2.676e-10
 75.75165    -17.4 9.984e+03 2.531e-10
 75.76193    -18.2 9.867e+03 2.327e-10
 75.78030    -17.6 9.947e+03 2.427e-10
 75.80086    -17.2 1.012e+04 2.610e-10
 75.81413    -16.8 1.025e+04 2.776e-10
 75.82441    -18.2 1.047e+04 2.944e-10
 75.84197    -18.4 1.101e+04 3.708e-10
 75.86253    -18.7 1.140e+04 4.984e-10
 75.87662    -18.6 1.162e+04 6.817e-10
 75.88690    -19.6 1.183e+04 9.485e-10
 75.90364    -18.7 1.186e+04 1.145e-09
 75.92419    -17.6 1.189e+04 1.253e-09
 75.93910    -16.5 1.196e+04 1.253e-09
 75.94938    -17.0 1.229e+04 1.397e-09
 75.96434    -16.4 1.234e+04 1.240e-09
 75.97462    -17.7 1.269e+04 1.320e-09
 75.98586    -17.6 1.248e+04 1.100e-09
 76.00159    -17.5 1.221e+04 9.106e-10
 76.01187    -19.1 1.240e+04 9.724e-10
 76.02697    -19.0 1.221e+04 8.938e-10
 76.04753    -18.8 1.225e+04 8.813e-10
 76.06407    -18.6 1.242e+04 9.264e-10
 76.07435    -20.0 1.304e+04 1.306e-09
 76.08864    -19.7 1.332e+04 1.487e-09
 76.10920    -19.3 1.354e+04 1.705e-09
 76.12656    -18.6 1.374e+04 1.936e-09
 76.13684    -19.9 1.415e+04 2.590e-09
 76.15031    -19.2 1.434e+04 2.862e-09
 76.17087    -18.5 1.450e+04 3.050e-09
 76.18904    -17.7 1.459e+04 3.193e-09
 76.19932    -19.5 1.488e+04 3.743e-09
 76.21198    -20.8 1.594e+04 4.443e-09
 76.23253    -22.1 1.687e+04 5.151e-09
 76.24790    -24.7 1.891e+04 6.541e-09
 76.25657    -29.3 2.234e+04 9.867e-09
 76.26171    -33.8 2.324e+04 1.347e-08
 76.26841    -37.6 2.314e+04 2.080e-08
 76.27869    -39.3 2.173e+04 2.714e-08
 76.28781    -40.0 2.034e+04 3.155e-08
 76.29295    -41.4 2.049e+04 2.865e-08
 76.29924    -43.5 2.188e+04 2.823e-08
 76.30952    -46.8 2.469e+04 2.529e-08
 76.31905    -51.1 2.689e+04 1.952e-08
 76.32419    -55.0 2.701e+04 1.482e-08
 76.33008    -61.6 2.447e+04 1.009e-08
 76.34035    -67.7 1.877e+04 7.399e-09
 76.35030    -71.5 1.560e+04 5.994e-09
 76.35544    -71.9 1.539e+04 5.383e-09
 76.36091    -71.8 1.554e+04 5.318e-09
 76.37119    -71.5 1.546e+04 4.866e-09
 76.38147    -71.5 1.544e+04 4.835e-09
 76.38673    -71.2 1.540e+04 4.524e-09
 76.39705    -71.0 1.498e+04 3.542e-09
 76.40765    -72.0 1.398e+04 2.297e-09
 76.41793    -73.7 1.315e+04 1.363e-09
 76.43809    -74.9 1.205e+04 8.575e-10
 76.44926    -75.3 1.140e+04 5.807e-10
 76.45954    -76.0 1.113e+04 4.473e-10
 76.47921    -75.9 1.071e+04 3.806e-10
 76.49976    -75.8 1.045e+04 3.621e-10
 76.51175    -75.5 1.039e+04 3.500e-10
 76.52202    -75.8 1.041e+04 3.448e-10
 76.54087    -75.7 1.055e+04 3.661e-10
 76.56143    -75.5 1.078e+04 4.090e-10
 76.57423    -75.4 1.119e+04 4.595e-10
 76.58451    -75.8 1.112e+04 4.713e-10
 76.60254    -77.0 1.165e+04 7.431e-10
 76.62310    -79.6 1.311e+04 1.268e-09
 76.63672    -81.6 1.425e+04 2.396e-09
 76.64699    -83.0 1.449e+04 2.988e-09
 76.66421    -83.2 1.517e+04 4.934e-09
 76.68477    -82.8 1.572e+04 6.408e-09
 76.69920    -83.2 1.612e+04 6.721e-09
 76.70948    -84.4 1.596e+04 5.815e-09
 76.72588    -86.2 1.589e+04 4.384e-09
 76.74643    -89.2 1.518e+04 3.225e-09
 76.76169    -91.8 1.423e+04 2.356e-09
 76.77196    -94.2 1.290e+04 1.513e-09
 76.78755    -95.8 1.175e+04 1.086e-09
 76.80810    -97.3 1.066e+04 8.122e-10
 76.82417    -98.6 1.027e+04 6.826e-10
 76.83445    -99.5 1.013e+04 5.169e-10
 76.84069    -99.9 1.002e+04 5.198e-10
 76.85097    -99.5 1.016e+04 4.817e-10
 76.86977   -100.1 1.030e+04 5.279e-10
 76.88666   -102.3 1.167e+04 8.138e-10
 76.89693   -103.1 1.129e+04 6.940e-10
 76.91088   -106.0 1.261e+04 1.375e-09
 76.93144   -109.0 1.419e+04 2.982e-09
 76.94914   -112.9 1.699e+04 6.395e-09
 76.95942   -116.2 1.780e+04 7.160e-09
 76.97255   -121.3 2.067e+04 1.599e-08
 76.98547   -124.0 2.172e+04 2.227e-08
 76.99056   -125.6 2.177e+04 2.491e-08
 76.99815   -128.3 2.228e+04 3.058e-08
 77.00842   -131.5 2.236e+04 3.295e-08
 77.01667   -134.5 2.187e+04 3.089e-08
 77.02181   -135.3 2.131e+04 3.169e-08
 77.02898   -137.5 2.042e+04 2.482e-08
 77.03926   -140.1 2.053e+04 2.057e-08
 77.04791   -143.7 2.124e+04 1.706e-08
 77.05305   -143.9 2.115e+04 1.632e-08
 77.05711   -148.2 2.169e+04 1.274e-08
 77.06225   -145.3 2.023e+04 1.121e-08
 77.07009   -150.4 2.000e+04 8.215e-09
 77.07915   -155.1 1.947e+04 6.612e-09
 77.08429   -154.9 1.909e+04 6.219e-09
 77.09065   -158.0 1.888e+04 5.935e-09
 77.10093   -160.5 1.869e+04 5.918e-09
 77.11040   -162.3 1.849e+04 5.922e-09
 77.11553   -162.2 1.845e+04 6.107e-09
 77.12148   -162.9 1.853e+04 6.174e-09
 77.13655   -166.9 1.737e+04 6.353e-09
 77.14688   -165.3 1.764e+04 6.544e-09
 77.15755   -167.7 1.687e+04 5.864e-09
 77.17811   -169.4 1.588e+04 4.667e-09
 77.19867   -171.3 1.489e+04 3.213e-09
 77.20936   -173.3 1.379e+04 2.080e-09
 77.21964   -171.8 1.393e+04 2.209e-09
 77.23978   -173.7 1.277e+04 1.424e-09
 77.26033   -175.1 1.180e+04 1.000e-09
 77.27185   -175.7 1.118e+04 7.621e-10
 77.27496   -174.6 1.113e+04 7.213e-10
 77.28400   -172.4 1.145e+04 8.764e-10
 77.30145   -173.2 1.103e+04 6.929e-10
 77.32200   -173.8 1.078e+04 5.808e-10
 77.33433   -174.2 1.059e+04 5.160e-10
 77.34461   -173.5 1.052e+04 4.722e-10
 77.36311   -173.8 1.043e+04 4.547e-10
 77.38367   -173.9 1.041e+04 4.530e-10
 77.39682   -174.0 1.048e+04 4.858e-10
 77.40709   -173.5 1.047e+04 4.519e-10
 77.42478   -173.5 1.064e+04 5.202e-10
 77.44534   -173.3 1.081e+04 5.984e-10
 77.45930   -172.8 1.099e+04 6.792e-10
 77.46958   -172.6 1.103e+04 6.853e-10
 77.48645   -172.1 1.116e+04 7.466e-10
 77.50701   -171.6 1.125e+04 7.995e-10
 77.52179   -171.1 1.129e+04 8.375e-10
 77.53206   -170.8 1.127e+04 8.328e-10
 77.54812   -170.3 1.124e+04 8.424e-10
 77.56867   -169.8 1.116e+04 8.440e-10
 77.58427   -169.3 1.108e+04 8.441e-10
 77.59455   -168.9 1.101e+04 8.141e-10
 77.60979   -168.4 1.099e+04 8.136e-10
 77.63034   -167.8 1.095e+04 8.253e-10
 77.64676   -167.2 1.098e+04 8.564e-10
 77.65703   -166.8 1.093e+04 8.418e-10
 77.67145   -166.3 1.100e+04 8.832e-10
 77.69201   -165.9 1.109e+04 9.215e-10
 77.70676   -165.6 1.118e+04 9.514e-10
 77.71372   -165.5 1.108e+04 9.125e-10
 77.71952   -165.2 1.109e+04 9.365e-10
 77.73312   -165.2 1.110e+04 9.398e-10
 77.75368   -165.4 1.109e+04 9.293e-10
 77.77173   -165.8 1.108e+04 9.189e-10
 77.78200   -165.5 1.109e+04 9.537e-10
 77.79479   -166.1 1.111e+04 9.535e-10
 77.81535   -167.2 1.120e+04 9.941e-10
 77.83421   -168.8 1.168e+04 1.159e-09
 77.84449   -169.8 1.205e+04 1.320e-09
 77.85646   -171.6 1.267e+04 1.597e-09
 77.87701   -173.3 1.308e+04 1.883e-09
 77.89670   -174.6 1.321e+04 2.070e-09
 77.90697   -176.1 1.347e+04 2.274e-09
 77.91813   -177.0 1.314e+04 2.149e-09
 77.93868   -177.8 1.268e+04 1.878e-09
 77.95918   -178.5 1.211e+04 1.546e-09
 77.97974   -180.5 1.093e+04 1.027e-09
 78.00035   -181.3 1.036e+04 8.482e-10
 78.02091   -181.8 1.004e+04 7.567e-10
 78.03194   -182.1 9.964e+03 7.247e-10
 78.04222   -183.1 9.752e+03 6.319e-10
 78.06202   -183.3 9.890e+03 6.470e-10
 78.08257   -183.4 1.001e+04 6.699e-10
 78.09443   -183.5 1.007e+04 6.845e-10
 78.10471   -184.3 9.962e+03 6.401e-10
 78.12369   -184.3 9.981e+03 6.481e-10
 78.13980   -184.2 9.987e+03 6.476e-10
 78.15008   -184.4 9.771e+03 5.802e-10
 78.15691   -184.0 9.784e+03 5.800e-10
 78.16719   -184.4 9.714e+03 5.614e-10
 78.18535   -184.0 9.758e+03 5.638e-10
 78.20591   -183.5 9.790e+03 5.666e-10
 78.21940   -183.2 9.817e+03 5.627e-10
 78.22968   -183.5 9.865e+03 5.715e-10
 78.24702   -183.2 9.896e+03 5.731e-10
 78.26758   -182.9 9.923e+03 5.738e-10
 78.28188   -182.8 9.978e+03 5.799e-10
 78.29216   -183.1 1.011e+04 6.154e-10
 78.30869   -182.9 1.026e+04 6.479e-10
 78.32925   -182.8 1.043e+04 6.956e-10
 78.34437   -182.7 1.058e+04 7.396e-10
 78.35465   -182.9 1.060e+04 7.516e-10
 78.37036   -182.8 1.063e+04 7.711e-10
 78.39091   -182.7 1.061e+04 7.710e-10
 78.40685   -182.5 1.053e+04 7.394e-10
 78.41713   -182.4 1.046e+04 6.989e-10
 78.43203   -182.1 1.037e+04 6.514e-10
 78.45258   -181.8 1.026e+04 5.989e-10
 78.46934   -181.6 1.016e+04 5.495e-10
 78.47962   -181.4 1.014e+04 5.375e-10
 78.49369   -181.2 1.010e+04 5.089e-10
 78.51425   -180.9 1.008e+04 4.956e-10
 78.53183   -180.6 1.009e+04 4.923e-10
 78.54210   -180.3 1.011e+04 4.931e-10
 78.55536   -180.0 1.017e+04 4.946e-10
 78.57283   -179.8 1.025e+04 5.008e-10
 78.58311   -179.3 1.044e+04 5.577e-10
 78.59431   -179.1 1.052e+04 5.669e-10
 78.60459   -179.0 1.058e+04 5.718e-10
 78.61703   -178.8 1.066e+04 5.815e-10
 78.63759   -178.8 1.076e+04 5.945e-10
 78.65680   -178.8 1.087e+04 6.108e-10
 78.66707   -178.8 1.099e+04 6.405e-10
 78.67870   -178.9 1.109e+04 6.664e-10
 78.69925   -178.9 1.114e+04 6.818e-10
 78.71928   -179.0 1.115e+04 6.854e-10
 78.72956   -178.8 1.125e+04 7.418e-10
 78.74037   -178.7 1.117e+04 7.300e-10
 78.76092   -178.5 1.106e+04 6.820e-10
 78.78148   -178.1 1.095e+04 6.165e-10
 78.79204   -177.5 1.089e+04 5.419e-10
 78.80232   -177.5 1.091e+04 5.632e-10
 78.82259   -176.9 1.090e+04 4.837e-10
 78.84315   -176.5 1.089e+04 4.248e-10
 78.87408   -175.9 1.085e+04 3.723e-10
 78.90693   -175.1 1.069e+04 3.135e-10
 78.92749   -175.2 1.081e+04 3.320e-10
 78.95640   -174.3 1.056e+04 2.806e-10
 78.99579   -173.3 1.034e+04 2.362e-10
 79.01634   -173.3 1.064e+04 2.742e-10
 79.03190   -172.3 1.036e+04 2.344e-10
 79.05246   -172.2 1.044e+04 2.573e-10
 79.07974   -171.0 1.015e+04 2.103e-10
 79.12085   -169.6 9.920e+03 1.711e-10
 79.15687   -168.0 9.753e+03 1.431e-10
 79.17743   -167.7 9.736e+03 1.353e-10
 79.20307   -165.9 9.604e+03 1.103e-10
 79.24418   -164.1 9.531e+03 9.354e-11
 79.28184   -162.3 9.486e+03 8.252e-11
 79.30240   -161.8 9.518e+03 7.794e-11
 79.32641   -159.9 9.478e+03 7.282e-11
 79.36752   -158.0 9.430e+03 6.920e-11
 79.40681   -156.0 9.430e+03 6.673e-11
 79.42737   -155.5 9.476e+03 6.873e-11
 79.44974   -153.5 9.482e+03 6.881e-11
 79.49086   -151.6 9.523e+03 7.062e-11
 79.53178   -149.7 9.570e+03 7.475e-11
 79.57289   -147.5 9.652e+03 9.012e-11
 79.61419   -145.8 9.693e+03 1.002e-10
 79.65530   -144.2 9.748e+03 1.113e-10
 79.67731   -142.8 9.828e+03 1.216e-10
 79.69786   -142.4 9.843e+03 1.234e-10
 79.73753   -141.3 9.914e+03 1.279e-10
 79.77864   -140.5 9.989e+03 1.287e-10
 79.80228   -139.9 1.004e+04 1.280e-10
 79.82283   -139.7 9.970e+03 1.090e-10
 79.86086   -139.2 9.942e+03 1.051e-10
 79.88242   -138.7 9.902e+03 1.052e-10
 79.90297   -138.1 9.805e+03 9.658e-11
 79.92725   -137.3 9.816e+03 1.024e-10
 79.94780   -137.0 9.825e+03 9.331e-11
 79.98420   -136.3 9.908e+03 1.238e-10
 80.02531   -135.5 1.002e+04 1.722e-10
 80.05222   -135.0 1.041e+04 2.360e-10
 80.07277   -134.6 1.051e+04 2.549e-10
 80.10754   -136.1 1.222e+04 4.819e-10
 80.13827   -144.2 1.603e+04 1.399e-09
 80.15873   -149.3 1.684e+04 4.468e-09
 80.17699   -151.0 1.728e+04 8.642e-09
 80.18727   -150.9 1.758e+04 9.526e-09
 80.19984   -151.9 1.768e+04 1.128e-08
 80.22040   -152.6 1.736e+04 1.052e-08
 80.23948   -153.1 1.627e+04 5.112e-09
 80.24976   -153.1 1.642e+04 6.008e-09
 80.26151   -155.2 1.471e+04 2.019e-09
 80.28207   -158.6 1.269e+04 6.573e-10
 80.30196   -160.8 1.143e+04 3.593e-10
 80.31224   -159.9 1.170e+04 4.580e-10
 80.31526   -160.4 1.109e+04 3.351e-10
 80.32553   -160.5 1.114e+04 3.438e-10
 80.34373   -160.4 1.080e+04 2.850e-10
 80.36429   -159.6 1.053e+04 2.536e-10
 80.39522   -158.0 1.044e+04 2.426e-10
 80.42713   -155.5 1.006e+04 1.964e-10
 80.44769   -154.4 1.032e+04 2.243e-10
 80.47754   -152.2 1.014e+04 1.951e-10
 80.51866   -150.1 1.012e+04 1.897e-10
 80.55210   -148.5 1.026e+04 2.023e-10
 80.57266   -147.3 1.039e+04 2.097e-10
 80.60088   -146.3 1.061e+04 2.671e-10
 80.64199   -145.7 1.077e+04 3.824e-10
 80.67707   -145.4 1.099e+04 5.208e-10
 80.69763   -144.5 1.120e+04 5.295e-10
 80.72422   -144.6 1.131e+04 6.418e-10
 80.74849   -145.6 1.137e+04 6.640e-10
 80.76904   -146.4 1.143e+04 6.993e-10
 80.80204   -147.3 1.125e+04 6.450e-10
 80.82260   -146.7 1.142e+04 6.966e-10
 80.84755   -147.3 1.091e+04 4.992e-10
 80.88866   -147.6 1.048e+04 3.729e-10
 80.92701   -147.8 1.013e+04 3.135e-10
 80.94757   -147.4 1.021e+04 3.158e-10
 80.97089   -146.5 9.870e+03 2.838e-10
 81.01200   -145.1 9.718e+03 2.681e-10
 81.05198   -143.6 9.614e+03 2.568e-10
 81.07254   -143.1 9.723e+03 2.583e-10
 81.09422   -141.6 9.711e+03 2.484e-10
 81.13534   -140.0 9.748e+03 2.439e-10
 81.17645   -138.6 9.778e+03 2.450e-10
 81.19751   -137.2 9.841e+03 2.762e-10
 81.21806   -136.8 1.025e+04 3.510e-10
 81.25867   -135.6 1.082e+04 5.014e-10
 81.29978   -135.1 1.192e+04 8.139e-10
 81.32238   -134.5 1.207e+04 1.116e-09
 81.33256   -134.5 1.224e+04 1.281e-09
 81.35098   -134.8 1.271e+04 1.693e-09
 81.37153   -135.2 1.387e+04 2.409e-09
 81.38477   -137.4 1.570e+04 4.168e-09
 81.39504   -137.2 1.562e+04 3.970e-09
 81.41265   -139.4 1.723e+04 6.865e-09
 81.43320   -141.3 1.806e+04 1.030e-08
 81.44725   -142.8 1.826e+04 1.221e-08
 81.45753   -143.2 1.818e+04 1.121e-08
 81.47431   -144.3 1.767e+04 1.025e-08
 81.49487   -145.3 1.692e+04 7.718e-09
 81.50974   -147.0 1.583e+04 4.445e-09
 81.52001   -146.7 1.579e+04 4.447e-09
 81.53598   -148.7 1.429e+04 2.162e-09
 81.55654   -150.8 1.218e+04 1.027e-09
 81.57222   -152.1 1.062e+04 5.987e-10
 81.58250   -151.4 1.087e+04 6.303e-10
 81.59765   -151.7 1.014e+04 4.740e-10
 81.61436   -151.4 9.917e+03 4.322e-10
 81.62464   -149.8 1.033e+04 5.147e-10
 81.63471   -149.6 9.990e+03 4.606e-10
 81.64498   -148.9 1.007e+04 4.574e-10
 81.65932   -148.5 9.924e+03 4.383e-10
 81.67987   -147.8 9.898e+03 4.384e-10
 81.69719   -147.3 9.919e+03 4.584e-10
 81.70747   -146.6 9.898e+03 4.498e-10
 81.72099   -146.1 9.965e+03 4.807e-10
 81.74154   -145.5 1.002e+04 5.201e-10
 81.75968   -144.8 1.007e+04 5.581e-10
 81.76995   -144.0 1.006e+04 5.412e-10
 81.78265   -143.3 1.009e+04 5.677e-10
 81.80321   -142.6 1.009e+04 5.740e-10
 81.82216   -141.9 1.007e+04 5.739e-10
 81.83244   -141.0 1.002e+04 5.411e-10
 81.84432   -140.4 9.905e+03 5.081e-10
 81.86488   -139.9 9.793e+03 4.664e-10
 81.88465   -139.6 9.757e+03 4.362e-10
 81.89492   -138.5 9.706e+03 3.940e-10
 81.90599   -138.3 9.665e+03 3.845e-10
 81.92655   -138.4 9.733e+03 4.020e-10
 81.94710   -138.8 9.985e+03 4.643e-10
 81.96766   -137.7 1.009e+04 4.623e-10
 81.98821   -138.0 1.050e+04 5.863e-10
 82.00877   -138.0 1.089e+04 7.424e-10
 82.01990   -137.9 1.116e+04 8.900e-10
 82.03017   -136.7 1.081e+04 6.960e-10
 82.04740   -136.5 1.103e+04 8.017e-10
 82.05768   -136.0 1.110e+04 8.324e-10
 82.07044   -135.9 1.126e+04 9.204e-10
 82.08238   -135.7 1.134e+04 9.578e-10
 82.09266   -134.6 1.112e+04 7.937e-10
 82.11155   -134.5 1.120e+04 8.178e-10
 82.13211   -134.5 1.129e+04 8.028e-10
 82.14487   -134.6 1.136e+04 7.571e-10
 82.15514   -133.6 1.128e+04 7.195e-10
 82.17322   -133.9 1.141e+04 7.216e-10
 82.19377   -134.3 1.151e+04 7.252e-10
 82.20735   -134.7 1.161e+04 7.678e-10
 82.21763   -133.8 1.164e+04 7.721e-10
 82.23489   -134.1 1.172e+04 8.401e-10
 82.25544   -134.3 1.175e+04 8.996e-10
 82.26984   -134.5 1.180e+04 9.352e-10
 82.28011   -134.0 1.182e+04 9.359e-10
 82.29655   -135.1 1.200e+04 9.688e-10
 82.31711   -137.5 1.269e+04 1.065e-09
 82.33232   -141.1 1.366e+04 1.435e-09
 82.34260   -140.6 1.333e+04 1.248e-09
 82.35822   -144.0 1.389e+04 1.971e-09
 82.37878   -146.2 1.425e+04 3.069e-09
 82.39481   -147.5 1.453e+04 3.848e-09
 82.40508   -147.2 1.411e+04 3.351e-09
 82.41989   -148.5 1.421e+04 3.531e-09
 82.44045   -150.0 1.415e+04 3.352e-09
 82.45729   -152.1 1.386e+04 2.623e-09
 82.46757   -151.3 1.354e+04 2.450e-09
 82.48044   -154.0 1.327e+04 1.918e-09
 82.49071   -154.3 1.320e+04 1.884e-09
 82.50211   -157.4 1.317e+04 1.756e-09
 82.51978   -160.4 1.353e+04 1.971e-09
 82.53005   -158.3 1.272e+04 1.419e-09
 82.54323   -160.8 1.322e+04 1.733e-09
 82.56378   -162.8 1.367e+04 2.278e-09
 82.58226   -164.2 1.394e+04 2.770e-09
 82.59254   -163.3 1.328e+04 1.905e-09
 82.60489   -164.9 1.346e+04 2.247e-09
 82.62545   -166.2 1.352e+04 2.381e-09
 82.64475   -167.6 1.343e+04 2.125e-09
 82.65502   -166.7 1.302e+04 2.050e-09
 82.66656   -168.1 1.298e+04 1.679e-09
 82.68712   -169.9 1.257e+04 1.139e-09
 82.70723   -172.0 1.183e+04 6.942e-10
 82.71751   -170.4 1.226e+04 9.374e-10
 82.72823   -172.2 1.145e+04 6.100e-10
 82.74879   -173.0 1.080e+04 4.851e-10
 82.77972   -172.8 1.063e+04 4.565e-10
 82.82093   -173.1 1.052e+04 4.362e-10
 82.84267   -174.0 1.085e+04 5.315e-10
 82.86323   -173.1 1.079e+04 5.195e-10
 82.90315   -174.6 1.105e+04 6.464e-10
 82.94426   -175.9 1.116e+04 7.373e-10
 82.96764   -177.2 1.117e+04 7.546e-10
 82.98820   -177.0 1.121e+04 8.031e-10
 83.02649   -178.1 1.110e+04 7.690e-10
 83.06760   -178.8 1.088e+04 6.155e-10
 83.09261   -179.1 1.076e+04 4.845e-10
 83.11317   -179.4 1.081e+04 4.791e-10
 83.14982   -179.5 1.080e+04 4.042e-10
 83.19094   -179.6 1.081e+04 3.715e-10
 83.21759   -179.7 1.075e+04 3.406e-10
 83.23814   -180.2 1.055e+04 3.010e-10
 83.27316   -179.8 1.036e+04 2.540e-10
 83.31427   -179.3 1.013e+04 2.151e-10
 83.34256   -178.7 9.917e+03 1.935e-10
 83.35443   -178.6 9.701e+03 1.686e-10
 83.36726   -179.1 9.721e+03 1.765e-10
 83.39650   -178.3 9.643e+03 1.743e-10
 83.43761   -177.4 9.599e+03 1.770e-10
 83.46753   -176.5 9.563e+03 1.922e-10
 83.48808   -176.3 9.494e+03 1.827e-10
 83.51983   -175.4 9.499e+03 1.937e-10
 83.56094   -174.4 9.506e+03 1.967e-10
 83.59250   -173.3 9.489e+03 1.932e-10
 83.61305   -173.0 9.421e+03 1.847e-10
 83.64317   -171.8 9.363e+03 1.764e-10
 83.68428   -170.5 9.316e+03 1.715e-10
 83.71747   -169.1 9.297e+03 1.704e-10
 83.73802   -168.7 9.185e+03 1.570e-10
 83.76650   -167.1 9.164e+03 1.563e-10
 83.80762   -165.6 9.145e+03 1.557e-10
 83.84244   -163.9 9.086e+03 1.517e-10
 83.86299   -163.3 8.944e+03 1.309e-10
 83.88984   -161.5 8.878e+03 1.204e-10
 83.93095   -159.5 8.826e+03 1.085e-10
 83.96741   -157.5 8.816e+03 1.019e-10
 83.98796   -156.9 8.744e+03 9.560e-11
 84.01318   -155.1 8.746e+03 9.511e-11
 84.05429   -153.8 8.956e+03 1.115e-10
 84.09238   -152.8 9.287e+03 1.765e-10
 84.11293   -152.1 9.263e+03 1.832e-10
 84.13651   -151.1 9.620e+03 2.936e-10
 84.17762   -150.1 9.930e+03 4.137e-10
 84.21277   -149.4 1.018e+04 5.029e-10
 84.23194   -148.8 1.038e+04 5.593e-10
 84.23790   -147.8 1.039e+04 5.806e-10
 84.25985   -147.3 1.065e+04 6.790e-10
 84.30096   -147.0 1.080e+04 7.222e-10
 84.34207   -146.8 1.090e+04 7.407e-10
 84.36287   -147.0 1.107e+04 7.662e-10
 84.38343   -146.1 1.137e+04 9.224e-10
 84.42430   -147.1 1.169e+04 1.030e-09
 84.46541   -148.3 1.195e+04 1.138e-09
 84.48784   -149.6 1.216e+04 1.274e-09
 84.50840   -149.8 1.247e+04 1.492e-09
 84.54763   -150.6 1.219e+04 1.294e-09
 84.58874   -150.7 1.178e+04 9.945e-10
 84.61281   -150.0 1.131e+04 7.211e-10
 84.63337   -149.7 1.107e+04 6.446e-10
 84.67097   -148.5 1.074e+04 4.896e-10
 84.71208   -147.4 1.062e+04 4.239e-10
 84.73778   -146.1 1.052e+04 3.977e-10
 84.75834   -145.3 1.044e+04 3.682e-10
 84.79430   -143.8 1.040e+04 3.562e-10
 84.83542   -142.0 1.033e+04 3.492e-10
 84.86275   -140.2 1.020e+04 3.426e-10
 84.88331   -139.3 1.009e+04 2.801e-10
 84.91764   -137.5 9.978e+03 2.691e-10
 84.95875   -135.8 9.895e+03 2.553e-10
 84.98772   -134.3 9.797e+03 2.372e-10
 85.00828   -133.3 9.822e+03 2.264e-10
 85.04098   -131.8 9.769e+03 2.308e-10
 85.07885   -130.6 9.693e+03 2.246e-10
 85.09940   -129.5 1.003e+04 3.087e-10
 85.11269   -128.6 9.844e+03 2.896e-10
 85.13325   -127.4 1.022e+04 3.790e-10
 85.16431   -126.7 1.018e+04 3.616e-10
 85.20542   -126.2 9.989e+03 3.203e-10
 85.23766   -125.6 9.775e+03 2.834e-10
 85.25822   -124.9 1.013e+04 3.545e-10
 85.28765   -124.1 9.828e+03 2.994e-10
 85.32876   -122.9 9.700e+03 2.768e-10
 85.36263   -121.5 9.642e+03 2.694e-10
 85.38319   -121.1 9.837e+03 3.194e-10
 85.41098   -119.5 9.759e+03 3.098e-10
 85.45210   -117.8 9.649e+03 2.856e-10
 85.48760   -116.1 9.521e+03 2.451e-10
 85.50816   -115.8 9.687e+03 2.799e-10
 85.53432   -114.2 9.529e+03 2.222e-10
 85.57543   -112.7 9.393e+03 1.825e-10
 85.61257   -111.2 9.293e+03 1.596e-10
 85.63313   -111.1 9.349e+03 1.655e-10
 85.65766   -109.6 9.248e+03 1.503e-10
 85.69877   -107.9 9.202e+03 1.432e-10
 85.73754   -106.1 9.181e+03 1.393e-10
 85.75810   -106.1 9.259e+03 1.547e-10
 85.78099   -104.3 9.251e+03 1.590e-10
 85.82210   -102.4 9.290e+03 1.691e-10
 85.86251   -100.6 9.357e+03 1.837e-10
 85.88307   -100.4 9.486e+03 2.090e-10
 85.90433    -98.6 9.564e+03 2.313e-10
 85.94492    -96.8 9.624e+03 2.540e-10
 85.96547    -96.6 9.667e+03 2.532e-10
 85.98655    -94.6 9.691e+03 2.686e-10
 86.00804    -92.6 9.696e+03 2.764e-10
 86.02860    -92.7 9.764e+03 2.875e-10
 86.06878    -90.7 9.767e+03 2.907e-10
 86.10989    -88.7 9.781e+03 2.939e-10
 86.13301    -86.9 9.854e+03 3.072e-10
 86.15357    -87.0 9.873e+03 3.049e-10
 86.19211    -85.0 1.006e+04 3.440e-10
 86.23323    -82.9 1.032e+04 4.039e-10
 86.25788    -81.3 1.053e+04 4.648e-10
 86.27844    -81.5 1.042e+04 4.339e-10
 86.30507    -79.8 1.052e+04 5.401e-10
 86.32027    -79.8 1.090e+04 6.514e-10
 86.33055    -80.0 1.097e+04 6.534e-10
 86.34609    -80.6 1.171e+04 9.382e-10
 86.36664    -81.5 1.254e+04 1.510e-09
 86.38276    -81.9 1.340e+04 2.486e-09
 86.39303    -82.3 1.371e+04 2.836e-09
 86.39832    -82.4 1.456e+04 4.198e-09
 86.40859    -82.7 1.457e+04 4.159e-09
 86.42831    -82.8 1.511e+04 4.801e-09
 86.44524    -83.8 1.532e+04 4.598e-09
 86.45552    -84.6 1.565e+04 4.868e-09
 86.46942    -86.7 1.565e+04 3.960e-09
 86.48998    -89.5 1.536e+04 2.880e-09
 86.50773    -92.0 1.477e+04 1.958e-09
 86.51800    -92.7 1.525e+04 2.610e-09
 86.53109    -94.6 1.441e+04 1.624e-09
 86.55165    -95.5 1.365e+04 1.104e-09
 86.57021    -97.3 1.261e+04 7.142e-10
 86.58049    -97.6 1.274e+04 8.313e-10
 86.60314    -99.2 1.179e+04 5.483e-10
 86.63289    -99.8 1.083e+04 3.246e-10
 86.65345   -100.0 1.103e+04 3.674e-10
 86.68546    -99.0 1.061e+04 2.738e-10
 86.72657    -97.8 1.033e+04 2.365e-10
 86.75786    -96.5 1.010e+04 2.099e-10
 86.77842    -96.2 1.024e+04 2.154e-10
 86.80879    -94.7 1.004e+04 1.896e-10
 86.83155    -93.3 1.002e+04 1.820e-10
 86.85210    -93.8 1.017e+04 2.121e-10
 86.88283    -92.5 1.026e+04 2.208e-10
 86.90339    -92.2 1.037e+04 2.232e-10
 86.93213    -91.3 1.051e+04 2.760e-10
 86.97324    -90.8 1.081e+04 3.790e-10
 87.00398    -90.0 1.129e+04 5.298e-10
 87.01789    -90.0 1.131e+04 5.419e-10
 87.02826    -90.3 1.144e+04 5.831e-10
 87.04509    -89.9 1.186e+04 8.036e-10
 87.06555    -90.1 1.200e+04 1.006e-09
 87.08037    -89.5 1.219e+04 1.225e-09
 87.09065    -89.3 1.226e+04 1.152e-09
 87.10666    -89.0 1.228e+04 1.184e-09
 87.12722    -88.5 1.231e+04 1.174e-09
 87.14286    -88.3 1.218e+04 9.837e-10
 87.15313    -88.3 1.215e+04 9.082e-10
 87.16833    -88.3 1.193e+04 7.387e-10
 87.18888    -88.4 1.160e+04 5.915e-10
 87.20534    -88.5 1.127e+04 4.889e-10
 87.21562    -88.1 1.127e+04 4.856e-10
 87.23000    -87.9 1.116e+04 4.537e-10
 87.25765    -87.8 1.108e+04 4.349e-10
 87.27830    -87.2 1.118e+04 4.606e-10
 87.30214    -87.2 1.117e+04 4.674e-10
 87.34325    -87.1 1.108e+04 4.508e-10
 87.38271    -87.2 1.081e+04 4.086e-10
 87.40327    -86.6 1.080e+04 4.199e-10
 87.42547    -86.8 1.053e+04 3.767e-10
 87.46659    -86.5 1.043e+04 3.726e-10
 87.50768    -85.9 1.041e+04 3.988e-10
 87.54880    -84.9 1.053e+04 4.326e-10
 87.57955    -85.1 1.060e+04 5.037e-10
 87.59053    -85.6 1.061e+04 5.525e-10
 87.60081    -85.5 1.067e+04 5.576e-10
 87.62056    -86.3 1.095e+04 6.731e-10
 87.64112    -87.3 1.127e+04 8.575e-10
 87.65301    -88.2 1.163e+04 1.150e-09
 87.66329    -88.2 1.179e+04 1.240e-09
 87.68223    -88.9 1.214e+04 1.637e-09
 87.69742    -89.4 1.243e+04 2.000e-09
 87.70770    -89.5 1.250e+04 2.072e-09
 87.71550    -90.1 1.272e+04 2.334e-09
 87.72578    -90.0 1.290e+04 2.557e-09
 87.74390    -90.5 1.295e+04 2.606e-09
 87.76445    -90.8 1.281e+04 2.515e-09
 87.77798    -91.0 1.250e+04 2.164e-09
 87.78826    -90.5 1.264e+04 2.293e-09
 87.80556    -90.6 1.238e+04 1.965e-09
 87.82612    -90.7 1.215e+04 1.722e-09
 87.84047    -90.6 1.198e+04 1.538e-09
 87.85075    -90.1 1.242e+04 1.824e-09
 87.86723    -90.0 1.244e+04 1.746e-09
 87.88779    -90.0 1.260e+04 1.742e-09
 87.90295    -90.0 1.294e+04 1.841e-09
 87.91323    -90.1 1.373e+04 2.520e-09
 87.92890    -90.3 1.420e+04 2.861e-09
 87.94946    -90.3 1.463e+04 3.246e-09
 87.96544    -90.5 1.485e+04 3.500e-09
 87.97572    -90.9 1.530e+04 4.421e-09
 87.99057    -91.0 1.506e+04 4.186e-09
 88.01112    -90.9 1.459e+04 3.694e-09
 88.02792    -90.8 1.410e+04 3.260e-09
 88.03820    -91.2 1.403e+04 3.308e-09
 88.05224    -91.0 1.353e+04 2.962e-09
 88.07279    -90.5 1.325e+04 2.804e-09
 88.09041    -90.2 1.318e+04 2.772e-09
 88.10069    -90.9 1.295e+04 2.578e-09
 88.11390    -91.1 1.318e+04 2.718e-09
 88.13046    -92.1 1.387e+04 3.366e-09
 88.14074    -92.3 1.373e+04 3.163e-09
 88.15289    -93.6 1.453e+04 4.321e-09
 88.16317    -94.5 1.439e+04 4.323e-09
 88.17557    -95.0 1.501e+04 5.631e-09
 88.19613    -95.3 1.535e+04 6.408e-09
 88.21538    -95.8 1.537e+04 6.485e-09
 88.22566    -96.3 1.482e+04 5.480e-09
 88.23724    -96.9 1.415e+04 4.138e-09
 88.25780    -98.2 1.315e+04 2.737e-09
 88.27787   -100.1 1.202e+04 1.786e-09
 88.28814   -100.3 1.152e+04 1.529e-09
 88.29891   -101.7 1.083e+04 1.146e-09
 88.31946   -103.0 1.055e+04 1.021e-09
 88.34002   -104.1 1.053e+04 1.009e-09
 88.35063   -105.7 1.088e+04 1.141e-09
 88.36091   -105.2 1.077e+04 1.045e-09
 88.38113   -106.9 1.130e+04 1.430e-09
 88.40169   -108.1 1.181e+04 1.977e-09
 88.41311   -108.8 1.225e+04 2.479e-09
 88.42339   -108.6 1.222e+04 2.473e-09
 88.44280   -109.2 1.249e+04 2.687e-09
 88.46336   -110.0 1.256e+04 2.694e-09
 88.47560   -111.0 1.254e+04 2.424e-09
 88.48588   -110.6 1.243e+04 2.360e-09
 88.50447   -112.0 1.190e+04 1.828e-09
 88.52502   -113.6 1.124e+04 1.374e-09
 88.53808   -114.6 1.075e+04 1.136e-09
 88.54836   -114.2 1.035e+04 8.944e-10
 88.56350   -114.8 1.005e+04 7.534e-10
 88.57377   -115.4 9.977e+03 7.195e-10
 88.58669   -115.6 9.762e+03 6.378e-10
 88.60057   -115.7 9.654e+03 6.093e-10
 88.61085   -115.5 9.394e+03 5.084e-10
 88.62780   -115.2 9.363e+03 5.038e-10
 88.64836   -114.8 9.368e+03 5.288e-10
 88.66305   -114.0 9.464e+03 5.814e-10
 88.67333   -113.6 9.231e+03 4.952e-10
 88.68947   -112.6 9.325e+03 5.319e-10
 88.71003   -111.6 9.402e+03 5.555e-10
 88.72554   -110.7 9.456e+03 5.666e-10
 88.73582   -110.3 9.317e+03 5.098e-10
 88.75114   -109.5 9.373e+03 5.248e-10
 88.77170   -108.6 9.402e+03 5.350e-10
 88.78802   -107.7 9.413e+03 5.386e-10
 88.79830   -107.3 9.371e+03 5.285e-10
 88.81281   -106.3 9.361e+03 5.284e-10
 88.83336   -105.0 9.322e+03 5.112e-10
 88.85051   -103.7 9.292e+03 4.867e-10
 88.86079   -103.2 9.277e+03 4.860e-10
 88.87448   -102.3 9.266e+03 4.721e-10
 88.89503   -100.9 9.305e+03 4.607e-10
 88.91299   -100.3 9.310e+03 4.573e-10
 88.92327    -99.6 9.340e+03 4.541e-10
 88.93614    -98.1 9.338e+03 4.478e-10
 88.95670    -97.8 9.293e+03 4.436e-10
 88.97548    -96.6 9.295e+03 4.525e-10
 88.98576    -96.1 9.253e+03 4.334e-10
 88.99653    -95.9 9.304e+03 4.492e-10
 89.00681    -95.5 9.437e+03 5.079e-10
 89.01837    -95.1 9.734e+03 6.180e-10
 89.03796    -94.6 1.001e+04 7.548e-10
 89.04824    -94.2 9.848e+03 6.788e-10
 89.05948    -93.6 1.015e+04 8.572e-10
 89.08004    -93.0 1.046e+04 1.053e-09
 89.10045    -92.5 1.080e+04 1.273e-09
 89.11073    -92.0 1.068e+04 1.198e-09
 89.12115    -91.7 1.105e+04 1.450e-09
 89.14170    -91.5 1.140e+04 1.718e-09
 89.16226    -91.3 1.171e+04 1.974e-09
 89.17321    -91.0 1.195e+04 2.170e-09
 89.18349    -90.6 1.199e+04 2.284e-09
 89.20337    -90.4 1.219e+04 2.440e-09
 89.22393    -90.3 1.224e+04 2.487e-09
 89.23570    -90.2 1.225e+04 2.379e-09
 89.24598    -89.7 1.242e+04 2.536e-09
 89.26504    -89.7 1.220e+04 2.201e-09
 89.28560    -89.6 1.195e+04 1.900e-09
 89.29818    -89.4 1.167e+04 1.610e-09
 89.30846    -89.1 1.163e+04 1.569e-09
 89.32671    -88.8 1.128e+04 1.298e-09
 89.34726    -88.2 1.096e+04 1.081e-09
 89.36067    -87.4 1.071e+04 9.118e-10
 89.37095    -87.0 1.062e+04 8.453e-10
 89.38838    -86.0 1.040e+04 6.976e-10
 89.40893    -84.7 1.020e+04 5.663e-10
 89.42315    -83.4 1.015e+04 4.780e-10
 89.43361    -82.8 1.021e+04 4.361e-10
 89.45022    -83.1 1.023e+04 4.473e-10
 89.48098    -82.4 1.032e+04 4.198e-10
 89.52219    -80.5 1.003e+04 3.572e-10
 89.54832    -78.4 9.810e+03 3.090e-10
 89.56887    -77.7 9.737e+03 2.909e-10
 89.60441    -75.6 9.725e+03 2.746e-10
 89.64552    -73.4 9.761e+03 2.718e-10
 89.67329    -71.4 9.862e+03 2.801e-10
 89.69384    -71.0 9.788e+03 2.636e-10
 89.72775    -69.0 9.862e+03 2.784e-10
 89.76886    -67.0 9.943e+03 3.049e-10
 89.79826    -65.0 1.002e+04 3.374e-10
 89.81881    -64.7 9.828e+03 2.813e-10
 89.85108    -62.6 9.902e+03 3.040e-10
 89.89219    -60.5 9.960e+03 3.288e-10
 89.92323    -58.4 1.003e+04 3.524e-10
 89.94378    -57.8 9.804e+03 2.685e-10
 89.97442    -55.7 9.877e+03 2.841e-10
 90.01553    -53.7 9.953e+03 3.019e-10
 90.04820    -51.6 9.970e+03 3.206e-10
 90.06876    -50.9 9.752e+03 2.543e-10
 90.09775    -48.4 9.746e+03 2.750e-10
 90.13887    -45.7 9.734e+03 2.703e-10
 90.17317    -42.9 9.870e+03 2.132e-10
 90.19373    -42.1 9.728e+03 1.751e-10
 90.22109    -40.3 9.927e+03 1.376e-10
 90.26220    -38.6 9.919e+03 1.345e-10
 90.29583    -36.8 9.968e+03 1.497e-10
 90.31122    -37.1 1.012e+04 1.645e-10
 90.31870    -36.4 1.002e+04 1.478e-10
 90.34443    -34.5 1.010e+04 1.766e-10
 90.38554    -32.3 1.020e+04 2.007e-10
 90.42311    -30.1 1.024e+04 2.156e-10
 90.44367    -29.4 1.017e+04 1.982e-10
 90.46776    -27.4 1.036e+04 2.001e-10
 90.50887    -25.9 1.055e+04 2.157e-10
 90.54808    -24.5 1.070e+04 2.699e-10
 90.56864    -23.9 1.066e+04 2.652e-10
 90.59110    -22.1 1.081e+04 3.325e-10
 90.63221    -20.5 1.089e+04 3.398e-10
 90.67305    -18.7 1.085e+04 3.053e-10
 90.69361    -18.2 1.082e+04 3.093e-10
 90.71443    -16.4 1.079e+04 2.501e-10
 90.75555    -14.8 1.082e+04 1.990e-10
 90.79666    -13.3 1.082e+04 1.732e-10
 90.81858    -11.4 1.080e+04 1.697e-10
 90.83913    -10.8 1.082e+04 1.898e-10
 90.87888     -8.9 1.084e+04 1.892e-10
 90.91999     -6.9 1.088e+04 1.920e-10
 90.94355     -4.9 1.097e+04 1.994e-10
 90.96410     -4.5 1.097e+04 2.045e-10
 91.00222     -2.7 1.105e+04 2.235e-10
 91.04333     -0.9 1.113e+04 2.500e-10
 91.06852      0.9 1.127e+04 2.704e-10
 91.08907      1.2 1.124e+04 2.842e-10
 91.12555      2.8 1.132e+04 2.867e-10
 91.16191      4.5 1.131e+04 2.774e-10
 91.18246      4.9 1.135e+04 3.124e-10
 91.19349      6.5 1.127e+04 2.678e-10
 91.21404      6.9 1.127e+04 2.696e-10
 91.24889      8.6 1.117e+04 2.125e-10
 91.29000     10.3 1.111e+04 1.611e-10
 91.31846     11.9 1.111e+04 1.242e-10
 91.33901     12.3 1.112e+04 1.225e-10
 91.37223     14.0 1.111e+04 1.019e-10
 91.41334     15.8 1.098e+04 9.798e-11
 91.44343     17.7 1.097e+04 9.894e-11
 91.46398     18.3 1.097e+04 9.931e-11
 91.49556     20.2 1.094e+04 1.041e-10
 91.53667     22.0 1.093e+04 1.138e-10
 91.56840     23.8 1.093e+04 1.247e-10
 91.58895     24.4 1.092e+04 1.287e-10
 91.61890     26.2 1.094e+04 1.372e-10
 91.66001     27.7 1.097e+04 1.397e-10
 91.69337     29.0 1.097e+04 1.408e-10
 91.71392     29.8 1.103e+04 1.503e-10
 91.74223     30.9 1.104e+04 1.497e-10
 91.78335     31.7 1.107e+04 1.480e-10
 91.81834     32.4 1.109e+04 1.450e-10
 91.83889     33.2 1.118e+04 1.703e-10
 91.86557     33.7 1.117e+04 1.673e-10
 91.90668     34.2 1.114e+04 1.605e-10
 91.94331     34.6 1.115e+04 1.516e-10
 91.96386     34.7 1.131e+04 2.055e-10
 91.98891     34.7 1.136e+04 2.068e-10
 92.02798     34.4 1.149e+04 2.205e-10
 92.04853     34.1 1.152e+04 2.381e-10
 92.06828     33.6 1.168e+04 2.624e-10
 92.08883     32.9 1.200e+04 3.826e-10
 92.11224     32.4 1.220e+04 4.524e-10
 92.15335     32.0 1.229e+04 5.227e-10
 92.19325     31.8 1.227e+04 5.675e-10
 92.21380     30.9 1.244e+04 6.240e-10
 92.23558     30.9 1.231e+04 6.098e-10
 92.27669     31.4 1.220e+04 5.975e-10
 92.31780     32.1 1.226e+04 6.196e-10
 92.33868     32.2 1.231e+04 6.686e-10
 92.34886     31.8 1.226e+04 6.011e-10
 92.36900     31.6 1.239e+04 6.512e-10
 92.38955     31.0 1.262e+04 7.460e-10
 92.40106     30.4 1.289e+04 8.973e-10
 92.41134     29.4 1.299e+04 9.833e-10
 92.43067     29.2 1.323e+04 1.289e-09
 92.45122     29.1 1.335e+04 1.497e-09
 92.46355     29.2 1.336e+04 1.497e-09
 92.47315     28.7 1.360e+04 1.827e-09
 92.48138     29.0 1.345e+04 1.675e-09
 92.49233     29.0 1.345e+04 1.615e-09
 92.51289     28.9 1.337e+04 1.458e-09
 92.52603     28.7 1.328e+04 1.293e-09
 92.53631     27.8 1.347e+04 1.535e-09
 92.55400     27.3 1.354e+04 1.525e-09
 92.57456     26.1 1.386e+04 1.632e-09
 92.58852     23.4 1.474e+04 2.228e-09
 92.59880     21.9 1.502e+04 2.871e-09
 92.61567     19.6 1.583e+04 4.833e-09
 92.63623     18.1 1.619e+04 6.769e-09
 92.65100     16.9 1.611e+04 6.301e-09
 92.66128     16.5 1.551e+04 4.961e-09
 92.67734     15.5 1.488e+04 3.199e-09
 92.69789     13.0 1.448e+04 1.566e-09
 92.71349      8.9 1.366e+04 7.901e-10
 92.72377      8.1 1.320e+04 7.123e-10
 92.73901      5.5 1.221e+04 5.890e-10
 92.75956      4.6 1.197e+04 5.801e-10
 92.77597      4.4 1.203e+04 6.115e-10
 92.78625      4.9 1.197e+04 5.968e-10
 92.80067      4.8 1.200e+04 6.481e-10
 92.82123      4.8 1.204e+04 7.266e-10
 92.83846      4.9 1.205e+04 8.100e-10
 92.84874      5.4 1.179e+04 6.863e-10
 92.86234      5.6 1.171e+04 6.916e-10
 92.88290      6.0 1.164e+04 6.663e-10
 92.90094      6.4 1.154e+04 6.207e-10
 92.91122      6.4 1.135e+04 4.867e-10
 92.91441      6.9 1.127e+04 4.295e-10
 92.92469      7.0 1.124e+04 4.437e-10
 92.94457      7.1 1.121e+04 4.215e-10
 92.96343      7.6 1.112e+04 3.790e-10
 92.98408      7.9 1.103e+04 3.393e-10
 93.01671      9.0 1.081e+04 2.968e-10
 93.05782      9.9 1.081e+04 2.939e-10
 93.08860     10.8 1.082e+04 3.027e-10
 93.10915     11.9 1.062e+04 2.644e-10
 93.14004     12.7 1.071e+04 2.827e-10
 93.18115     13.3 1.084e+04 2.933e-10
 93.21357     13.3 1.096e+04 3.047e-10
 93.23412     14.3 1.101e+04 3.036e-10
 93.26338     13.9 1.123e+04 3.398e-10
 93.30449     13.4 1.127e+04 4.246e-10
 93.33854     13.0 1.137e+04 5.668e-10
 93.35909     13.8 1.141e+04 5.545e-10
 93.38671     13.2 1.167e+04 7.544e-10
 93.42783     12.6 1.201e+04 9.828e-10
 93.46351     11.6 1.230e+04 1.151e-09
 93.48406     12.9 1.207e+04 9.753e-10
 93.51005     12.0 1.209e+04 9.604e-10
 93.55116     11.2 1.195e+04 8.640e-10
 93.58848     10.7 1.167e+04 7.556e-10
 93.60903     12.3 1.133e+04 5.592e-10
 93.63339     12.5 1.124e+04 5.588e-10
 93.67450     12.9 1.128e+04 6.190e-10
 93.71345     13.7 1.155e+04 8.004e-10
 93.73400     15.3 1.123e+04 6.013e-10
 93.74635     15.4 1.152e+04 7.760e-10
 93.76681     15.4 1.183e+04 9.636e-10
 93.78048     15.4 1.221e+04 1.230e-09
 93.78941     15.5 1.221e+04 1.232e-09
 93.79629     16.3 1.178e+04 9.777e-10
 93.80792     16.4 1.219e+04 1.235e-09
 93.82847     16.4 1.273e+04 1.582e-09
 93.84850     16.0 1.332e+04 2.066e-09
 93.85878     17.0 1.274e+04 1.543e-09
 93.86959     16.4 1.328e+04 1.919e-09
 93.89014     13.7 1.472e+04 3.108e-09
 93.91070      8.0 1.790e+04 6.029e-09
 93.92121      1.4 2.056e+04 1.248e-08
 93.92630      1.5 2.040e+04 1.115e-08
 93.93629     -1.5 2.022e+04 1.956e-08
 93.94657     -1.4 1.938e+04 2.324e-08
 93.95241     -1.8 1.933e+04 2.321e-08
 93.95755     -1.5 1.926e+04 2.289e-08
 93.97232     -1.6 1.895e+04 1.885e-08
 93.98375     -4.3 1.956e+04 8.439e-09
 93.99403     -2.8 1.918e+04 8.969e-09
 94.01348    -11.0 1.936e+04 2.798e-09
 94.03403    -21.9 1.391e+04 1.589e-09
 94.04623    -24.9 1.277e+04 1.778e-09
 94.05651    -24.3 1.274e+04 1.636e-09
 94.07515    -25.2 1.296e+04 2.104e-09
 94.09570    -25.5 1.323e+04 2.395e-09
 94.10872    -26.4 1.342e+04 2.236e-09
 94.11900    -25.8 1.342e+04 2.408e-09
 94.13681    -27.0 1.327e+04 2.031e-09
 94.16775    -28.8 1.223e+04 1.260e-09
 94.20895    -29.6 1.110e+04 8.533e-10
 94.23388    -28.8 1.049e+04 5.878e-10
 94.25444    -28.1 1.047e+04 5.694e-10
 94.29118    -27.4 1.020e+04 4.538e-10
 94.33229    -26.3 1.023e+04 4.755e-10
 94.35885    -26.1 1.057e+04 6.029e-10
 94.37941    -25.4 1.055e+04 6.044e-10
 94.41451    -24.9 1.110e+04 9.073e-10
 94.45563    -24.9 1.172e+04 1.364e-09
 94.48382    -25.4 1.236e+04 1.831e-09
 94.50438    -24.8 1.163e+04 1.269e-09
 94.53785    -24.8 1.150e+04 1.171e-09
 94.57896    -24.6 1.100e+04 8.672e-10
 94.60879    -24.7 1.055e+04 6.792e-10
 94.62935    -23.3 1.011e+04 4.879e-10
 94.64675    -23.2 1.001e+04 4.485e-10
 94.66731    -24.1 9.927e+03 4.155e-10
 94.70230    -23.8 9.918e+03 4.279e-10
 94.73376    -23.0 9.850e+03 4.581e-10
 94.75432    -21.4 9.678e+03 3.984e-10
 94.78452    -20.2 9.613e+03 3.958e-10
 94.82564    -19.1 9.693e+03 3.691e-10
 94.85873    -18.7 9.831e+03 3.419e-10
 94.87929    -17.3 9.919e+03 3.714e-10
 94.89748    -17.8 1.009e+04 4.089e-10
 94.91794    -18.5 1.032e+04 4.679e-10
 94.93130    -18.8 1.047e+04 5.974e-10
 94.94158    -18.3 1.066e+04 6.471e-10
 94.95905    -19.0 1.117e+04 8.446e-10
 94.97961    -20.2 1.169e+04 1.136e-09
 94.99379    -20.5 1.172e+04 1.452e-09
 95.00406    -19.9 1.185e+04 1.567e-09
 95.02072    -19.8 1.179e+04 1.662e-09
 95.04128    -19.6 1.174e+04 1.425e-09
 95.05627    -20.7 1.196e+04 1.050e-09
 95.06655    -20.4 1.197e+04 9.720e-10
 95.07959    -22.0 1.142e+04 8.112e-10
 95.08987    -22.8 1.109e+04 7.001e-10
 95.10858    -23.8 1.083e+04 5.917e-10
 95.12913    -23.1 1.072e+04 5.790e-10
 95.15443    -24.4 1.080e+04 4.843e-10
 95.19564    -26.9 1.115e+04 6.129e-10
 95.22638    -26.9 1.112e+04 8.880e-10
 95.24373    -27.2 1.116e+04 9.367e-10
 95.25401    -26.6 1.096e+04 7.863e-10
 95.26739    -26.3 1.091e+04 9.155e-10
 95.28795    -26.1 1.094e+04 8.776e-10
 95.30621    -25.7 1.111e+04 6.863e-10
 95.31649    -25.1 1.096e+04 6.126e-10
 95.32906    -25.4 1.111e+04 5.265e-10
 95.35852    -27.7 1.089e+04 3.659e-10
 95.37917    -25.8 1.079e+04 3.624e-10
 95.40120    -26.7 1.053e+04 3.307e-10
 95.44232    -27.0 1.061e+04 4.023e-10
 95.48343    -26.9 1.076e+04 4.827e-10
 95.51282    -25.2 1.085e+04 5.477e-10
 95.52300    -25.7 1.092e+04 6.334e-10
 95.53462    -25.7 1.094e+04 5.862e-10
 95.55518    -25.7 1.092e+04 4.662e-10
 95.56643    -25.8 1.091e+04 4.592e-10
 95.57671    -25.5 1.090e+04 4.639e-10
 95.60667    -26.4 1.079e+04 3.531e-10
 95.62911    -26.8 1.070e+04 2.615e-10
 95.64967    -25.6 1.084e+04 3.434e-10
 95.68899    -26.0 1.091e+04 3.149e-10
 95.73010    -26.5 1.097e+04 3.372e-10
 95.75408    -26.5 1.112e+04 4.102e-10
 95.77464    -25.3 1.120e+04 4.375e-10
 95.80195    -24.8 1.126e+04 4.641e-10
 95.81637    -24.8 1.128e+04 4.692e-10
 95.82665    -24.6 1.127e+04 4.686e-10
 95.84296    -24.5 1.128e+04 4.542e-10
 95.86352    -24.6 1.136e+04 4.730e-10
 95.87886    -25.0 1.162e+04 4.866e-10
 95.88913    -24.3 1.161e+04 4.895e-10
 95.90463    -25.0 1.200e+04 5.920e-10
 95.92519    -25.7 1.222e+04 7.680e-10
 95.94134    -25.9 1.233e+04 1.013e-09
 95.95154    -25.3 1.242e+04 1.047e-09
 95.96622    -25.2 1.309e+04 2.143e-09
 95.98685    -24.5 1.327e+04 2.044e-09
 96.00392    -24.5 1.282e+04 1.366e-09
 96.02458    -22.9 1.336e+04 1.971e-09
 96.05900    -22.6 1.277e+04 1.266e-09
 96.10011    -22.2 1.226e+04 6.165e-10
 96.12899    -22.8 1.181e+04 2.654e-10
 96.14955    -21.7 1.219e+04 3.810e-10
 96.18233    -22.8 1.160e+04 2.877e-10
 96.22344    -22.4 1.136e+04 3.029e-10
 96.25396    -20.8 1.124e+04 3.597e-10
 96.27452    -20.2 1.137e+04 4.475e-10
 96.30567    -18.3 1.131e+04 4.239e-10
 96.34678    -16.6 1.139e+04 3.446e-10
 96.37889    -15.5 1.136e+04 2.974e-10
 96.39945    -16.1 1.142e+04 3.382e-10
 96.42900    -14.5 1.141e+04 3.270e-10
 96.47012    -12.7 1.138e+04 3.536e-10
 96.50390    -10.5 1.143e+04 3.957e-10
 96.52446    -10.4 1.137e+04 3.848e-10
 96.55234     -8.5 1.165e+04 4.440e-10
 96.59345     -7.2 1.193e+04 5.526e-10
 96.62887     -6.0 1.225e+04 7.696e-10
 96.64943     -5.9 1.224e+04 8.381e-10
 96.67568     -5.2 1.290e+04 1.283e-09
 96.70154     -5.8 1.360e+04 1.943e-09
 96.71172     -5.5 1.329e+04 1.816e-09
 96.72687     -5.5 1.350e+04 1.999e-09
 96.74743     -5.5 1.369e+04 2.571e-09
 96.76393     -5.2 1.395e+04 2.679e-09
 96.77420     -4.8 1.344e+04 1.838e-09
 96.78854     -4.8 1.325e+04 1.775e-09
 96.80909     -4.3 1.278e+04 1.517e-09
 96.82201     -4.1 1.266e+04 1.128e-09
 96.82905     -4.2 1.272e+04 1.131e-09
 96.83669     -3.8 1.239e+04 9.077e-10
 96.85021     -3.9 1.242e+04 7.176e-10
 96.87076     -4.4 1.274e+04 5.530e-10
 96.88890     -4.9 1.236e+04 5.373e-10
 96.89917     -3.5 1.213e+04 4.597e-10
 96.92225     -2.4 1.183e+04 3.663e-10
 96.96346     -1.3 1.162e+04 3.882e-10
 97.00378      0.4 1.162e+04 3.839e-10
 97.02434      1.9 1.150e+04 2.843e-10
 97.04568      3.3 1.163e+04 3.111e-10
 97.08680      4.8 1.163e+04 3.556e-10
 97.12791      6.5 1.161e+04 3.775e-10
 97.14931      8.3 1.160e+04 3.601e-10
 97.16987      9.4 1.179e+04 4.562e-10
 97.21013     10.8 1.189e+04 4.473e-10
 97.24497     11.8 1.191e+04 4.681e-10
 97.26552     11.8 1.178e+04 4.015e-10
 97.27428     12.9 1.177e+04 4.716e-10
 97.29484     13.4 1.186e+04 5.034e-10
 97.33347     14.9 1.178e+04 5.613e-10
 97.37458     16.7 1.171e+04 5.452e-10
 97.39925     18.7 1.155e+04 4.562e-10
 97.41981     18.9 1.148e+04 3.130e-10
 97.45680     20.5 1.141e+04 2.566e-10
 97.49792     22.0 1.135e+04 2.183e-10
 97.52422     23.7 1.124e+04 2.098e-10
 97.54478     24.3 1.124e+04 1.998e-10
 97.58014     26.3 1.121e+04 2.078e-10
 97.62125     28.3 1.120e+04 2.149e-10
 97.64919     30.2 1.120e+04 2.185e-10
 97.66975     30.7 1.121e+04 2.074e-10
 97.70348     32.5 1.120e+04 2.098e-10
 97.74459     34.3 1.118e+04 2.123e-10
 97.77416     36.1 1.115e+04 2.149e-10
 97.79472     36.6 1.114e+04 2.050e-10
 97.82681     38.3 1.113e+04 1.986e-10
 97.86792     39.9 1.116e+04 1.951e-10
 97.89913     41.3 1.120e+04 1.997e-10
 97.91969     41.7 1.128e+04 2.070e-10
 97.95015     42.8 1.137e+04 2.352e-10
 97.99126     43.8 1.146e+04 2.959e-10
 98.02410     44.8 1.164e+04 4.296e-10
 98.04466     45.2 1.169e+04 4.514e-10
 98.07348     46.2 1.192e+04 5.879e-10
 98.09677     46.5 1.208e+04 7.123e-10
 98.10695     46.8 1.200e+04 6.577e-10
 98.12112     47.0 1.204e+04 7.439e-10
 98.13140     47.5 1.208e+04 7.440e-10
 98.14523     47.9 1.219e+04 9.582e-10
 98.15915     48.4 1.243e+04 1.211e-09
 98.16943     48.7 1.226e+04 9.189e-10
 98.18635     49.1 1.259e+04 1.116e-09
 98.20690     49.0 1.286e+04 1.330e-09
 98.22164     48.8 1.307e+04 1.607e-09
 98.23192     48.6 1.294e+04 1.311e-09
 98.24801     48.3 1.317e+04 1.766e-09
 98.26857     48.1 1.341e+04 2.346e-09
 98.28412     48.0 1.367e+04 2.907e-09
 98.29440     48.2 1.365e+04 2.945e-09
 98.30968     48.4 1.404e+04 3.350e-09
 98.33024     48.3 1.418e+04 3.366e-09
 98.34661     47.9 1.417e+04 3.230e-09
 98.35689     48.3 1.432e+04 3.031e-09
 98.37135     47.8 1.426e+04 2.645e-09
 98.39191     47.1 1.405e+04 2.252e-09
 98.40909     46.5 1.377e+04 1.908e-09
 98.41937     46.1 1.446e+04 1.918e-09
 98.43302     45.8 1.419e+04 1.623e-09
 98.45357     45.6 1.389e+04 1.352e-09
 98.47158     45.1 1.358e+04 1.139e-09
 98.48186     44.5 1.496e+04 1.641e-09
 98.49469     43.5 1.476e+04 1.612e-09
 98.51524     42.5 1.481e+04 1.689e-09
 98.53406     41.3 1.501e+04 2.031e-09
 98.54434     39.4 1.589e+04 4.457e-09
 98.55416     38.8 1.613e+04 5.992e-09
 98.56443     37.2 1.669e+04 7.795e-09
 98.57691     37.3 1.678e+04 9.768e-09
 98.59655     37.4 1.703e+04 1.118e-08
 98.60683     37.4 1.834e+04 2.038e-08
 98.61802     37.5 1.850e+04 1.934e-08
 98.63858     37.3 1.835e+04 1.792e-08
 98.65903     37.3 1.794e+04 1.526e-08
 98.66931     36.8 1.827e+04 1.589e-08
 98.67969     37.1 1.746e+04 1.232e-08
 98.70025     37.3 1.677e+04 9.621e-09
 98.72080     37.7 1.613e+04 7.601e-09
 98.73180     38.3 1.559e+04 6.175e-09
 98.74208     37.9 1.549e+04 5.982e-09
 98.76191     38.8 1.510e+04 5.182e-09
 98.78247     40.0 1.481e+04 4.604e-09
 98.79428     41.1 1.453e+04 3.946e-09
 98.80456     41.0 1.454e+04 3.843e-09
 98.82358     42.2 1.430e+04 3.319e-09
 98.85451     44.0 1.403e+04 2.795e-09
 98.89572     46.1 1.372e+04 2.358e-09
 98.91945     48.2 1.347e+04 2.215e-09
 98.94000     48.8 1.340e+04 1.995e-09
 98.97711     51.1 1.347e+04 2.117e-09
 98.99767     50.8 1.311e+04 1.592e-09
 99.01906     52.9 1.322e+04 1.733e-09
 99.04442     54.5 1.336e+04 1.924e-09
 99.06497     55.4 1.328e+04 1.483e-09
 99.10128     56.8 1.341e+04 1.716e-09
 99.14240     57.8 1.351e+04 1.938e-09
 99.16929     57.9 1.371e+04 2.248e-09
 99.17947     58.3 1.390e+04 2.368e-09
 99.19359     58.5 1.386e+04 2.560e-09
 99.21415     58.9 1.369e+04 2.564e-09
 99.23168     59.5 1.350e+04 2.414e-09
 99.24196     60.0 1.359e+04 2.585e-09
 99.25526     60.7 1.337e+04 2.258e-09
 99.27581     61.2 1.318e+04 1.869e-09
 99.29416     61.4 1.302e+04 1.522e-09
 99.30444     61.7 1.314e+04 1.652e-09
 99.31693     61.6 1.297e+04 1.473e-09
 99.33748     61.8 1.285e+04 1.438e-09
 99.35665     62.0 1.285e+04 1.456e-09
 99.36693     62.3 1.286e+04 1.582e-09
 99.37859     62.8 1.286e+04 1.610e-09
 99.39915     63.0 1.287e+04 1.615e-09
 99.41923     63.7 1.290e+04 1.684e-09
 99.43988     64.3 1.316e+04 1.912e-09
 99.47129     65.6 1.290e+04 1.731e-09
 99.51240     67.2 1.254e+04 1.389e-09
 99.54430     68.9 1.210e+04 1.022e-09
 99.56485     69.1 1.206e+04 1.025e-09
 99.59463     70.7 1.165e+04 7.486e-10
 99.63574     72.1 1.127e+04 5.469e-10
 99.66927     73.3 1.099e+04 4.237e-10
 99.68982     73.4 1.099e+04 5.400e-10
 99.71796     74.8 1.074e+04 4.244e-10
 99.75908     76.3 1.047e+04 3.520e-10
 99.79424     78.2 1.034e+04 3.455e-10
 99.81480     78.7 1.021e+04 3.511e-10
 99.84130     80.7 1.021e+04 3.506e-10
 99.86374     82.8 1.030e+04 3.723e-10
 99.88429     83.5 1.026e+04 3.722e-10
 99.91921     85.3 1.041e+04 4.235e-10
 99.93977     85.7 1.020e+04 3.982e-10
 99.96464     87.3 1.030e+04 4.483e-10
 99.99187     87.9 1.041e+04 4.952e-10
100.00206     88.1 1.032e+04 4.789e-10
