# Columns:
#   distance along LOS (in CHIMPs)
#   peculiar velocity  (in km/s)
#   temperature (K)
#   HI number density
# pos=(169.874,198.648,212.391), angles=(1.62935,4.67563)
  0.01179     47.8 8.927e+03 2.438e-10
  0.04317     48.3 8.584e+03 1.777e-10
  0.08232     49.0 8.506e+03 1.594e-10
  0.12148     49.7 8.513e+03 1.627e-10
  0.16064     50.6 8.567e+03 1.773e-10
  0.19979     51.5 8.732e+03 2.022e-10
  0.23895     52.3 9.074e+03 2.462e-10
  0.26822     52.4 9.262e+03 2.713e-10
  0.28770     52.1 9.607e+03 3.208e-10
  0.30728     51.5 9.974e+03 4.177e-10
  0.32685     50.8 1.043e+04 5.935e-10
  0.34643     49.1 1.141e+04 9.581e-10
  0.36601     47.1 1.283e+04 1.722e-09
  0.37601     46.1 1.379e+04 2.773e-09
  0.38580     47.1 1.289e+04 1.852e-09
  0.40517     46.4 1.324e+04 2.269e-09
  0.42474     46.0 1.315e+04 2.213e-09
  0.44432     45.9 1.275e+04 1.847e-09
  0.46390     45.5 1.220e+04 1.290e-09
  0.48348     44.4 1.150e+04 8.207e-10
  0.50306     43.3 1.077e+04 5.374e-10
  0.52130     42.5 1.025e+04 3.910e-10
  0.53109     42.1 1.018e+04 3.711e-10
  0.55210     42.6 1.006e+04 3.214e-10
  0.59135     43.6 9.832e+03 2.956e-10
  0.63051     45.5 9.898e+03 3.051e-10
  0.66966     47.4 1.012e+04 3.441e-10
  0.69893     48.4 1.019e+04 3.864e-10
  0.70929     48.8 1.024e+04 4.082e-10
  0.71908     49.2 1.027e+04 4.274e-10
  0.73799     50.2 1.049e+04 5.162e-10
  0.75757     51.3 1.074e+04 6.286e-10
  0.77715     52.3 1.092e+04 7.380e-10
  0.79673     53.4 1.109e+04 8.398e-10
  0.81630     54.5 1.126e+04 9.187e-10
  0.83588     55.5 1.138e+04 9.488e-10
  0.85546     56.5 1.138e+04 9.412e-10
  0.87504     57.5 1.132e+04 9.009e-10
  0.89462     58.6 1.118e+04 8.157e-10
  0.91419     59.7 1.105e+04 7.165e-10
  0.93377     60.6 1.095e+04 6.300e-10
  0.95335     61.7 1.089e+04 5.667e-10
  0.97293     62.6 1.085e+04 5.233e-10
  0.99251     63.6 1.080e+04 4.874e-10
  1.01208     64.8 1.079e+04 4.700e-10
  1.03166     66.1 1.082e+04 4.720e-10
  1.04257     67.2 1.094e+04 4.857e-10
  1.05236     67.5 1.111e+04 5.652e-10
  1.06161     68.6 1.128e+04 5.979e-10
  1.07140     68.7 1.145e+04 6.796e-10
  1.09040     69.8 1.166e+04 7.405e-10
  1.10997     71.1 1.196e+04 8.635e-10
  1.12955     71.6 1.251e+04 1.117e-09
  1.14913     71.6 1.326e+04 1.580e-09
  1.16871     71.4 1.413e+04 2.516e-09
  1.18829     71.5 1.552e+04 4.794e-09
  1.20292     72.0 1.582e+04 5.841e-09
  1.20912     72.2 1.593e+04 6.204e-09
  1.21401     72.2 1.630e+04 6.943e-09
  1.22245     72.3 1.674e+04 8.352e-09
  1.23224     72.4 1.719e+04 9.982e-09
  1.24203     72.6 1.757e+04 1.129e-08
  1.25182     72.6 1.780e+04 1.179e-08
  1.26655     72.5 1.765e+04 1.079e-08
  1.28618     73.0 1.728e+04 9.477e-09
  1.30575     73.4 1.666e+04 6.657e-09
  1.32533     73.3 1.569e+04 4.179e-09
  1.34491     72.7 1.453e+04 2.730e-09
  1.36449     72.7 1.339e+04 1.819e-09
  1.37585     72.7 1.284e+04 1.495e-09
  1.38564     73.0 1.321e+04 1.837e-09
  1.40364     73.4 1.250e+04 1.297e-09
  1.42322     74.0 1.220e+04 1.085e-09
  1.44280     75.0 1.186e+04 8.903e-10
  1.46238     75.7 1.161e+04 7.703e-10
  1.48196     76.7 1.136e+04 6.576e-10
  1.50153     77.5 1.122e+04 5.895e-10
  1.52111     78.5 1.107e+04 5.319e-10
  1.54069     79.2 1.097e+04 4.932e-10
  1.56027     80.2 1.087e+04 4.638e-10
  1.57985     81.0 1.084e+04 4.524e-10
  1.59213     81.7 1.079e+04 4.421e-10
  1.60192     81.4 1.105e+04 5.509e-10
  1.61900     82.0 1.103e+04 5.517e-10
  1.63858     82.5 1.104e+04 5.678e-10
  1.65816     82.8 1.109e+04 6.031e-10
  1.67774     83.1 1.122e+04 6.668e-10
  1.69731     83.3 1.141e+04 7.451e-10
  1.70923     83.2 1.212e+04 1.070e-09
  1.71902     83.5 1.160e+04 8.242e-10
  1.73647     83.7 1.172e+04 9.039e-10
  1.76593     84.7 1.187e+04 1.015e-09
  1.80519     85.7 1.201e+04 1.079e-09
  1.84434     86.5 1.196e+04 1.010e-09
  1.88350     87.4 1.164e+04 7.856e-10
  1.92266     88.5 1.124e+04 5.660e-10
  1.96181     89.8 1.091e+04 3.994e-10
  2.00097     91.2 1.062e+04 3.248e-10
  2.04012     93.0 1.048e+04 3.171e-10
  2.07928     95.0 1.047e+04 3.176e-10
  2.11844     97.0 1.047e+04 3.214e-10
  2.15759     98.9 1.046e+04 3.252e-10
  2.19675    100.8 1.042e+04 3.230e-10
  2.23590    102.7 1.038e+04 3.121e-10
  2.27506    104.6 1.035e+04 2.972e-10
  2.31422    106.4 1.037e+04 2.848e-10
  2.35337    108.3 1.039e+04 2.825e-10
  2.37590    110.1 1.041e+04 2.857e-10
  2.39547    109.7 1.034e+04 2.592e-10
  2.43168    111.6 1.035e+04 2.567e-10
  2.47084    113.5 1.032e+04 2.570e-10
  2.51000    115.4 1.032e+04 2.602e-10
  2.54915    117.4 1.035e+04 2.692e-10
  2.58831    119.1 1.043e+04 2.966e-10
  2.62746    120.5 1.081e+04 3.740e-10
  2.65326    120.8 1.111e+04 4.643e-10
  2.66295    120.2 1.106e+04 4.685e-10
  2.67621    120.7 1.135e+04 5.978e-10
  2.69579    120.7 1.167e+04 8.037e-10
  2.70898    120.5 1.225e+04 1.193e-09
  2.71877    120.4 1.203e+04 8.888e-10
  2.73495    119.6 1.298e+04 1.470e-09
  2.75453    117.9 1.438e+04 2.739e-09
  2.77410    116.0 1.599e+04 5.529e-09
  2.79368    115.0 1.728e+04 1.022e-08
  2.81326    114.5 1.777e+04 1.296e-08
  2.83284    113.5 1.773e+04 1.275e-08
  2.85242    113.0 1.721e+04 1.077e-08
  2.87199    113.0 1.624e+04 6.867e-09
  2.89157    112.3 1.492e+04 3.439e-09
  2.91115    109.8 1.327e+04 1.601e-09
  2.93073    106.6 1.153e+04 8.829e-10
  2.95031    105.2 1.074e+04 6.880e-10
  2.96988    105.3 1.052e+04 6.325e-10
  2.98946    105.5 1.041e+04 6.022e-10
  3.00904    105.9 1.030e+04 5.659e-10
  3.02862    106.2 1.021e+04 5.291e-10
  3.04226    106.2 1.010e+04 4.816e-10
  3.05205    106.3 1.018e+04 5.348e-10
  3.06777    106.5 1.011e+04 5.110e-10
  3.08735    106.4 1.003e+04 4.660e-10
  3.10693    106.3 9.949e+03 4.228e-10
  3.12651    106.2 9.830e+03 3.712e-10
  3.14609    106.1 9.754e+03 3.457e-10
  3.17555    106.0 9.617e+03 2.900e-10
  3.21480    105.7 9.337e+03 2.238e-10
  3.25396    105.8 8.980e+03 1.719e-10
  3.29312    105.7 8.822e+03 1.452e-10
  3.33227    105.7 8.775e+03 1.405e-10
  3.37143    105.5 8.800e+03 1.436e-10
  3.41058    105.1 8.895e+03 1.565e-10
  3.44974    104.4 9.179e+03 1.951e-10
  3.48890    103.4 9.656e+03 2.699e-10
  3.51817    102.3 9.947e+03 3.328e-10
  3.53765    101.3 1.021e+04 4.250e-10
  3.55722    100.4 1.043e+04 5.489e-10
  3.57680     99.7 1.070e+04 6.827e-10
  3.60627     98.5 1.113e+04 7.743e-10
  3.64552     96.9 1.112e+04 7.590e-10
  3.68468     95.6 1.093e+04 6.437e-10
  3.70902     95.0 1.050e+04 4.496e-10
  3.71917     96.0 1.037e+04 3.768e-10
  3.73397     94.7 1.013e+04 3.225e-10
  3.76299     94.6 9.711e+03 2.335e-10
  3.80214     94.7 9.409e+03 1.877e-10
  3.84130     95.4 9.223e+03 1.715e-10
  3.88046     96.6 9.193e+03 1.712e-10
  3.91961     97.9 9.218e+03 1.751e-10
  3.95877     99.0 9.329e+03 1.930e-10
  3.99792    100.0 9.518e+03 2.330e-10
  4.03708    101.0 9.762e+03 2.996e-10
  4.07624    101.8 1.005e+04 3.927e-10
  4.11539    102.7 1.036e+04 4.908e-10
  4.15455    103.3 1.063e+04 5.406e-10
  4.19370    103.3 1.070e+04 5.175e-10
  4.23286    103.1 1.072e+04 4.501e-10
  4.27202    102.6 1.074e+04 4.223e-10
  4.31117    101.8 1.079e+04 4.443e-10
  4.35033    101.4 1.105e+04 5.699e-10
  4.37559    101.5 1.147e+04 7.918e-10
  4.39517    101.4 1.136e+04 7.199e-10
  4.42864    101.8 1.176e+04 8.852e-10
  4.46780    102.2 1.188e+04 8.972e-10
  4.50695    102.7 1.187e+04 8.590e-10
  4.54611    103.4 1.184e+04 7.978e-10
  4.58526    104.5 1.188e+04 7.989e-10
  4.61453    104.9 1.198e+04 8.241e-10
  4.63401    105.2 1.210e+04 8.748e-10
  4.65359    105.4 1.225e+04 9.773e-10
  4.67317    105.7 1.241e+04 1.125e-09
  4.69275    106.2 1.253e+04 1.297e-09
  4.70867    106.6 1.266e+04 1.457e-09
  4.71846    106.3 1.297e+04 1.679e-09
  4.73190    106.7 1.319e+04 1.943e-09
  4.75148    106.9 1.338e+04 2.104e-09
  4.77106    107.0 1.341e+04 2.107e-09
  4.78503    107.1 1.338e+04 2.057e-09
  4.79482    106.8 1.331e+04 1.976e-09
  4.82010    107.1 1.287e+04 1.631e-09
  4.85936    107.6 1.247e+04 1.380e-09
  4.89851    108.3 1.202e+04 1.113e-09
  4.93767    109.1 1.160e+04 8.677e-10
  4.97682    110.1 1.121e+04 6.629e-10
  5.01598    111.2 1.082e+04 5.189e-10
  5.04215    112.4 1.049e+04 4.329e-10
  5.06173    111.9 1.054e+04 3.857e-10
  5.09429    113.4 1.013e+04 3.624e-10
  5.13345    115.0 1.010e+04 3.644e-10
  5.17260    116.7 1.009e+04 3.770e-10
  5.21176    118.2 1.015e+04 4.112e-10
  5.25092    119.6 1.026e+04 4.601e-10
  5.28019    120.0 1.020e+04 4.678e-10
  5.29967    120.3 1.018e+04 4.808e-10
  5.31554    120.6 1.018e+04 5.005e-10
  5.32533    120.5 1.049e+04 5.982e-10
  5.33882    120.6 1.049e+04 6.175e-10
  5.35840    120.5 1.045e+04 6.277e-10
  5.37524    120.5 1.042e+04 6.262e-10
  5.38503    120.8 1.024e+04 5.426e-10
  5.39756    120.7 1.022e+04 5.498e-10
  5.41713    120.6 1.021e+04 5.577e-10
  5.43671    120.5 1.022e+04 5.703e-10
  5.45629    120.4 1.028e+04 5.976e-10
  5.47587    120.0 1.044e+04 6.585e-10
  5.49545    119.4 1.076e+04 7.780e-10
  5.51502    118.9 1.122e+04 9.906e-10
  5.53460    118.5 1.170e+04 1.302e-09
  5.55418    118.0 1.195e+04 1.472e-09
  5.57376    117.3 1.193e+04 1.445e-09
  5.59334    116.5 1.194e+04 1.388e-09
  5.61291    114.7 1.222e+04 1.452e-09
  5.63249    108.4 1.408e+04 2.033e-09
  5.65207     99.7 1.699e+04 4.891e-09
  5.67165     93.1 1.797e+04 8.587e-09
  5.69123     88.2 1.792e+04 8.561e-09
  5.70852     83.8 1.754e+04 6.099e-09
  5.71831     84.1 1.748e+04 6.082e-09
  5.73038     77.8 1.644e+04 2.526e-09
  5.74996     68.2 1.310e+04 1.039e-09
  5.76954     61.8 1.068e+04 8.963e-10
  5.78912     60.5 1.069e+04 9.387e-10
  5.80869     60.0 1.094e+04 1.078e-09
  5.82827     59.5 1.107e+04 1.142e-09
  5.84606     58.9 1.102e+04 1.120e-09
  5.85595     58.8 1.038e+04 8.475e-10
  5.87741     58.7 9.872e+03 6.485e-10
  5.91657     58.8 9.137e+03 4.019e-10
  5.95572     59.1 8.351e+03 2.138e-10
  5.99488     59.4 7.626e+03 1.008e-10
  6.03404     59.5 7.098e+03 5.588e-11
  6.07319     60.4 7.022e+03 5.221e-11
  6.11235     61.9 7.032e+03 5.411e-11
  6.15150     63.4 7.120e+03 6.405e-11
  6.19066     64.9 7.369e+03 8.860e-11
  6.22982     66.5 7.710e+03 1.274e-10
  6.26897     67.8 8.071e+03 1.774e-10
  6.30813     68.9 8.388e+03 2.327e-10
  6.34728     69.8 8.636e+03 2.895e-10
  6.37528     70.6 8.842e+03 3.415e-10
  6.39486     69.9 8.887e+03 3.438e-10
  6.42560     70.6 8.958e+03 3.547e-10
  6.46475     71.2 8.901e+03 3.405e-10
  6.50391     72.0 8.730e+03 2.878e-10
  6.54306     72.7 8.499e+03 2.160e-10
  6.58222     73.3 8.305e+03 1.660e-10
  6.62138     73.9 8.219e+03 1.539e-10
  6.66053     74.6 8.211e+03 1.542e-10
  6.69969     75.6 8.201e+03 1.571e-10
  6.73885     76.7 8.212e+03 1.605e-10
  6.77800     77.7 8.234e+03 1.610e-10
  6.81716     78.8 8.256e+03 1.610e-10
  6.85631     79.8 8.300e+03 1.636e-10
  6.89547     80.7 8.432e+03 1.810e-10
  6.91708     81.7 8.699e+03 2.320e-10
  6.93666     81.9 8.608e+03 2.133e-10
  6.97378     83.1 8.930e+03 2.920e-10
  7.01294     84.6 9.418e+03 4.173e-10
  7.04174     85.1 9.628e+03 4.900e-10
  7.06132     85.4 9.672e+03 4.834e-10
  7.09125     86.2 1.014e+04 6.292e-10
  7.12052     86.1 1.049e+04 7.776e-10
  7.14000     86.3 1.076e+04 9.034e-10
  7.15958     86.6 1.104e+04 1.010e-09
  7.17915     86.7 1.125e+04 1.060e-09
  7.19873     86.8 1.127e+04 1.056e-09
  7.21831     86.9 1.127e+04 1.026e-09
  7.23789     87.0 1.119e+04 9.499e-10
  7.25747     87.1 1.107e+04 8.531e-10
  7.27704     87.1 1.097e+04 7.689e-10
  7.29662     86.9 1.091e+04 7.265e-10
  7.31620     86.7 1.089e+04 7.271e-10
  7.33578     86.7 1.093e+04 7.518e-10
  7.35536     86.8 1.113e+04 8.488e-10
  7.37493     87.0 1.128e+04 9.229e-10
  7.40439     87.0 1.163e+04 1.071e-09
  7.44365     87.0 1.181e+04 1.117e-09
  7.48281     87.5 1.173e+04 1.054e-09
  7.52197     88.1 1.166e+04 9.642e-10
  7.56112     88.9 1.168e+04 9.084e-10
  7.60028     90.0 1.174e+04 9.224e-10
  7.63943     91.5 1.196e+04 1.007e-09
  7.67859     93.3 1.244e+04 1.171e-09
  7.70786     94.1 1.267e+04 1.300e-09
  7.71800     94.8 1.292e+04 1.432e-09
  7.72789     93.3 1.261e+04 1.187e-09
  7.75690     94.9 1.309e+04 1.495e-09
  7.78617     95.8 1.347e+04 1.792e-09
  7.80565     96.5 1.373e+04 2.097e-09
  7.82523     97.3 1.398e+04 2.486e-09
  7.84481     97.9 1.424e+04 2.954e-09
  7.86439     98.7 1.453e+04 3.490e-09
  7.88396     99.4 1.484e+04 3.989e-09
  7.90354     99.9 1.504e+04 4.179e-09
  7.92312    100.3 1.503e+04 4.114e-09
  7.94270    100.7 1.486e+04 3.796e-09
  7.96228    101.2 1.453e+04 3.220e-09
  7.97792    101.8 1.413e+04 2.588e-09
  7.98771    102.1 1.383e+04 2.046e-09
  8.00143    102.4 1.354e+04 1.645e-09
  8.02101    102.8 1.324e+04 1.320e-09
  8.04059    103.0 1.310e+04 1.190e-09
  8.05128    103.5 1.282e+04 1.081e-09
  8.06107    102.7 1.246e+04 1.013e-09
  8.07974    103.4 1.226e+04 9.668e-10
  8.09932    104.3 1.211e+04 9.417e-10
  8.11890    105.0 1.206e+04 9.352e-10
  8.13848    105.9 1.204e+04 9.181e-10
  8.15806    106.8 1.200e+04 9.008e-10
  8.17763    107.6 1.194e+04 8.776e-10
  8.19721    108.4 1.189e+04 8.570e-10
  8.21679    109.2 1.181e+04 8.349e-10
  8.23637    110.0 1.170e+04 8.019e-10
  8.25595    110.9 1.159e+04 7.573e-10
  8.27552    111.8 1.149e+04 7.043e-10
  8.29510    112.7 1.140e+04 6.521e-10
  8.31468    113.6 1.134e+04 6.080e-10
  8.33426    114.5 1.129e+04 5.712e-10
  8.35384    115.4 1.121e+04 5.415e-10
  8.37341    116.4 1.113e+04 5.204e-10
  8.38456    117.4 1.104e+04 5.102e-10
  8.39435    117.0 1.104e+04 5.039e-10
  8.41257    118.0 1.096e+04 4.936e-10
  8.43215    119.2 1.092e+04 4.947e-10
  8.45173    120.3 1.091e+04 4.985e-10
  8.47130    121.5 1.091e+04 5.080e-10
  8.49088    122.7 1.095e+04 5.241e-10
  8.50844    123.9 1.103e+04 5.470e-10
  8.51823    124.0 1.103e+04 5.616e-10
  8.53004    125.1 1.113e+04 5.868e-10
  8.54962    126.3 1.123e+04 6.124e-10
  8.56919    127.5 1.134e+04 6.372e-10
  8.58877    128.6 1.145e+04 6.609e-10
  8.60835    129.7 1.154e+04 6.872e-10
  8.62793    130.8 1.166e+04 7.245e-10
  8.64751    131.8 1.180e+04 7.789e-10
  8.66708    132.7 1.199e+04 8.552e-10
  8.68666    133.5 1.226e+04 9.637e-10
  8.70624    134.4 1.256e+04 1.112e-09
  8.71785    135.3 1.287e+04 1.291e-09
  8.72763    135.2 1.195e+04 1.008e-09
  8.74540    136.2 1.218e+04 1.113e-09
  8.76497    137.3 1.239e+04 1.216e-09
  8.78455    138.5 1.255e+04 1.312e-09
  8.80413    139.8 1.267e+04 1.405e-09
  8.82371    141.0 1.280e+04 1.499e-09
  8.84329    142.2 1.293e+04 1.599e-09
  8.86286    143.4 1.312e+04 1.714e-09
  8.88244    144.7 1.337e+04 1.837e-09
  8.90202    145.9 1.360e+04 1.916e-09
  8.92160    146.9 1.365e+04 1.909e-09
  8.94118    147.6 1.361e+04 1.847e-09
  8.96075    148.3 1.341e+04 1.720e-09
  8.98033    148.8 1.303e+04 1.551e-09
  8.99991    149.3 1.255e+04 1.378e-09
  9.01949    150.0 1.214e+04 1.230e-09
  9.03896    150.9 1.187e+04 1.107e-09
  9.04875    150.7 1.150e+04 8.772e-10
  9.05113    152.0 1.151e+04 8.797e-10
  9.06092    151.8 1.188e+04 1.131e-09
  9.07822    153.1 1.213e+04 1.236e-09
  9.09780    154.2 1.254e+04 1.427e-09
  9.11738    155.3 1.326e+04 1.777e-09
  9.13696    156.3 1.441e+04 2.384e-09
  9.15653    157.1 1.576e+04 3.165e-09
  9.17117    157.6 1.650e+04 3.525e-09
  9.18091    158.0 1.705e+04 3.716e-09
  9.19070    158.0 1.793e+04 4.188e-09
  9.20049    158.0 1.911e+04 5.172e-09
  9.21028    158.0 2.043e+04 6.769e-09
  9.21767    158.2 2.160e+04 8.917e-09
  9.22256    158.4 2.075e+04 1.377e-08
  9.22985    159.0 2.113e+04 1.718e-08
  9.23964    159.6 2.142e+04 2.118e-08
  9.24943    160.2 2.174e+04 2.579e-08
  9.25922    160.7 2.216e+04 3.129e-08
  9.26901    161.1 2.258e+04 3.835e-08
  9.27880    161.3 2.299e+04 4.650e-08
  9.28859    161.3 2.332e+04 5.687e-08
  9.29838    161.2 2.352e+04 7.360e-08
  9.30817    161.1 2.331e+04 1.037e-07
  9.31391    161.2 2.288e+04 1.484e-07
  9.31633    161.7 2.236e+04 2.293e-07
  9.32035    161.5 2.234e+04 2.404e-07
  9.32525    161.4 2.229e+04 2.677e-07
  9.33014    161.4 2.217e+04 2.995e-07
  9.33504    161.6 2.196e+04 3.486e-07
  9.33993    162.1 2.158e+04 4.312e-07
  9.34483    163.0 2.121e+04 5.702e-07
  9.34972    164.2 2.088e+04 8.011e-07
  9.35461    164.9 2.060e+04 1.134e-06
  9.35951    164.9 2.044e+04 1.508e-06
  9.36440    164.3 2.059e+04 1.772e-06
  9.36930    161.7 2.077e+04 1.765e-06
  9.37419    158.9 2.098e+04 1.575e-06
  9.37909    157.2 2.134e+04 1.251e-06
  9.38429    156.3 2.206e+04 6.657e-07
  9.38918    155.9 2.054e+04 1.886e-06
  9.39377    155.5 2.126e+04 1.252e-06
  9.39866    155.2 2.172e+04 9.581e-07
  9.40603    154.5 2.225e+04 7.493e-07
  9.41584    153.7 2.407e+04 3.185e-07
  9.42563    152.8 2.609e+04 1.197e-07
  9.43542    151.2 2.699e+04 4.661e-08
  9.44521    149.4 2.498e+04 2.362e-08
  9.45500    148.0 2.121e+04 1.700e-08
  9.46479    147.5 1.891e+04 1.494e-08
  9.47458    147.5 1.840e+04 1.342e-08
  9.48437    147.7 1.845e+04 1.206e-08
  9.49416    148.0 1.845e+04 1.100e-08
  9.50395    148.2 1.848e+04 1.014e-08
  9.51373    148.1 1.886e+04 9.454e-09
  9.52352    148.0 1.900e+04 9.368e-09
  9.53331    147.7 1.931e+04 9.333e-09
  9.54310    147.5 1.966e+04 9.401e-09
  9.55095    147.4 2.000e+04 9.583e-09
  9.55585    147.9 1.956e+04 1.388e-08
  9.56268    147.9 1.993e+04 1.473e-08
  9.57247    148.0 2.026e+04 1.564e-08
  9.57917    148.1 2.051e+04 1.645e-08
  9.58406    147.7 2.057e+04 1.935e-08
  9.59205    148.2 2.049e+04 1.931e-08
  9.60184    148.8 2.043e+04 1.917e-08
  9.61162    149.5 2.044e+04 1.896e-08
  9.62141    150.1 2.049e+04 1.864e-08
  9.63120    151.0 2.053e+04 1.813e-08
  9.64593    151.6 1.998e+04 1.408e-08
  9.66556    152.8 1.996e+04 1.291e-08
  9.68514    153.7 1.988e+04 1.097e-08
  9.70472    154.5 1.963e+04 8.069e-09
  9.71769    154.8 1.901e+04 4.952e-09
  9.72748    154.7 2.178e+04 1.358e-08
  9.74387    155.4 2.094e+04 8.114e-09
  9.76345    155.5 1.923e+04 4.182e-09
  9.78303    155.1 1.635e+04 2.021e-09
  9.80261    154.3 1.276e+04 1.102e-09
  9.82219    154.7 1.132e+04 7.716e-10
  9.84176    155.5 1.120e+04 6.679e-10
  9.86134    157.6 1.123e+04 6.325e-10
  9.88092    159.2 1.061e+04 5.413e-10
  9.91038    162.1 1.100e+04 6.019e-10
  9.94964    165.6 1.029e+04 5.040e-10
  9.98879    169.1 9.915e+03 4.349e-10
 10.02795    172.6 9.695e+03 3.780e-10
 10.06711    175.9 9.508e+03 3.239e-10
 10.10019    179.1 9.469e+03 2.919e-10
 10.11977    178.2 9.412e+03 2.814e-10
 10.14542    181.3 9.444e+03 2.874e-10
 10.18457    184.5 9.568e+03 3.067e-10
 10.22373    186.6 9.745e+03 3.414e-10
 10.25300    187.7 9.732e+03 3.542e-10
 10.27248    188.8 9.841e+03 3.910e-10
 10.29206    189.8 1.009e+04 4.651e-10
 10.31164    190.7 1.037e+04 5.686e-10
 10.33121    191.6 1.068e+04 6.938e-10
 10.35079    192.4 1.100e+04 8.335e-10
 10.37037    193.0 1.133e+04 9.805e-10
 10.38425    193.5 1.161e+04 1.122e-09
 10.39404    193.6 1.095e+04 8.328e-10
 10.40953    194.0 1.124e+04 9.721e-10
 10.42910    194.4 1.150e+04 1.118e-09
 10.44868    194.7 1.173e+04 1.248e-09
 10.46826    195.1 1.189e+04 1.363e-09
 10.48784    195.6 1.200e+04 1.445e-09
 10.50742    196.0 1.208e+04 1.486e-09
 10.52699    196.4 1.216e+04 1.510e-09
 10.54657    196.5 1.226e+04 1.545e-09
 10.56615    196.4 1.241e+04 1.604e-09
 10.58573    196.2 1.264e+04 1.722e-09
 10.60531    195.8 1.294e+04 1.947e-09
 10.62488    195.4 1.328e+04 2.327e-09
 10.64030    195.4 1.373e+04 2.955e-09
 10.65009    195.7 1.350e+04 2.400e-09
 10.66404    195.7 1.396e+04 3.158e-09
 10.68362    195.9 1.450e+04 4.221e-09
 10.70320    196.5 1.513e+04 5.573e-09
 10.71754    196.8 1.587e+04 6.843e-09
 10.72733    195.4 1.613e+04 6.866e-09
 10.74235    195.2 1.663e+04 7.172e-09
 10.76193    194.7 1.694e+04 7.148e-09
 10.78151    194.2 1.712e+04 7.190e-09
 10.80109    193.3 1.735e+04 7.364e-09
 10.82066    191.9 1.757e+04 7.887e-09
 10.84024    190.0 1.803e+04 9.998e-09
 10.85488    188.9 1.831e+04 1.187e-08
 10.86462    188.2 1.859e+04 1.399e-08
 10.87441    187.7 1.886e+04 1.708e-08
 10.88408    187.5 1.927e+04 2.196e-08
 10.88897    187.3 1.931e+04 2.128e-08
 10.89398    187.1 1.973e+04 2.591e-08
 10.90377    186.7 2.030e+04 2.881e-08
 10.91036    185.8 2.046e+04 2.839e-08
 10.91525    186.2 1.970e+04 2.125e-08
 10.92335    185.1 1.986e+04 2.100e-08
 10.93808    183.2 2.028e+04 2.265e-08
 10.95771    180.3 2.009e+04 1.718e-08
 10.97729    176.5 1.961e+04 1.221e-08
 10.99687    172.1 1.856e+04 9.205e-09
 11.01644    168.0 1.727e+04 7.674e-09
 11.03602    164.8 1.627e+04 6.593e-09
 11.05082    162.7 1.562e+04 5.346e-09
 11.06061    161.5 1.497e+04 3.901e-09
 11.07518    160.0 1.444e+04 2.923e-09
 11.09476    158.7 1.365e+04 2.034e-09
 11.12422    155.3 1.215e+04 1.038e-09
 11.16123    152.4 1.097e+04 6.680e-10
 11.18080    154.6 1.170e+04 8.228e-10
 11.20263    151.6 1.078e+04 6.275e-10
 11.24179    149.2 1.064e+04 6.242e-10
 11.28094    147.2 1.063e+04 6.376e-10
 11.32010    145.5 1.067e+04 6.638e-10
 11.35925    144.0 1.066e+04 6.603e-10
 11.39841    143.1 1.050e+04 6.142e-10
 11.43757    143.2 1.017e+04 5.106e-10
 11.47672    143.3 9.788e+03 3.940e-10
 11.51588    143.6 9.416e+03 2.992e-10
 11.55503    143.9 9.102e+03 2.327e-10
 11.59419    144.5 8.857e+03 1.899e-10
 11.63335    145.3 8.701e+03 1.657e-10
 11.67250    146.3 8.693e+03 1.615e-10
 11.70779    147.5 8.729e+03 1.644e-10
 11.72737    148.4 9.014e+03 2.127e-10
 11.75081    149.3 9.167e+03 2.305e-10
 11.78997    150.1 9.257e+03 2.383e-10
 11.82913    150.9 9.260e+03 2.368e-10
 11.86828    152.1 9.233e+03 2.265e-10
 11.90744    153.4 9.142e+03 2.030e-10
 11.94659    155.0 9.011e+03 1.737e-10
 11.98575    156.7 8.889e+03 1.488e-10
 12.02491    158.6 8.907e+03 1.402e-10
 12.06406    160.8 8.927e+03 1.408e-10
 12.10322    163.1 8.999e+03 1.443e-10
 12.14237    165.4 9.240e+03 1.582e-10
 12.18153    168.0 9.641e+03 1.813e-10
 12.21080    169.0 9.774e+03 1.941e-10
 12.23028    170.0 9.858e+03 2.011e-10
 12.24165    171.1 9.912e+03 2.066e-10
 12.25143    172.7 9.967e+03 2.042e-10
 12.26944    173.6 1.008e+04 2.128e-10
 12.28901    174.0 1.025e+04 2.333e-10
 12.30859    173.4 1.084e+04 3.260e-10
 12.32817    171.3 1.307e+04 7.318e-10
 12.34775    168.4 1.641e+04 2.043e-09
 12.36733    166.1 1.879e+04 5.223e-09
 12.38395    164.4 2.045e+04 1.017e-08
 12.39373    160.7 2.110e+04 1.314e-08
 12.40648    158.4 2.226e+04 1.344e-08
 12.42606    155.1 2.268e+04 1.142e-08
 12.44564    150.3 2.314e+04 6.273e-09
 12.46522    142.9 2.161e+04 2.647e-09
 12.48479    133.8 1.707e+04 1.719e-09
 12.50437    126.4 1.632e+04 1.822e-09
 12.52395    119.6 1.751e+04 2.448e-09
 12.54353    112.7 1.944e+04 3.558e-09
 12.56311    105.9 2.001e+04 4.531e-09
 12.58268     99.3 2.041e+04 3.985e-09
 12.60226     90.9 2.121e+04 2.914e-09
 12.62184     77.9 2.134e+04 1.852e-09
 12.64142     62.2 1.891e+04 1.287e-09
 12.66100     49.5 1.577e+04 1.107e-09
 12.68057     41.4 1.462e+04 1.003e-09
 12.70015     35.0 1.429e+04 8.099e-10
 12.71723     27.2 1.480e+04 7.621e-10
 12.72702     31.3 1.458e+04 7.940e-10
 12.73931     19.4 1.614e+04 9.686e-10
 12.75889      9.5 1.606e+04 1.442e-09
 12.77216      6.1 1.524e+04 1.887e-09
 12.78195      5.5 1.493e+04 1.699e-09
 12.79804      4.3 1.461e+04 1.597e-09
 12.81762      3.9 1.421e+04 1.202e-09
 12.83720      1.2 1.428e+04 7.601e-10
 12.85678     -4.2 1.306e+04 4.397e-10
 12.87635     -9.6 1.176e+04 3.090e-10
 12.89593    -11.6 1.132e+04 3.050e-10
 12.91551    -13.1 1.142e+04 3.673e-10
 12.93509    -14.6 1.205e+04 4.996e-10
 12.95467    -16.3 1.275e+04 7.074e-10
 12.97424    -17.2 1.329e+04 9.589e-10
 12.99382    -17.4 1.351e+04 1.141e-09
 13.01340    -17.5 1.352e+04 1.197e-09
 13.03298    -18.3 1.320e+04 1.055e-09
 13.05051    -19.6 1.284e+04 8.884e-10
 13.06030    -17.8 1.265e+04 8.099e-10
 13.07213    -19.1 1.234e+04 7.477e-10
 13.09171    -20.0 1.217e+04 7.237e-10
 13.11129    -20.9 1.190e+04 6.929e-10
 13.13087    -21.2 1.178e+04 6.814e-10
 13.15045    -21.6 1.165e+04 6.695e-10
 13.17002    -22.0 1.150e+04 6.488e-10
 13.18960    -22.6 1.127e+04 6.069e-10
 13.20918    -23.4 1.106e+04 5.738e-10
 13.22876    -24.2 1.089e+04 5.512e-10
 13.24834    -24.7 1.073e+04 5.336e-10
 13.26791    -25.0 1.061e+04 5.183e-10
 13.28749    -25.1 1.055e+04 5.058e-10
 13.30268    -25.4 1.050e+04 4.891e-10
 13.31247    -25.6 1.040e+04 4.636e-10
 13.32665    -26.1 1.039e+04 4.515e-10
 13.34623    -26.7 1.045e+04 4.531e-10
 13.36580    -27.5 1.060e+04 4.818e-10
 13.38379    -28.1 1.076e+04 5.353e-10
 13.39358    -26.7 1.078e+04 5.453e-10
 13.40496    -27.0 1.090e+04 6.024e-10
 13.42454    -27.0 1.102e+04 6.600e-10
 13.44412    -26.6 1.114e+04 7.181e-10
 13.46369    -25.9 1.120e+04 7.521e-10
 13.48327    -25.1 1.121e+04 7.546e-10
 13.50285    -24.7 1.130e+04 7.462e-10
 13.52243    -26.6 1.299e+04 8.893e-10
 13.54201    -31.3 1.656e+04 1.718e-09
 13.56158    -34.9 1.789e+04 4.041e-09
 13.58116    -35.9 1.816e+04 7.973e-09
 13.60074    -35.6 1.865e+04 1.206e-08
 13.62032    -34.5 1.924e+04 1.446e-08
 13.63990    -34.0 1.980e+04 1.382e-08
 13.65947    -34.4 1.971e+04 9.320e-09
 13.67905    -35.5 1.892e+04 5.341e-09
 13.69863    -38.2 1.661e+04 2.910e-09
 13.71707    -40.2 1.411e+04 1.810e-09
 13.72686    -36.2 1.632e+04 3.137e-09
 13.73779    -37.0 1.484e+04 2.267e-09
 13.75736    -37.4 1.356e+04 1.608e-09
 13.77694    -37.1 1.275e+04 1.213e-09
 13.79652    -36.5 1.231e+04 9.768e-10
 13.81610    -35.7 1.202e+04 8.487e-10
 13.83320    -34.5 1.182e+04 7.864e-10
 13.84299    -34.7 1.179e+04 7.673e-10
 13.85525    -33.4 1.172e+04 7.345e-10
 13.87483    -32.1 1.164e+04 7.030e-10
 13.89441    -30.8 1.159e+04 6.797e-10
 13.91399    -29.4 1.160e+04 6.757e-10
 13.93357    -28.2 1.165e+04 6.846e-10
 13.95314    -26.8 1.173e+04 7.097e-10
 13.97272    -25.4 1.205e+04 7.742e-10
 13.99230    -24.3 1.248e+04 8.823e-10
 14.01188    -23.3 1.278e+04 1.012e-09
 14.03146    -22.9 1.279e+04 1.049e-09
 14.05036    -21.0 1.292e+04 1.154e-09
 14.06014    -20.2 1.273e+04 9.955e-10
 14.07061    -19.3 1.271e+04 1.045e-09
 14.09019    -17.7 1.279e+04 1.135e-09
 14.10977    -16.4 1.276e+04 1.185e-09
 14.12935    -14.9 1.281e+04 1.256e-09
 14.14892    -13.4 1.274e+04 1.279e-09
 14.16850    -11.5 1.280e+04 1.321e-09
 14.18808    -10.0 1.269e+04 1.291e-09
 14.20766     -8.1 1.269e+04 1.286e-09
 14.22724     -6.5 1.260e+04 1.250e-09
 14.24681     -4.8 1.265e+04 1.271e-09
 14.26639     -3.2 1.281e+04 1.349e-09
 14.28597     -1.7 1.315e+04 1.526e-09
 14.30555     -0.3 1.364e+04 1.801e-09
 14.32513      1.1 1.435e+04 2.268e-09
 14.34470      2.6 1.517e+04 2.985e-09
 14.36372      4.2 1.601e+04 4.034e-09
 14.37351      5.6 1.587e+04 3.988e-09
 14.38364      7.2 1.721e+04 5.554e-09
 14.39343      7.1 1.699e+04 5.201e-09
 14.40344      8.4 1.822e+04 6.779e-09
 14.42302      9.8 1.921e+04 8.661e-09
 14.44259     11.5 2.011e+04 1.078e-08
 14.46217     13.4 2.069e+04 1.246e-08
 14.48175     15.2 2.134e+04 1.355e-08
 14.50133     16.9 2.178e+04 1.415e-08
 14.52091     18.3 2.277e+04 1.471e-08
 14.54048     18.8 2.407e+04 1.645e-08
 14.55512     19.8 2.399e+04 1.954e-08
 14.56486     17.9 2.580e+04 2.151e-08
 14.57465     17.2 2.666e+04 2.671e-08
 14.58444     16.9 2.745e+04 3.213e-08
 14.59423     16.6 2.753e+04 4.038e-08
 14.60402     16.6 2.749e+04 4.470e-08
 14.61380     16.6 2.769e+04 4.409e-08
 14.62359     16.7 2.800e+04 3.828e-08
 14.63338     16.7 2.951e+04 2.804e-08
 14.63867     16.3 3.118e+04 1.870e-08
 14.64356     12.5 3.697e+04 4.307e-09
 14.65296     11.9 4.161e+04 2.541e-09
 14.66275      8.7 4.835e+04 1.259e-09
 14.67254      6.5 5.341e+04 5.630e-10
 14.68233     -4.0 5.713e+04 1.727e-10
 14.69706    -10.5 4.727e+04 6.505e-10
 14.71669    -38.5 2.843e+04 8.070e-10
 14.72671    -60.3 2.875e+04 1.986e-09
 14.73650    -50.8 1.714e+04 1.114e-09
 14.75584    -63.0 2.424e+04 2.702e-09
 14.77542    -69.3 2.381e+04 8.861e-09
 14.79006    -71.2 2.259e+04 1.373e-08
 14.79980    -72.0 2.239e+04 1.678e-08
 14.80958    -72.7 2.224e+04 1.741e-08
 14.81937    -73.3 2.199e+04 1.758e-08
 14.83411    -73.8 2.176e+04 1.771e-08
 14.85373    -74.0 2.065e+04 1.201e-08
 14.87331    -73.7 1.941e+04 7.639e-09
 14.89289    -74.0 1.751e+04 4.212e-09
 14.90402    -74.3 1.530e+04 2.429e-09
 14.91381    -73.6 1.443e+04 1.634e-09
 14.93204    -73.7 1.272e+04 1.142e-09
 14.95162    -73.0 1.180e+04 9.225e-10
 14.97120    -71.6 1.129e+04 7.944e-10
 14.99078    -70.1 1.089e+04 6.985e-10
 15.01036    -68.5 1.057e+04 6.265e-10
 15.02993    -66.8 1.033e+04 5.723e-10
 15.04951    -65.2 1.015e+04 5.256e-10
 15.05999    -63.7 9.953e+03 4.783e-10
 15.06978    -62.5 9.980e+03 4.906e-10
 15.08867    -61.0 9.790e+03 4.445e-10
 15.10825    -59.6 9.667e+03 4.050e-10
 15.12782    -58.4 9.645e+03 3.814e-10
 15.14740    -57.5 9.640e+03 3.635e-10
 15.16698    -56.7 9.596e+03 3.520e-10
 15.19645    -54.8 9.685e+03 3.615e-10
 15.23570    -53.3 9.798e+03 3.762e-10
 15.27486    -52.2 1.016e+04 4.513e-10
 15.30412    -51.7 1.035e+04 5.215e-10
 15.32360    -51.4 1.055e+04 5.850e-10
 15.34318    -51.3 1.092e+04 7.038e-10
 15.36276    -51.3 1.120e+04 8.087e-10
 15.38234    -51.6 1.140e+04 9.070e-10
 15.39327    -51.6 1.158e+04 1.022e-09
 15.40306    -50.7 1.136e+04 8.925e-10
 15.42149    -50.7 1.145e+04 9.653e-10
 15.43454    -50.8 1.148e+04 9.742e-10
 15.44433    -50.1 1.137e+04 9.746e-10
 15.46065    -49.9 1.120e+04 8.853e-10
 15.48023    -49.9 1.099e+04 7.100e-10
 15.49981    -50.5 1.089e+04 6.033e-10
 15.51938    -51.2 1.082e+04 5.867e-10
 15.53896    -51.5 1.077e+04 5.928e-10
 15.55854    -51.6 1.076e+04 6.339e-10
 15.57812    -51.6 1.085e+04 6.943e-10
 15.59770    -51.4 1.097e+04 7.710e-10
 15.61727    -50.9 1.114e+04 8.699e-10
 15.63685    -50.4 1.131e+04 9.794e-10
 15.65643    -49.7 1.147e+04 1.080e-09
 15.67601    -49.2 1.165e+04 1.169e-09
 15.69559    -48.7 1.188e+04 1.253e-09
 15.71517    -48.4 1.207e+04 1.332e-09
 15.72655    -48.1 1.225e+04 1.408e-09
 15.73634    -46.5 1.213e+04 1.332e-09
 15.75432    -46.1 1.219e+04 1.382e-09
 15.77390    -45.5 1.219e+04 1.408e-09
 15.79348    -44.9 1.218e+04 1.410e-09
 15.81306    -44.4 1.218e+04 1.408e-09
 15.83263    -44.1 1.222e+04 1.412e-09
 15.85221    -44.5 1.265e+04 1.490e-09
 15.87179    -46.4 1.385e+04 2.002e-09
 15.89137    -48.3 1.475e+04 3.064e-09
 15.91095    -49.3 1.541e+04 4.457e-09
 15.93052    -49.7 1.581e+04 5.687e-09
 15.95010    -50.1 1.602e+04 6.171e-09
 15.96506    -50.9 1.614e+04 6.214e-09
 15.97485    -49.5 1.599e+04 5.591e-09
 15.98926    -51.3 1.595e+04 5.284e-09
 16.00884    -54.7 1.549e+04 3.967e-09
 16.02841    -59.3 1.486e+04 3.039e-09
 16.04799    -63.3 1.424e+04 2.675e-09
 16.05984    -65.7 1.365e+04 2.382e-09
 16.06962    -64.5 1.257e+04 1.629e-09
 16.08715    -66.0 1.236e+04 1.507e-09
 16.10673    -67.2 1.220e+04 1.397e-09
 16.12630    -68.7 1.206e+04 1.314e-09
 16.14588    -70.4 1.202e+04 1.289e-09
 16.16546    -72.2 1.210e+04 1.349e-09
 16.18504    -73.9 1.227e+04 1.505e-09
 16.20462    -75.3 1.263e+04 1.777e-09
 16.22419    -76.4 1.308e+04 2.168e-09
 16.24377    -77.5 1.348e+04 2.486e-09
 16.26335    -78.8 1.383e+04 2.636e-09
 16.28293    -80.4 1.402e+04 2.672e-09
 16.30251    -82.4 1.410e+04 2.607e-09
 16.32208    -84.4 1.399e+04 2.476e-09
 16.34166    -86.4 1.381e+04 2.387e-09
 16.36124    -88.1 1.373e+04 2.368e-09
 16.38082    -89.4 1.377e+04 2.421e-09
 16.39312    -90.6 1.406e+04 2.532e-09
 16.40291    -90.3 1.414e+04 2.764e-09
 16.41997    -91.6 1.438e+04 2.826e-09
 16.43955    -93.2 1.480e+04 2.932e-09
 16.45913    -94.9 1.522e+04 3.131e-09
 16.47376    -96.8 1.653e+04 3.855e-09
 16.48350    -97.7 1.695e+04 4.205e-09
 16.49329    -98.6 1.719e+04 4.587e-09
 16.50037    -99.1 1.740e+04 4.955e-09
 16.50527   -100.4 1.906e+04 7.993e-09
 16.51287   -100.5 1.897e+04 8.326e-09
 16.52266   -100.7 1.888e+04 8.539e-09
 16.53245   -100.9 1.873e+04 8.680e-09
 16.54224   -100.9 1.858e+04 8.568e-09
 16.55697   -101.1 1.828e+04 7.937e-09
 16.57660   -101.5 1.813e+04 7.504e-09
 16.59618   -102.2 1.819e+04 7.594e-09
 16.61575   -103.0 1.861e+04 8.699e-09
 16.63533   -103.5 1.935e+04 1.087e-08
 16.65491   -103.9 2.004e+04 1.344e-08
 16.67449   -104.4 2.042e+04 1.537e-08
 16.69407   -105.0 2.050e+04 1.598e-08
 16.71364   -105.3 2.019e+04 1.482e-08
 16.72640   -105.4 1.962e+04 1.208e-08
 16.73619   -104.4 1.994e+04 1.268e-08
 16.75280   -104.7 1.956e+04 1.108e-08
 16.77238   -105.1 1.902e+04 9.467e-09
 16.79196   -105.3 1.844e+04 8.101e-09
 16.81153   -105.4 1.793e+04 7.050e-09
 16.83111   -105.1 1.743e+04 6.242e-09
 16.85069   -104.7 1.675e+04 5.309e-09
 16.87027   -104.3 1.610e+04 4.560e-09
 16.88985   -103.9 1.584e+04 4.180e-09
 16.90942   -103.6 1.568e+04 3.978e-09
 16.92900   -103.1 1.565e+04 3.893e-09
 16.94858   -102.6 1.568e+04 3.890e-09
 16.96816   -102.3 1.621e+04 4.109e-09
 16.98279   -102.3 1.715e+04 4.932e-09
 16.99253   -103.1 1.798e+04 5.994e-09
 17.00232   -103.8 1.889e+04 8.035e-09
 17.01211   -104.1 1.963e+04 1.073e-08
 17.02190   -104.2 2.061e+04 1.342e-08
 17.03089   -104.3 2.199e+04 1.513e-08
 17.03579   -104.6 2.351e+04 1.466e-08
 17.04148   -106.7 2.577e+04 2.080e-08
 17.05127   -109.5 2.575e+04 4.393e-08
 17.05958   -111.8 2.417e+04 1.234e-07
 17.06448   -112.9 2.407e+04 8.688e-08
 17.07084   -114.0 2.276e+04 1.715e-07
 17.08063   -114.2 2.184e+04 2.642e-07
 17.09042   -114.1 2.155e+04 2.988e-07
 17.10021   -113.7 2.165e+04 2.785e-07
 17.11000   -113.0 2.240e+04 1.581e-07
 17.11979   -112.8 2.424e+04 5.517e-08
 17.12958   -115.6 2.644e+04 1.562e-08
 17.14431   -122.2 2.523e+04 4.744e-09
 17.16394   -126.5 1.980e+04 2.299e-09
 17.18352   -129.4 1.396e+04 1.260e-09
 17.20309   -130.1 1.135e+04 1.031e-09
 17.22267   -129.9 1.075e+04 9.353e-10
 17.24225   -129.1 1.054e+04 8.604e-10
 17.26183   -128.3 1.041e+04 7.959e-10
 17.28141   -127.4 1.027e+04 7.386e-10
 17.30098   -126.5 1.015e+04 6.804e-10
 17.32056   -125.6 9.993e+03 6.171e-10
 17.34014   -124.5 9.815e+03 5.453e-10
 17.35972   -123.3 9.664e+03 4.725e-10
 17.37930   -122.2 9.576e+03 4.144e-10
 17.39296   -121.4 9.549e+03 3.842e-10
 17.40275   -121.7 9.595e+03 3.986e-10
 17.42834   -120.5 9.527e+03 3.670e-10
 17.46759   -118.3 9.415e+03 3.274e-10
 17.50675   -115.7 9.387e+03 3.013e-10
 17.54590   -113.2 9.412e+03 2.929e-10
 17.56660   -110.5 9.451e+03 2.907e-10
 17.58618   -111.1 9.553e+03 3.102e-10
 17.62422   -108.3 9.710e+03 3.096e-10
 17.66337   -105.7 9.919e+03 3.183e-10
 17.69264   -104.1 1.009e+04 3.462e-10
 17.71212   -103.4 1.024e+04 3.813e-10
 17.72625   -102.4 1.044e+04 4.355e-10
 17.73603   -103.7 1.089e+04 5.912e-10
 17.75128   -102.8 1.112e+04 6.978e-10
 17.77086   -101.8 1.136e+04 8.220e-10
 17.79043   -100.8 1.158e+04 9.500e-10
 17.81001    -99.7 1.178e+04 1.070e-09
 17.82959    -98.7 1.194e+04 1.168e-09
 17.84917    -97.7 1.205e+04 1.233e-09
 17.86875    -96.7 1.212e+04 1.266e-09
 17.88832    -95.7 1.219e+04 1.281e-09
 17.90790    -94.7 1.227e+04 1.278e-09
 17.92748    -93.7 1.239e+04 1.268e-09
 17.94706    -92.7 1.255e+04 1.269e-09
 17.96664    -91.7 1.276e+04 1.297e-09
 17.98621    -90.7 1.305e+04 1.365e-09
 18.00579    -89.8 1.338e+04 1.494e-09
 18.02537    -89.0 1.372e+04 1.702e-09
 18.04495    -88.3 1.406e+04 2.026e-09
 18.05953    -87.5 1.439e+04 2.515e-09
 18.06932    -88.5 1.494e+04 4.057e-09
 18.08410    -87.4 1.499e+04 4.424e-09
 18.09692    -86.1 1.503e+04 4.724e-09
 18.10671    -86.1 1.550e+04 5.406e-09
 18.12326    -84.6 1.564e+04 5.857e-09
 18.14284    -82.8 1.586e+04 6.414e-09
 18.16242    -81.1 1.601e+04 6.775e-09
 18.18199    -79.7 1.613e+04 6.584e-09
 18.20157    -78.3 1.592e+04 5.645e-09
 18.22115    -76.7 1.554e+04 4.282e-09
 18.24073    -75.3 1.514e+04 3.006e-09
 18.26031    -74.3 1.475e+04 2.032e-09
 18.27988    -73.6 1.432e+04 1.362e-09
 18.29946    -73.0 1.380e+04 9.620e-10
 18.31904    -72.5 1.323e+04 7.573e-10
 18.33862    -71.9 1.254e+04 6.886e-10
 18.35820    -71.2 1.199e+04 6.894e-10
 18.37777    -70.2 1.159e+04 7.324e-10
 18.39281    -68.8 1.151e+04 7.729e-10
 18.40260    -70.1 1.137e+04 7.879e-10
 18.41693    -68.4 1.134e+04 8.080e-10
 18.43651    -66.8 1.131e+04 7.954e-10
 18.45609    -65.2 1.129e+04 7.628e-10
 18.47566    -63.7 1.127e+04 7.100e-10
 18.49524    -62.5 1.125e+04 6.483e-10
 18.51482    -61.4 1.123e+04 5.866e-10
 18.53440    -60.4 1.124e+04 5.305e-10
 18.55398    -59.6 1.127e+04 4.755e-10
 18.57355    -58.9 1.127e+04 4.108e-10
 18.60302    -58.4 1.107e+04 3.311e-10
 18.62763    -56.3 1.083e+04 2.689e-10
 18.64721    -56.6 1.097e+04 2.974e-10
 18.68143    -54.7 1.079e+04 2.322e-10
 18.72058    -53.4 1.069e+04 1.875e-10
 18.75974    -52.6 1.070e+04 1.766e-10
 18.79890    -52.6 1.083e+04 1.839e-10
 18.83805    -53.3 1.105e+04 2.236e-10
 18.86732    -54.8 1.119e+04 2.690e-10
 18.88680    -55.8 1.138e+04 3.127e-10
 18.90638    -58.4 1.154e+04 4.596e-10
 18.92596    -60.0 1.166e+04 6.258e-10
 18.94554    -61.4 1.186e+04 7.949e-10
 18.96511    -62.8 1.219e+04 9.338e-10
 18.98469    -64.7 1.257e+04 1.034e-09
 19.00427    -67.6 1.305e+04 1.098e-09
 19.02385    -71.8 1.376e+04 1.245e-09
 19.04343    -76.6 1.442e+04 1.678e-09
 19.05937    -80.7 1.499e+04 2.411e-09
 19.06916    -82.1 1.521e+04 2.963e-09
 19.08258    -84.4 1.572e+04 4.300e-09
 19.10216    -86.1 1.617e+04 5.469e-09
 19.12174    -87.9 1.665e+04 6.346e-09
 19.14132    -90.4 1.742e+04 7.218e-09
 19.15796    -94.0 1.871e+04 8.493e-09
 19.16775    -97.4 2.090e+04 1.207e-08
 19.18047   -102.3 2.260e+04 1.145e-08
 19.20005   -106.7 2.329e+04 1.218e-08
 19.21963   -109.8 2.417e+04 1.371e-08
 19.23086   -109.7 2.416e+04 2.036e-08
 19.23570   -110.1 2.429e+04 1.325e-08
 19.24400   -110.9 2.482e+04 1.263e-08
 19.25874   -112.9 2.642e+04 1.088e-08
 19.27836   -115.5 2.652e+04 6.648e-09
 19.29794   -119.5 2.372e+04 3.881e-09
 19.31752   -123.9 1.790e+04 2.775e-09
 19.33710   -126.1 1.437e+04 2.633e-09
 19.35667   -126.5 1.339e+04 2.818e-09
 19.37625   -126.6 1.370e+04 3.015e-09
 19.39265   -126.9 1.403e+04 3.239e-09
 19.40244   -125.9 1.399e+04 3.099e-09
 19.41541   -126.7 1.437e+04 3.397e-09
 19.43499   -127.9 1.467e+04 3.689e-09
 19.45456   -129.3 1.480e+04 3.871e-09
 19.47414   -130.7 1.480e+04 3.900e-09
 19.49372   -131.9 1.443e+04 3.755e-09
 19.51330   -132.7 1.384e+04 3.190e-09
 19.53288   -133.2 1.314e+04 2.425e-09
 19.55245   -133.8 1.239e+04 1.689e-09
 19.57203   -134.6 1.169e+04 1.127e-09
 19.59161   -135.6 1.102e+04 7.636e-10
 19.61119   -136.6 1.043e+04 5.479e-10
 19.63077   -137.4 9.984e+03 4.210e-10
 19.65034   -138.1 9.714e+03 3.497e-10
 19.66992   -138.8 9.671e+03 3.166e-10
 19.68847   -139.4 9.687e+03 3.096e-10
 19.70815   -140.3 9.776e+03 3.271e-10
 19.72613   -141.3 9.810e+03 3.281e-10
 19.74571   -138.5 9.196e+03 2.073e-10
 19.77780   -139.4 9.192e+03 2.068e-10
 19.81695   -140.4 9.467e+03 2.585e-10
 19.85611   -141.2 1.030e+04 4.706e-10
 19.89526   -141.6 1.093e+04 7.843e-10
 19.93442   -141.8 1.126e+04 1.036e-09
 19.97358   -142.1 1.132e+04 1.107e-09
 20.01273   -142.0 1.113e+04 1.072e-09
 20.05189   -141.5 1.059e+04 8.453e-10
 20.09104   -140.5 9.964e+03 6.019e-10
 20.13020   -139.3 9.445e+03 4.402e-10
 20.16936   -137.9 9.101e+03 3.462e-10
 20.20851   -136.5 8.866e+03 2.887e-10
 20.24767   -135.0 8.685e+03 2.435e-10
 20.28682   -133.4 8.501e+03 2.026e-10
 20.32598   -131.7 8.328e+03 1.674e-10
 20.36514   -129.9 8.204e+03 1.430e-10
 20.39270   -128.1 8.162e+03 1.333e-10
 20.41227   -128.3 8.261e+03 1.450e-10
 20.44345   -126.5 8.245e+03 1.422e-10
 20.48260   -124.9 8.249e+03 1.421e-10
 20.52176   -123.7 8.432e+03 1.644e-10
 20.56092   -122.6 8.804e+03 2.291e-10
 20.60007   -121.5 9.169e+03 3.179e-10
 20.63923   -120.6 9.478e+03 4.049e-10
 20.67838   -120.1 9.688e+03 4.572e-10
 20.71754   -119.8 9.766e+03 4.682e-10
 20.74971   -119.7 9.805e+03 4.654e-10
 20.76928   -119.3 9.733e+03 4.281e-10
 20.79585   -119.3 9.751e+03 4.125e-10
 20.83501   -119.3 9.808e+03 4.144e-10
 20.87416   -119.4 9.986e+03 4.242e-10
 20.91332   -120.1 1.091e+04 5.280e-10
 20.95248   -120.9 1.190e+04 9.044e-10
 20.98175   -121.5 1.228e+04 1.283e-09
 21.00123   -121.5 1.268e+04 1.699e-09
 21.02080   -121.4 1.313e+04 2.196e-09
 21.04038   -121.3 1.360e+04 2.706e-09
 21.05906   -121.2 1.391e+04 3.036e-09
 21.06885   -121.1 1.335e+04 2.518e-09
 21.07954   -121.0 1.351e+04 2.738e-09
 21.09912   -120.9 1.358e+04 2.799e-09
 21.11869   -120.6 1.349e+04 2.685e-09
 21.13827   -120.2 1.334e+04 2.499e-09
 21.15785   -119.8 1.320e+04 2.287e-09
 21.17743   -119.3 1.303e+04 2.068e-09
 21.19701   -118.6 1.288e+04 1.884e-09
 21.22647   -117.8 1.279e+04 1.734e-09
 21.26572   -116.5 1.247e+04 1.471e-09
 21.30488   -115.3 1.219e+04 1.263e-09
 21.34404   -113.8 1.202e+04 1.119e-09
 21.38319   -112.4 1.194e+04 1.010e-09
 21.42235   -111.1 1.188e+04 9.416e-10
 21.46150   -110.2 1.180e+04 8.727e-10
 21.50066   -109.5 1.177e+04 8.239e-10
 21.53982   -108.9 1.178e+04 8.037e-10
 21.56909   -108.6 1.173e+04 7.757e-10
 21.58857   -108.6 1.179e+04 8.111e-10
 21.60814   -108.7 1.188e+04 8.598e-10
 21.62772   -108.8 1.198e+04 9.182e-10
 21.65719   -109.1 1.216e+04 9.913e-10
 21.69644   -109.8 1.260e+04 1.210e-09
 21.72571   -110.9 1.296e+04 1.475e-09
 21.74519   -112.4 1.356e+04 2.081e-09
 21.76477   -113.3 1.363e+04 2.258e-09
 21.78435   -114.3 1.362e+04 2.306e-09
 21.80392   -115.1 1.340e+04 2.178e-09
 21.82034   -115.8 1.306e+04 1.860e-09
 21.83012   -116.1 1.316e+04 1.891e-09
 21.84308   -116.9 1.282e+04 1.621e-09
 21.86266   -117.7 1.248e+04 1.353e-09
 21.88224   -118.4 1.214e+04 1.154e-09
 21.90181   -118.9 1.186e+04 1.027e-09
 21.92139   -119.1 1.170e+04 9.461e-10
 21.94097   -119.2 1.156e+04 8.958e-10
 21.96055   -119.0 1.143e+04 8.520e-10
 21.98013   -118.7 1.133e+04 8.009e-10
 21.99970   -118.4 1.127e+04 7.411e-10
 22.01928   -118.2 1.125e+04 6.830e-10
 22.03886   -118.3 1.126e+04 6.461e-10
 22.05844   -118.3 1.127e+04 6.381e-10
 22.06870   -118.9 1.139e+04 6.460e-10
 22.07849   -120.4 1.134e+04 5.671e-10
 22.09759   -121.3 1.172e+04 6.984e-10
 22.11717   -121.9 1.208e+04 9.612e-10
 22.13675   -122.3 1.244e+04 1.253e-09
 22.15633   -122.8 1.273e+04 1.467e-09
 22.17591   -123.6 1.279e+04 1.534e-09
 22.19548   -124.5 1.265e+04 1.516e-09
 22.21506   -125.1 1.216e+04 1.280e-09
 22.23464   -125.6 1.160e+04 9.881e-10
 22.25422   -126.1 1.110e+04 7.593e-10
 22.27380   -126.3 1.073e+04 6.020e-10
 22.29337   -126.5 1.044e+04 4.808e-10
 22.31295   -126.5 1.024e+04 3.957e-10
 22.33253   -126.6 1.012e+04 3.375e-10
 22.35085   -126.6 1.012e+04 3.109e-10
 22.36064   -126.2 1.012e+04 3.313e-10
 22.37169   -126.3 1.013e+04 3.124e-10
 22.39126   -126.3 1.013e+04 3.103e-10
 22.40198   -126.5 1.021e+04 3.122e-10
 22.41187   -126.2 1.018e+04 3.082e-10
 22.44041   -127.1 1.067e+04 3.870e-10
 22.46967   -127.9 1.126e+04 6.367e-10
 22.48915   -128.2 1.178e+04 8.940e-10
 22.50873   -128.5 1.225e+04 1.143e-09
 22.52831   -129.0 1.254e+04 1.316e-09
 22.54789   -129.6 1.260e+04 1.365e-09
 22.56747   -130.2 1.257e+04 1.365e-09
 22.58704   -130.5 1.234e+04 1.265e-09
 22.60662   -130.6 1.208e+04 1.107e-09
 22.62620   -130.6 1.185e+04 9.557e-10
 22.64578   -130.6 1.165e+04 8.215e-10
 22.66536   -130.5 1.144e+04 7.033e-10
 22.68493   -130.2 1.126e+04 6.034e-10
 22.70451   -129.9 1.110e+04 5.244e-10
 22.72409   -129.5 1.098e+04 4.655e-10
 22.73526   -129.1 1.091e+04 4.261e-10
 22.74505   -128.8 1.097e+04 4.289e-10
 22.76325   -128.2 1.096e+04 4.092e-10
 22.78282   -127.6 1.098e+04 4.047e-10
 22.80240   -127.1 1.099e+04 4.047e-10
 22.82198   -126.6 1.116e+04 4.143e-10
 22.84156   -126.1 1.133e+04 4.555e-10
 22.86114   -125.6 1.150e+04 5.166e-10
 22.88071   -125.0 1.168e+04 5.899e-10
 22.89116   -124.3 1.184e+04 6.677e-10
 22.90095   -123.9 1.201e+04 7.304e-10
 22.91987   -123.2 1.221e+04 8.162e-10
 22.93945   -122.5 1.238e+04 8.936e-10
 22.95903   -121.9 1.249e+04 9.587e-10
 22.97860   -121.3 1.255e+04 1.012e-09
 22.99818   -120.7 1.257e+04 1.058e-09
 23.01776   -120.0 1.257e+04 1.101e-09
 23.03734   -119.3 1.256e+04 1.143e-09
 23.05692   -118.5 1.255e+04 1.181e-09
 23.06854   -117.6 1.255e+04 1.213e-09
 23.07833   -117.6 1.258e+04 1.205e-09
 23.09607   -116.8 1.252e+04 1.185e-09
 23.11565   -115.9 1.249e+04 1.177e-09
 23.13523   -114.9 1.249e+04 1.182e-09
 23.15481   -114.0 1.253e+04 1.194e-09
 23.17438   -113.0 1.257e+04 1.203e-09
 23.19396   -112.0 1.260e+04 1.205e-09
 23.21354   -110.9 1.262e+04 1.192e-09
 23.23312   -109.9 1.262e+04 1.163e-09
 23.25270   -108.8 1.261e+04 1.113e-09
 23.27227   -107.7 1.258e+04 1.045e-09
 23.29185   -106.5 1.255e+04 9.621e-10
 23.31143   -105.2 1.252e+04 8.689e-10
 23.33101   -104.0 1.250e+04 7.704e-10
 23.35059   -102.8 1.244e+04 6.838e-10
 23.37016   -101.6 1.235e+04 6.381e-10
 23.38974   -100.8 1.230e+04 6.326e-10
 23.40183    -99.3 1.223e+04 6.489e-10
 23.41161    -99.3 1.200e+04 4.848e-10
 23.42168    -98.2 1.194e+04 4.891e-10
 23.43147    -98.4 1.200e+04 5.327e-10
 23.44848    -96.9 1.195e+04 5.367e-10
 23.46805    -95.3 1.190e+04 5.371e-10
 23.48763    -93.4 1.186e+04 5.327e-10
 23.50721    -91.5 1.184e+04 5.308e-10
 23.52679    -90.4 1.196e+04 5.421e-10
 23.54637    -91.5 1.366e+04 6.183e-10
 23.56595   -100.0 2.543e+04 1.278e-09
 23.58058   -106.2 2.784e+04 4.997e-09
 23.59032   -108.3 2.692e+04 1.284e-08
 23.60011   -109.6 2.485e+04 4.670e-08
 23.60990   -109.5 2.306e+04 1.435e-07
 23.61969   -109.4 2.205e+04 2.865e-07
 23.62948   -109.7 2.183e+04 3.956e-07
 23.63926   -110.5 2.177e+04 4.303e-07
 23.64905   -111.4 2.183e+04 3.973e-07
 23.65884   -112.3 2.227e+04 2.289e-07
 23.66863   -113.1 2.271e+04 1.130e-07
 23.67842   -113.9 2.321e+04 5.547e-08
 23.68684   -115.3 2.362e+04 3.022e-08
 23.69173   -116.7 2.368e+04 2.175e-08
 23.69800   -118.3 2.233e+04 1.513e-08
 23.70779   -118.9 2.128e+04 1.344e-08
 23.72252   -118.6 2.084e+04 1.327e-08
 23.73511   -118.4 2.011e+04 1.058e-08
 23.74490   -119.7 1.886e+04 6.274e-09
 23.76173   -118.9 1.845e+04 5.945e-09
 23.78130   -118.5 1.834e+04 5.978e-09
 23.80088   -118.3 1.835e+04 7.153e-09
 23.82046   -117.9 1.864e+04 8.819e-09
 23.84004   -117.6 1.904e+04 1.075e-08
 23.85962   -117.2 1.904e+04 1.242e-08
 23.87919   -116.9 1.896e+04 1.301e-08
 23.89877   -116.7 1.870e+04 1.301e-08
 23.91835   -116.4 1.811e+04 1.225e-08
 23.93793   -116.0 1.746e+04 1.123e-08
 23.95220   -115.6 1.684e+04 1.031e-08
 23.96199   -115.8 1.712e+04 1.230e-08
 23.97708   -114.8 1.654e+04 1.049e-08
 23.99666   -113.8 1.609e+04 8.963e-09
 24.01624   -112.8 1.572e+04 7.528e-09
 24.03582   -111.6 1.540e+04 6.175e-09
 24.05540   -110.5 1.518e+04 4.966e-09
 24.06839   -109.5 1.512e+04 3.937e-09
 24.07818   -110.1 1.488e+04 4.407e-09
 24.09455   -109.3 1.482e+04 4.275e-09
 24.11413   -108.5 1.489e+04 4.275e-09
 24.13371   -107.5 1.527e+04 4.494e-09
 24.15329   -106.6 1.567e+04 4.469e-09
 24.17286   -105.7 1.593e+04 4.237e-09
 24.19244   -104.9 1.612e+04 3.947e-09
 24.21202   -104.2 1.622e+04 3.613e-09
 24.23160   -103.7 1.619e+04 3.291e-09
 24.25118   -103.2 1.604e+04 3.042e-09
 24.27075   -102.7 1.581e+04 2.891e-09
 24.29033   -102.1 1.555e+04 2.818e-09
 24.30991   -101.4 1.529e+04 2.795e-09
 24.32949   -100.5 1.509e+04 2.772e-09
 24.34907    -99.5 1.487e+04 2.699e-09
 24.36864    -98.5 1.454e+04 2.546e-09
 24.38822    -97.5 1.436e+04 2.340e-09
 24.40167    -96.7 1.410e+04 2.106e-09
 24.41146    -96.2 1.514e+04 4.262e-09
 24.42738    -95.5 1.481e+04 3.532e-09
 24.44696    -94.8 1.448e+04 2.893e-09
 24.46653    -94.2 1.418e+04 2.380e-09
 24.48271    -93.7 1.391e+04 1.990e-09
 24.49250    -93.5 1.324e+04 1.654e-09
 24.50569    -92.8 1.307e+04 1.467e-09
 24.52527    -92.0 1.295e+04 1.317e-09
 24.54485    -91.3 1.287e+04 1.193e-09
 24.56442    -90.6 1.283e+04 1.105e-09
 24.58400    -90.2 1.276e+04 1.033e-09
 24.60358    -89.9 1.265e+04 9.698e-10
 24.62316    -89.7 1.250e+04 9.052e-10
 24.64274    -89.4 1.234e+04 8.426e-10
 24.66231    -89.0 1.212e+04 7.726e-10
 24.68189    -88.8 1.196e+04 7.161e-10
 24.70147    -88.6 1.175e+04 6.500e-10
 24.72105    -88.4 1.161e+04 6.032e-10
 24.73495    -88.2 1.143e+04 5.453e-10
 24.74474    -87.8 1.150e+04 5.732e-10
 24.76020    -87.7 1.138e+04 5.173e-10
 24.77978    -87.6 1.128e+04 4.747e-10
 24.79936    -87.5 1.126e+04 4.557e-10
 24.81894    -87.4 1.126e+04 4.521e-10
 24.83852    -87.5 1.128e+04 4.656e-10
 24.85809    -87.6 1.135e+04 5.244e-10
 24.87767    -87.5 1.141e+04 6.130e-10
 24.89725    -87.2 1.152e+04 7.052e-10
 24.91683    -86.9 1.166e+04 7.870e-10
 24.93641    -86.6 1.181e+04 8.444e-10
 24.95598    -86.5 1.196e+04 8.825e-10
 24.97556    -86.5 1.216e+04 9.248e-10
 24.99514    -86.8 1.249e+04 1.018e-09
 25.01323    -87.2 1.293e+04 1.209e-09
 25.02302    -87.4 1.373e+04 1.759e-09
 25.03430    -87.9 1.466e+04 2.376e-09
 25.05387    -88.0 1.561e+04 3.248e-09
 25.06824    -87.9 1.626e+04 3.980e-09
 25.07802    -87.9 1.582e+04 4.075e-09
 25.09303    -87.5 1.623e+04 4.381e-09
 25.10766    -86.4 1.637e+04 4.252e-09
 25.11740    -86.4 1.672e+04 4.540e-09
 25.12719    -86.2 1.725e+04 5.059e-09
 25.13698    -86.4 1.792e+04 5.718e-09
 25.14677    -86.7 1.872e+04 7.101e-09
 25.15656    -87.3 1.896e+04 8.898e-09
 25.16635    -89.2 2.035e+04 1.263e-08
 25.17614    -93.3 2.669e+04 1.452e-08
 25.18593   -100.6 3.950e+04 1.572e-08
 25.19572   -109.2 3.662e+04 6.016e-08
 25.20551   -114.5 2.349e+04 6.795e-07
 25.21282   -115.9 2.154e+04 1.134e-06
 25.21769   -117.4 2.020e+04 1.963e-06
 25.22259   -118.5 1.969e+04 2.511e-06
 25.22748   -119.7 1.955e+04 2.681e-06
 25.23238   -120.6 1.971e+04 2.343e-06
 25.23718   -121.4 2.023e+04 1.571e-06
 25.23965   -120.4 2.189e+04 7.326e-07
 25.24466   -122.4 2.295e+04 3.864e-07
 25.25445   -123.8 2.375e+04 2.002e-07
 25.26424   -125.2 2.483e+04 8.873e-08
 25.27403   -126.6 2.488e+04 4.815e-08
 25.28329   -128.0 2.396e+04 3.022e-08
 25.28818   -125.8 2.490e+04 4.833e-08
 25.29361   -127.3 2.385e+04 3.499e-08
 25.30340   -128.3 2.265e+04 2.861e-08
 25.31318   -128.9 2.176e+04 2.540e-08
 25.32297   -129.2 2.115e+04 2.344e-08
 25.33276   -129.3 2.075e+04 2.238e-08
 25.34255   -129.3 2.043e+04 2.142e-08
 25.35234   -129.1 2.012e+04 2.047e-08
 25.36213   -128.9 1.988e+04 1.946e-08
 25.37192   -128.8 1.970e+04 1.857e-08
 25.38171   -128.8 1.957e+04 1.783e-08
 25.39150   -128.6 1.946e+04 1.713e-08
 25.40147   -128.3 1.930e+04 1.588e-08
 25.41131   -127.9 1.857e+04 1.090e-08
 25.42586   -127.9 1.865e+04 1.061e-08
 25.44543   -128.9 1.956e+04 1.076e-08
 25.46007   -131.6 2.135e+04 1.651e-08
 25.46981   -132.4 2.179e+04 2.118e-08
 25.47960   -133.2 2.182e+04 3.321e-08
 25.48939   -133.5 2.179e+04 4.468e-08
 25.49918   -133.5 2.178e+04 5.311e-08
 25.50896   -133.6 2.183e+04 5.500e-08
 25.51875   -133.7 2.196e+04 4.984e-08
 25.52854   -134.1 2.198e+04 3.514e-08
 25.53833   -135.4 2.152e+04 2.079e-08
 25.54812   -137.3 2.026e+04 1.272e-08
 25.55349   -138.8 1.901e+04 9.484e-09
 25.56333   -140.7 1.765e+04 6.656e-09
 25.58248   -141.6 1.628e+04 4.669e-09
 25.60206   -142.2 1.541e+04 3.344e-09
 25.62164   -142.5 1.498e+04 2.634e-09
 25.64121   -142.6 1.452e+04 2.231e-09
 25.66079   -142.5 1.400e+04 2.028e-09
 25.68037   -142.1 1.357e+04 1.946e-09
 25.69995   -141.4 1.342e+04 1.926e-09
 25.71953   -140.9 1.332e+04 1.974e-09
 25.73480   -140.3 1.342e+04 2.199e-09
 25.74459   -139.6 1.336e+04 1.809e-09
 25.75868   -139.2 1.364e+04 2.252e-09
 25.77826   -138.5 1.407e+04 2.829e-09
 25.79784   -137.8 1.454e+04 3.487e-09
 25.81742   -137.2 1.493e+04 4.114e-09
 25.83699   -136.7 1.521e+04 4.588e-09
 25.85657   -136.1 1.538e+04 4.862e-09
 25.87615   -135.5 1.543e+04 4.954e-09
 25.89573   -134.9 1.542e+04 4.838e-09
 25.91531   -134.4 1.529e+04 4.539e-09
 25.93488   -133.9 1.512e+04 4.192e-09
 25.95446   -133.5 1.489e+04 3.862e-09
 25.97404   -132.9 1.466e+04 3.546e-09
 25.99362   -132.3 1.442e+04 3.245e-09
 26.01320   -131.6 1.416e+04 2.936e-09
 26.03277   -130.8 1.393e+04 2.652e-09
 26.05235   -130.1 1.375e+04 2.447e-09
 26.06808   -129.5 1.357e+04 2.292e-09
 26.07787   -128.9 1.366e+04 2.261e-09
 26.08406   -128.4 1.366e+04 2.241e-09
 26.09385   -127.8 1.335e+04 1.890e-09
 26.11109   -127.4 1.341e+04 1.951e-09
 26.13066   -127.1 1.350e+04 2.136e-09
 26.15024   -126.8 1.359e+04 2.402e-09
 26.16982   -126.3 1.370e+04 2.642e-09
 26.18940   -125.7 1.381e+04 2.781e-09
 26.20898   -125.1 1.385e+04 2.801e-09
 26.22855   -124.6 1.379e+04 2.696e-09
 26.24813   -124.1 1.358e+04 2.453e-09
 26.26771   -123.6 1.322e+04 2.097e-09
 26.28729   -123.2 1.276e+04 1.708e-09
 26.30687   -122.9 1.226e+04 1.364e-09
 26.32644   -122.5 1.175e+04 1.084e-09
 26.34602   -122.0 1.128e+04 8.599e-10
 26.36560   -121.4 1.087e+04 6.768e-10
 26.38518   -120.7 1.052e+04 5.187e-10
 26.40136   -120.0 1.022e+04 3.864e-10
 26.41115   -120.7 1.025e+04 3.911e-10
 26.42433   -120.1 9.994e+03 2.991e-10
 26.44391   -119.5 9.869e+03 2.512e-10
 26.46349   -118.9 9.871e+03 2.301e-10
 26.48307   -118.6 9.888e+03 2.230e-10
 26.51253   -118.0 9.896e+03 2.118e-10
 26.55179   -117.1 9.825e+03 1.934e-10
 26.59094   -116.0 9.787e+03 1.842e-10
 26.63010   -114.9 9.837e+03 1.846e-10
 26.66925   -114.0 9.963e+03 2.089e-10
 26.70841   -113.3 1.018e+04 2.618e-10
 26.74757   -112.5 1.039e+04 3.368e-10
 26.78672   -111.8 1.058e+04 4.124e-10
 26.81599   -111.7 1.076e+04 5.396e-10
 26.83547   -111.6 1.077e+04 5.487e-10
 26.85505   -111.6 1.074e+04 5.487e-10
 26.87463   -111.7 1.065e+04 5.218e-10
 26.89421   -111.7 1.057e+04 4.982e-10
 26.91378   -111.6 1.049e+04 4.746e-10
 26.93336   -111.5 1.043e+04 4.650e-10
 26.95294   -111.4 1.038e+04 4.510e-10
 26.98240   -111.3 1.029e+04 4.290e-10
 27.02166   -111.0 1.012e+04 4.029e-10
 27.05833   -110.6 9.950e+03 3.593e-10
 27.07791   -111.0 9.595e+03 2.823e-10
 27.09997   -110.4 9.392e+03 2.207e-10
 27.13550   -109.6 9.181e+03 1.686e-10
 27.15508   -109.1 9.012e+03 1.458e-10
 27.17828   -108.1 8.835e+03 1.185e-10
 27.21744   -106.8 8.772e+03 1.080e-10
 27.25659   -105.3 8.752e+03 1.065e-10
 27.29575   -103.6 8.751e+03 1.074e-10
 27.33491   -102.0 8.823e+03 1.164e-10
 27.37406   -100.3 8.890e+03 1.297e-10
 27.41322    -98.6 8.945e+03 1.422e-10
 27.45237    -96.9 9.016e+03 1.523e-10
 27.49153    -95.2 9.106e+03 1.629e-10
 27.53069    -93.7 9.220e+03 1.789e-10
 27.56984    -92.1 9.325e+03 2.047e-10
 27.60900    -90.4 9.419e+03 2.321e-10
 27.64815    -88.7 9.503e+03 2.491e-10
 27.68731    -87.0 9.542e+03 2.541e-10
 27.72490    -85.3 9.543e+03 2.538e-10
 27.74447    -85.5 9.463e+03 2.438e-10
 27.76562    -83.7 9.393e+03 2.186e-10
 27.80478    -81.9 9.294e+03 1.831e-10
 27.84393    -80.0 9.225e+03 1.536e-10
 27.88309    -78.2 9.203e+03 1.345e-10
 27.92225    -76.3 9.225e+03 1.226e-10
 27.96140    -74.2 9.271e+03 1.161e-10
 28.00056    -72.2 9.311e+03 1.144e-10
 28.03971    -70.7 9.408e+03 1.157e-10
 28.07887    -70.1 9.767e+03 1.312e-10
 28.11803    -70.2 1.048e+04 2.662e-10
 28.15718    -70.2 1.135e+04 6.311e-10
 28.19634    -70.5 1.243e+04 1.302e-09
 28.21602    -70.7 1.324e+04 2.040e-09
 28.22571    -69.7 1.312e+04 1.926e-09
 28.24509    -70.0 1.370e+04 2.468e-09
 28.26467    -70.5 1.430e+04 3.067e-09
 28.28424    -71.2 1.468e+04 3.474e-09
 28.30382    -71.9 1.478e+04 3.607e-09
 28.32340    -72.6 1.475e+04 3.627e-09
 28.34298    -73.0 1.446e+04 3.283e-09
 28.36256    -73.5 1.406e+04 2.802e-09
 28.38213    -73.9 1.376e+04 2.429e-09
 28.40105    -74.3 1.363e+04 2.225e-09
 28.41084    -74.8 1.365e+04 2.214e-09
 28.42129    -75.4 1.369e+04 2.191e-09
 28.44087    -76.3 1.428e+04 2.293e-09
 28.46045    -77.5 1.489e+04 2.853e-09
 28.48002    -78.6 1.528e+04 3.643e-09
 28.49960    -79.2 1.556e+04 4.488e-09
 28.51918    -79.6 1.592e+04 5.423e-09
 28.53876    -79.8 1.624e+04 6.404e-09
 28.55834    -80.6 1.634e+04 6.967e-09
 28.57791    -81.4 1.636e+04 7.682e-09
 28.59749    -81.8 1.647e+04 8.767e-09
 28.61707    -81.9 1.660e+04 9.635e-09
 28.63665    -81.9 1.668e+04 9.963e-09
 28.65623    -82.1 1.659e+04 9.232e-09
 28.67580    -82.3 1.632e+04 7.674e-09
 28.69538    -82.6 1.609e+04 6.361e-09
 28.71496    -83.2 1.591e+04 5.579e-09
 28.73434    -83.9 1.579e+04 5.115e-09
 28.74413    -84.2 1.625e+04 5.849e-09
 28.74644    -84.5 1.623e+04 6.116e-09
 28.75623    -84.1 1.591e+04 4.708e-09
 28.77369    -84.3 1.577e+04 4.708e-09
 28.79327    -84.3 1.549e+04 4.560e-09
 28.81285    -84.1 1.510e+04 3.886e-09
 28.83243    -83.8 1.460e+04 2.942e-09
 28.85201    -83.6 1.408e+04 2.095e-09
 28.87158    -83.4 1.352e+04 1.427e-09
 28.89116    -83.0 1.298e+04 9.614e-10
 28.91074    -82.6 1.254e+04 6.624e-10
 28.93032    -82.1 1.223e+04 4.781e-10
 28.94990    -81.6 1.211e+04 3.819e-10
 28.97936    -81.0 1.213e+04 3.434e-10
 29.01861    -79.8 1.216e+04 3.311e-10
 29.05777    -78.8 1.218e+04 3.342e-10
 29.07760    -78.0 1.237e+04 4.028e-10
 29.09718    -77.9 1.241e+04 4.039e-10
 29.13608    -77.6 1.241e+04 5.450e-10
 29.16535    -77.3 1.233e+04 6.717e-10
 29.18483    -77.2 1.234e+04 7.190e-10
 29.20441    -77.0 1.233e+04 7.567e-10
 29.22399    -77.0 1.231e+04 7.557e-10
 29.25345    -77.0 1.220e+04 6.667e-10
 29.27705    -76.0 1.216e+04 6.308e-10
 29.28674    -75.6 1.228e+04 7.589e-10
 29.30230    -75.5 1.225e+04 6.486e-10
 29.32188    -75.7 1.218e+04 5.013e-10
 29.34146    -76.0 1.215e+04 4.484e-10
 29.37092    -76.5 1.206e+04 3.864e-10
 29.41017    -76.9 1.179e+04 3.265e-10
 29.44933    -77.0 1.169e+04 3.050e-10
 29.48849    -77.1 1.172e+04 3.055e-10
 29.52764    -77.3 1.200e+04 3.665e-10
 29.56680    -77.3 1.223e+04 4.657e-10
 29.59607    -77.6 1.231e+04 5.191e-10
 29.61555    -77.8 1.229e+04 5.459e-10
 29.63513    -77.9 1.222e+04 5.987e-10
 29.65470    -77.7 1.220e+04 6.023e-10
 29.67428    -77.2 1.211e+04 6.029e-10
 29.69386    -76.9 1.207e+04 5.766e-10
 29.71344    -76.4 1.200e+04 5.213e-10
 29.73302    -76.2 1.200e+04 4.914e-10
 29.74397    -75.7 1.205e+04 4.314e-10
 29.75376    -76.8 1.210e+04 4.328e-10
 29.77217    -76.8 1.216e+04 4.297e-10
 29.79175    -77.1 1.254e+04 4.192e-10
 29.80747    -77.7 1.271e+04 5.100e-10
 29.81726    -79.0 1.298e+04 7.169e-10
 29.83091    -79.3 1.285e+04 1.053e-09
 29.85048    -79.0 1.282e+04 1.455e-09
 29.87006    -78.2 1.286e+04 1.791e-09
 29.88964    -77.3 1.293e+04 1.963e-09
 29.90922    -76.4 1.295e+04 1.996e-09
 29.92880    -75.6 1.294e+04 1.730e-09
 29.94837    -75.2 1.301e+04 1.285e-09
 29.96795    -75.2 1.273e+04 1.007e-09
 29.98753    -75.2 1.249e+04 8.389e-10
 30.00711    -74.9 1.229e+04 7.494e-10
 30.03657    -73.9 1.219e+04 7.010e-10
 30.07583    -72.2 1.204e+04 6.325e-10
 30.11498    -70.8 1.204e+04 6.164e-10
 30.15414    -69.3 1.209e+04 6.243e-10
 30.19330    -68.1 1.222e+04 6.849e-10
 30.23245    -67.0 1.233e+04 7.654e-10
 30.27161    -66.0 1.236e+04 8.081e-10
 30.31076    -65.0 1.228e+04 8.024e-10
 30.33819    -63.9 1.199e+04 6.768e-10
 30.35776    -64.1 1.155e+04 3.931e-10
 30.38908    -63.0 1.127e+04 2.727e-10
 30.41073    -62.1 1.098e+04 1.789e-10
 30.43031    -61.1 1.128e+04 3.053e-10
 30.46739    -59.9 1.091e+04 1.946e-10
 30.50654    -58.9 1.051e+04 1.255e-10
 30.54570    -57.7 1.028e+04 1.041e-10
 30.58486    -56.5 1.015e+04 8.675e-11
 30.62401    -55.2 1.007e+04 7.639e-11
 30.66317    -53.6 1.002e+04 7.230e-11
 30.70232    -52.0 1.000e+04 7.095e-11
 30.74148    -50.3 9.975e+03 7.342e-11
 30.78064    -48.5 9.951e+03 8.069e-11
 30.81979    -46.7 9.943e+03 9.021e-11
 30.85895    -44.8 9.951e+03 1.019e-10
 30.89810    -43.0 9.968e+03 1.161e-10
 30.93726    -41.3 9.982e+03 1.370e-10
 30.97642    -39.6 9.989e+03 1.676e-10
 31.01557    -38.0 9.989e+03 2.086e-10
 31.05473    -36.5 1.001e+04 2.624e-10
 31.07729    -34.9 1.005e+04 3.232e-10
 31.09687    -35.0 1.016e+04 3.566e-10
 31.13304    -33.2 1.027e+04 4.364e-10
 31.17220    -31.4 1.034e+04 4.812e-10
 31.21135    -29.6 1.034e+04 4.515e-10
 31.25051    -28.0 1.024e+04 3.946e-10
 31.28966    -26.3 1.013e+04 3.600e-10
 31.32882    -24.5 1.003e+04 3.462e-10
 31.36798    -22.6 9.948e+03 3.399e-10
 31.39922    -20.6 9.830e+03 3.320e-10
 31.41880    -20.8 9.781e+03 3.115e-10
 31.44629    -18.6 9.646e+03 2.841e-10
 31.48544    -16.3 9.492e+03 2.462e-10
 31.52460    -14.0 9.350e+03 2.036e-10
 31.56376    -11.7 9.233e+03 1.643e-10
 31.60291     -9.5 9.138e+03 1.349e-10
 31.64207     -7.5 9.040e+03 1.199e-10
 31.68122     -5.4 8.992e+03 1.161e-10
 31.72038     -3.2 8.952e+03 1.199e-10
 31.74386     -0.9 8.952e+03 1.309e-10
 31.76344     -1.4 9.126e+03 1.921e-10
 31.79869      1.2 9.138e+03 2.034e-10
 31.83785      3.6 9.107e+03 1.958e-10
 31.87700      5.7 9.135e+03 1.827e-10
 31.91616      7.7 9.082e+03 1.821e-10
 31.95532      9.9 9.066e+03 1.801e-10
 31.99447     12.0 9.120e+03 1.841e-10
 32.03363     13.8 9.215e+03 2.003e-10
 32.07278     15.5 9.340e+03 2.420e-10
 32.11194     17.2 9.498e+03 3.028e-10
 32.15110     19.1 9.651e+03 3.586e-10
 32.19025     20.7 9.728e+03 3.728e-10
 32.22941     22.4 9.679e+03 3.473e-10
 32.26856     23.8 9.635e+03 2.917e-10
 32.30772     24.6 9.513e+03 2.628e-10
 32.34688     25.4 9.472e+03 2.691e-10
 32.38603     26.1 9.399e+03 2.971e-10
 32.41042     26.9 9.353e+03 3.118e-10
 32.43000     25.9 9.283e+03 2.906e-10
 32.46026     26.0 9.317e+03 3.213e-10
 32.47984     26.9 9.455e+03 3.536e-10
 32.50350     26.7 9.516e+03 3.912e-10
 32.54266     26.3 9.420e+03 3.835e-10
 32.58181     26.8 8.991e+03 3.045e-10
 32.62097     26.7 8.671e+03 2.035e-10
 32.66012     26.3 8.478e+03 1.632e-10
 32.69928     24.6 8.986e+03 2.127e-10
 32.72855     22.0 9.781e+03 3.564e-10
 32.74351     22.0 9.982e+03 5.246e-10
 32.75330     20.5 1.007e+04 7.006e-10
 32.76761     21.1 1.056e+04 1.066e-09
 32.78719     21.5 1.078e+04 1.183e-09
 32.80676     23.6 1.028e+04 9.798e-10
 32.82634     23.3 1.012e+04 7.870e-10
 32.85581     24.7 9.421e+03 4.440e-10
 32.89506     24.4 8.505e+03 1.831e-10
 32.93422     23.9 7.817e+03 9.314e-11
 32.97337     24.7 7.402e+03 7.243e-11
 33.01253     26.8 7.377e+03 7.254e-11
 33.05168     28.8 7.456e+03 7.752e-11
 33.07698     30.6 7.562e+03 9.133e-11
 33.09656     29.3 7.576e+03 1.042e-10
 33.13000     31.1 7.823e+03 1.445e-10
 33.16915     32.4 8.272e+03 2.164e-10
 33.20831     33.4 8.996e+03 3.718e-10
 33.24746     34.6 9.910e+03 6.470e-10
 33.27673     35.4 1.035e+04 8.595e-10
 33.29621     35.4 1.063e+04 1.038e-09
 33.31579     34.6 1.153e+04 1.333e-09
 33.33537     30.8 1.398e+04 2.241e-09
 33.35495     27.8 1.549e+04 4.004e-09
 33.37453     27.1 1.502e+04 4.397e-09
 33.39410     26.5 1.460e+04 4.178e-09
 33.41007     25.1 1.440e+04 3.416e-09
 33.41986     23.3 1.402e+04 2.863e-09
 33.43326     21.0 1.358e+04 2.249e-09
 33.45284     18.6 1.274e+04 1.886e-09
 33.47242     17.6 1.215e+04 1.716e-09
 33.49199     17.2 1.196e+04 1.662e-09
 33.52120     18.5 1.189e+04 1.589e-09
 33.54087     18.5 1.196e+04 1.578e-09
 33.56071     19.9 1.144e+04 1.237e-09
 33.58998     20.5 1.047e+04 7.177e-10
 33.60946     19.5 1.020e+04 6.145e-10
 33.62904     20.0 1.020e+04 6.384e-10
 33.64862     20.1 1.023e+04 6.435e-10
 33.67808     21.1 1.010e+04 6.650e-10
 33.71734     22.9 9.933e+03 6.495e-10
 33.74355     24.8 9.869e+03 6.257e-10
 33.76313     24.4 9.413e+03 5.136e-10
 33.79565     26.4 9.451e+03 5.341e-10
 33.83480     28.2 9.558e+03 5.640e-10
 33.87396     29.6 9.813e+03 6.535e-10
 33.91312     31.0 1.033e+04 8.857e-10
 33.95227     32.9 1.116e+04 1.277e-09
 33.99143     34.3 1.201e+04 1.772e-09
 34.02070     34.9 1.237e+04 2.117e-09
 34.04018     35.2 1.271e+04 2.459e-09
 34.05976     35.7 1.290e+04 2.699e-09
 34.07119     36.3 1.295e+04 2.733e-09
 34.07828     35.8 1.341e+04 3.104e-09
 34.08642     35.2 1.360e+04 3.656e-09
 34.09891     35.9 1.353e+04 3.590e-09
 34.11849     36.7 1.338e+04 3.357e-09
 34.13807     37.6 1.301e+04 2.760e-09
 34.15765     37.5 1.265e+04 2.242e-09
 34.18711     38.3 1.196e+04 1.631e-09
 34.22636     39.2 1.160e+04 1.434e-09
 34.26552     40.4 1.150e+04 1.386e-09
 34.30468     41.8 1.159e+04 1.435e-09
 34.34383     43.2 1.166e+04 1.450e-09
 34.38299     44.7 1.153e+04 1.346e-09
 34.41011     46.4 1.119e+04 1.089e-09
 34.42969     45.4 1.051e+04 7.636e-10
 34.46130     47.4 1.009e+04 5.424e-10
 34.50046     49.0 9.832e+03 4.032e-10
 34.52973     49.9 9.582e+03 3.468e-10
 34.54921     50.8 9.637e+03 3.563e-10
 34.56878     51.9 9.900e+03 3.973e-10
 34.58836     52.4 1.042e+04 4.844e-10
 34.60171     51.6 1.162e+04 7.350e-10
 34.61150     51.9 1.089e+04 5.852e-10
 34.62752     49.9 1.280e+04 1.095e-09
 34.64710     47.4 1.468e+04 2.414e-09
 34.66667     47.0 1.621e+04 5.290e-09
 34.68625     47.1 1.779e+04 1.013e-08
 34.70583     46.6 1.923e+04 1.527e-08
 34.72541     45.2 2.067e+04 1.660e-08
 34.74320     42.2 2.080e+04 1.568e-08
 34.75299     35.9 1.789e+04 8.555e-09
 34.76456     33.7 1.626e+04 7.240e-09
 34.77920     33.7 1.591e+04 6.883e-09
 34.78894     33.4 1.568e+04 6.630e-09
 34.79873     33.7 1.514e+04 5.727e-09
 34.80852     33.5 1.498e+04 5.285e-09
 34.82325     33.6 1.454e+04 3.979e-09
 34.84288     33.4 1.403e+04 2.777e-09
 34.86245     32.1 1.287e+04 1.543e-09
 34.88203     30.2 1.121e+04 8.318e-10
 34.90161     28.8 1.007e+04 5.233e-10
 34.92119     28.6 9.403e+03 4.025e-10
 34.94077     28.9 9.105e+03 3.669e-10
 34.96034     29.6 9.002e+03 3.500e-10
 34.97992     30.1 8.948e+03 3.436e-10
 34.99950     31.1 8.931e+03 3.384e-10
 35.01908     31.4 8.926e+03 3.370e-10
 35.03866     32.6 8.907e+03 3.345e-10
 35.05823     32.8 8.919e+03 3.340e-10
 35.07658     34.5 9.121e+03 3.788e-10
 35.09625     34.0 8.652e+03 2.723e-10
 35.12695     35.6 8.659e+03 2.580e-10
 35.16611     37.0 8.683e+03 2.561e-10
 35.20526     38.2 8.715e+03 2.687e-10
 35.24442     39.4 8.791e+03 3.075e-10
 35.28358     40.7 8.939e+03 3.621e-10
 35.32273     42.1 9.069e+03 4.103e-10
 35.36189     43.3 9.107e+03 4.177e-10
 35.40104     44.5 9.030e+03 4.010e-10
 35.44020     45.6 8.899e+03 3.639e-10
 35.47936     46.5 8.789e+03 3.313e-10
 35.51851     47.2 8.708e+03 3.087e-10
 35.55767     48.0 8.593e+03 2.882e-10
 35.59682     48.9 8.427e+03 2.610e-10
 35.63598     49.8 8.227e+03 2.237e-10
 35.66294     50.4 8.021e+03 1.857e-10
 35.68252     49.5 8.119e+03 1.978e-10
 35.71429     49.6 8.135e+03 1.970e-10
 35.74324     49.3 8.303e+03 2.171e-10
 35.76282     48.9 8.289e+03 2.152e-10
 35.79260     48.5 8.739e+03 2.829e-10
 35.82187     48.7 8.948e+03 3.278e-10
 35.84135     48.7 9.032e+03 3.437e-10
 35.86093     47.8 9.463e+03 4.295e-10
 35.88051     46.0 1.006e+04 5.850e-10
 35.90009     43.8 1.071e+04 8.188e-10
 35.91967     41.2 1.144e+04 1.182e-09
 35.93924     38.3 1.234e+04 1.768e-09
 35.95882     35.6 1.325e+04 2.571e-09
 35.97840     33.4 1.391e+04 3.175e-09
 35.99798     31.0 1.401e+04 3.150e-09
 36.01756     28.7 1.371e+04 2.594e-09
 36.03713     26.1 1.299e+04 1.814e-09
 36.06660     21.9 1.150e+04 8.743e-10
 36.10585     18.8 1.024e+04 4.721e-10
 36.14501     17.2 9.389e+03 3.000e-10
 36.18416     16.7 8.911e+03 2.262e-10
 36.22332     16.6 8.787e+03 2.093e-10
 36.26248     16.8 8.719e+03 2.164e-10
 36.30163     17.6 8.646e+03 2.152e-10
 36.34079     18.7 8.500e+03 2.022e-10
 36.37994     19.9 8.337e+03 1.704e-10
 36.40980     20.9 8.172e+03 1.344e-10
 36.42938     22.3 8.156e+03 1.338e-10
 36.45826     23.2 8.049e+03 1.127e-10
 36.49741     24.1 7.959e+03 1.007e-10
 36.53657     25.0 7.897e+03 9.410e-11
 36.57572     25.9 7.900e+03 9.438e-11
 36.61488     26.5 7.957e+03 1.019e-10
 36.65404     26.7 8.187e+03 1.344e-10
 36.69319     26.7 8.588e+03 2.010e-10
 36.72398     26.6 9.148e+03 3.120e-10
 36.74356     25.6 9.318e+03 3.398e-10
 36.75278     25.5 9.528e+03 4.059e-10
 36.76247     25.8 9.505e+03 3.938e-10
 36.78110     25.8 9.571e+03 4.073e-10
 36.80068     25.3 9.817e+03 4.702e-10
 36.82025     24.4 1.009e+04 5.332e-10
 36.83983     23.2 1.041e+04 6.138e-10
 36.85941     22.0 1.058e+04 7.098e-10
 36.87899     21.3 1.063e+04 7.967e-10
 36.89857     20.8 1.071e+04 8.343e-10
 36.91814     20.2 1.083e+04 8.418e-10
 36.93772     19.3 1.100e+04 8.641e-10
 36.95730     17.8 1.137e+04 9.404e-10
 36.97688     16.2 1.169e+04 1.095e-09
 36.99646     15.2 1.186e+04 1.281e-09
 37.01603     14.7 1.193e+04 1.396e-09
 37.03561     14.4 1.203e+04 1.464e-09
 37.05519     13.8 1.227e+04 1.490e-09
 37.07627     11.9 1.239e+04 1.477e-09
 37.09595     12.7 1.214e+04 1.201e-09
 37.12391     11.2 1.234e+04 1.405e-09
 37.16306     11.1 1.228e+04 1.316e-09
 37.20222     11.0 1.191e+04 9.629e-10
 37.24138     11.1 1.125e+04 6.345e-10
 37.28053     11.8 1.068e+04 4.313e-10
 37.31969     13.1 1.030e+04 3.321e-10
 37.35884     14.9 1.015e+04 2.968e-10
 37.39800     17.0 1.017e+04 2.907e-10
 37.43716     19.0 1.023e+04 3.034e-10
 37.47631     20.9 1.035e+04 3.286e-10
 37.51547     22.7 1.047e+04 3.752e-10
 37.55462     24.6 1.057e+04 4.432e-10
 37.59378     26.6 1.062e+04 4.976e-10
 37.63294     28.6 1.060e+04 4.968e-10
 37.67209     30.7 1.051e+04 4.623e-10
 37.71125     32.6 1.039e+04 4.120e-10
 37.74293     34.4 1.030e+04 3.724e-10
 37.76251     35.1 1.030e+04 3.760e-10
 37.78502     37.0 1.033e+04 3.794e-10
 37.80459     36.9 1.044e+04 4.369e-10
 37.82872     38.7 1.062e+04 4.862e-10
 37.86787     40.2 1.086e+04 5.479e-10
 37.90703     41.1 1.117e+04 6.206e-10
 37.94618     41.4 1.156e+04 7.392e-10
 37.98534     41.6 1.188e+04 8.402e-10
 38.01461     41.4 1.200e+04 9.671e-10
 38.03409     41.5 1.203e+04 1.015e-09
 38.05367     42.0 1.191e+04 9.607e-10
 38.07325     42.2 1.191e+04 9.500e-10
 38.08581     42.9 1.174e+04 8.557e-10
 38.09560     42.4 1.199e+04 9.598e-10
 38.11240     42.8 1.200e+04 9.196e-10
 38.13198     43.1 1.199e+04 9.084e-10
 38.15156     43.5 1.200e+04 9.312e-10
 38.17114     44.0 1.208e+04 9.911e-10
 38.19071     44.6 1.221e+04 1.081e-09
 38.21029     45.2 1.238e+04 1.191e-09
 38.22987     45.9 1.258e+04 1.303e-09
 38.24945     46.6 1.274e+04 1.395e-09
 38.26903     47.2 1.288e+04 1.476e-09
 38.28860     47.8 1.301e+04 1.574e-09
 38.30818     48.5 1.314e+04 1.691e-09
 38.32513     48.9 1.330e+04 1.807e-09
 38.33492     48.5 1.334e+04 1.848e-09
 38.34734     48.7 1.349e+04 1.925e-09
 38.36692     48.7 1.384e+04 2.100e-09
 38.38649     48.4 1.449e+04 2.512e-09
 38.40607     47.6 1.542e+04 3.430e-09
 38.41909     46.5 1.633e+04 5.291e-09
 38.42888     47.4 1.462e+04 3.069e-09
 38.44523     46.9 1.563e+04 4.843e-09
 38.46481     47.4 1.656e+04 7.658e-09
 38.47944     47.7 1.719e+04 1.059e-08
 38.48918     47.9 1.733e+04 1.126e-08
 38.49897     48.0 1.766e+04 1.295e-08
 38.50876     48.2 1.781e+04 1.369e-08
 38.51855     48.3 1.814e+04 1.436e-08
 38.52834     48.3 1.827e+04 1.456e-08
 38.53813     48.2 1.852e+04 1.553e-08
 38.54792     48.1 1.878e+04 1.595e-08
 38.55770     48.0 1.905e+04 1.619e-08
 38.56749     47.6 1.931e+04 1.650e-08
 38.57728     47.1 1.957e+04 1.706e-08
 38.58563     46.5 1.974e+04 1.772e-08
 38.59053     47.3 1.889e+04 1.524e-08
 38.59518     46.8 1.911e+04 1.550e-08
 38.60008     46.8 1.922e+04 1.748e-08
 38.60665     46.3 1.946e+04 1.801e-08
 38.61644     46.0 1.958e+04 1.821e-08
 38.62623     45.5 1.955e+04 1.802e-08
 38.63602     45.3 1.920e+04 1.645e-08
 38.64581     45.1 1.910e+04 1.591e-08
 38.66054     45.4 1.854e+04 1.466e-08
 38.68016     46.4 1.744e+04 1.035e-08
 38.69974     46.9 1.613e+04 6.167e-09
 38.71932     46.8 1.471e+04 3.428e-09
 38.73890     46.2 1.338e+04 1.920e-09
 38.76836     46.5 1.228e+04 1.114e-09
 38.80762     46.8 1.117e+04 6.450e-10
 38.84605     48.1 1.070e+04 5.586e-10
 38.86563     47.9 1.081e+04 6.060e-10
 38.88593     49.5 1.089e+04 6.399e-10
 38.92509     50.9 1.106e+04 6.983e-10
 38.96424     52.1 1.114e+04 7.177e-10
 39.00340     53.2 1.115e+04 6.962e-10
 39.04255     53.7 1.116e+04 6.635e-10
 39.07606     53.7 1.116e+04 6.540e-10
 39.09564     56.4 1.146e+04 7.885e-10
 39.12087     56.2 1.159e+04 8.514e-10
 39.16002     54.9 1.201e+04 1.028e-09
 39.19918     52.6 1.287e+04 1.520e-09
 39.23833     50.5 1.311e+04 1.822e-09
 39.27749     48.9 1.269e+04 1.565e-09
 39.31665     48.0 1.177e+04 8.101e-10
 39.35580     46.3 1.074e+04 3.247e-10
 39.39496     45.0 9.957e+03 2.239e-10
 39.43411     45.4 9.812e+03 2.206e-10
 39.47327     46.4 9.817e+03 2.290e-10
 39.51243     47.6 9.929e+03 2.580e-10
 39.55158     48.6 1.012e+04 2.943e-10
 39.59074     49.2 1.033e+04 3.371e-10
 39.62989     49.7 1.050e+04 4.039e-10
 39.66905     50.5 1.056e+04 4.987e-10
 39.70821     51.3 1.047e+04 5.258e-10
 39.74262     52.4 1.033e+04 4.980e-10
 39.76220     52.8 1.048e+04 5.546e-10
 39.78652     54.1 1.018e+04 4.579e-10
 39.82567     55.4 9.888e+03 3.438e-10
 39.86483     56.7 9.623e+03 2.715e-10
 39.90399     58.1 9.580e+03 2.690e-10
 39.92666     59.6 9.618e+03 2.957e-10
 39.94624     59.3 9.631e+03 2.831e-10
 39.98230     60.9 9.815e+03 3.680e-10
 40.02145     62.7 1.008e+04 4.916e-10
 40.06061     64.5 1.027e+04 5.683e-10
 40.09977     66.1 1.025e+04 5.598e-10
 40.13892     67.8 1.013e+04 4.974e-10
 40.17808     69.5 9.920e+03 3.963e-10
 40.21723     70.9 9.711e+03 3.068e-10
 40.25639     72.4 9.615e+03 2.745e-10
 40.29555     74.0 9.627e+03 2.782e-10
 40.33470     75.8 9.723e+03 3.052e-10
 40.37386     77.8 9.950e+03 3.761e-10
 40.40313     79.0 9.981e+03 4.238e-10
 40.41878     79.8 1.002e+04 4.518e-10
 40.42867     80.4 9.682e+03 3.116e-10
 40.45217     82.1 9.870e+03 4.022e-10
 40.49133     84.0 1.004e+04 4.985e-10
 40.53048     85.9 1.023e+04 5.884e-10
 40.56964     87.6 1.036e+04 6.550e-10
 40.60879     89.3 1.044e+04 6.895e-10
 40.64795     90.9 1.051e+04 7.127e-10
 40.68711     92.5 1.059e+04 7.483e-10
 40.72626     94.2 1.072e+04 8.165e-10
 40.76542     96.0 1.087e+04 9.089e-10
 40.80457     97.9 1.094e+04 9.693e-10
 40.84373     99.7 1.093e+04 9.632e-10
 40.88289    101.7 1.081e+04 8.836e-10
 40.92204    103.7 1.051e+04 7.113e-10
 40.96120    105.8 1.016e+04 5.392e-10
 40.98770    107.7 9.871e+03 4.063e-10
 41.00728    107.6 9.844e+03 3.832e-10
 41.03951    109.4 9.710e+03 3.195e-10
 41.07575    111.4 9.734e+03 3.110e-10
 41.09533    112.5 9.587e+03 3.021e-10
 41.11782    114.7 9.583e+03 3.008e-10
 41.15698    116.8 9.685e+03 3.196e-10
 41.19613    118.9 9.846e+03 3.695e-10
 41.23529    120.8 1.003e+04 4.289e-10
 41.27445    122.6 1.016e+04 4.626e-10
 41.30372    124.1 1.019e+04 4.240e-10
 41.32320    124.9 1.025e+04 4.198e-10
 41.35266    126.6 1.071e+04 5.454e-10
 41.39191    128.1 1.098e+04 5.928e-10
 41.43107    129.6 1.094e+04 5.713e-10
 41.47023    131.2 1.085e+04 5.384e-10
 41.50938    132.7 1.082e+04 5.147e-10
 41.54854    134.1 1.084e+04 4.930e-10
 41.58769    135.4 1.084e+04 4.540e-10
 41.62685    136.7 1.076e+04 3.874e-10
 41.66601    138.1 1.060e+04 3.015e-10
 41.70516    139.5 1.039e+04 2.188e-10
 41.74231    140.9 1.015e+04 1.567e-10
 41.76189    142.6 1.059e+04 2.614e-10
 41.78347    143.9 1.027e+04 1.652e-10
 41.82263    145.1 9.801e+03 1.301e-10
 41.86179    146.6 9.674e+03 1.296e-10
 41.90094    148.3 9.659e+03 1.338e-10
 41.94010    149.8 9.654e+03 1.578e-10
 41.97925    151.4 9.818e+03 2.202e-10
 42.01841    152.9 1.011e+04 3.208e-10
 42.04874    154.1 1.040e+04 4.202e-10
 42.06831    153.6 1.006e+04 2.875e-10
 42.09672    154.4 1.012e+04 3.130e-10
 42.13588    154.9 1.010e+04 3.104e-10
 42.17503    155.5 1.000e+04 2.936e-10
 42.21419    156.2 9.814e+03 2.613e-10
 42.25335    157.2 9.605e+03 2.259e-10
 42.29250    158.5 9.427e+03 1.954e-10
 42.33166    159.9 9.298e+03 1.719e-10
 42.37081    161.5 9.214e+03 1.523e-10
 42.40888    163.1 9.157e+03 1.324e-10
 42.42846    164.0 9.239e+03 1.606e-10
 42.44913    165.5 9.198e+03 1.469e-10
 42.48828    167.0 9.148e+03 1.257e-10
 42.52744    168.3 9.094e+03 9.929e-11
 42.56659    169.5 9.033e+03 7.417e-11
 42.60575    170.6 8.933e+03 5.752e-11
 42.64491    171.7 8.825e+03 5.473e-11
 42.68406    172.9 8.804e+03 5.587e-11
 42.72322    174.1 8.736e+03 6.289e-11
 42.76237    175.4 8.757e+03 8.385e-11
 42.80153    176.7 9.079e+03 1.302e-10
 42.84069    177.3 9.632e+03 2.172e-10
 42.87984    177.3 1.012e+04 3.280e-10
 42.90911    177.3 1.037e+04 3.973e-10
 42.92859    177.1 1.069e+04 5.041e-10
 42.94817    176.7 1.110e+04 7.006e-10
 42.96775    176.4 1.148e+04 9.480e-10
 42.98733    176.0 1.182e+04 1.136e-09
 43.00690    175.5 1.199e+04 1.162e-09
 43.02648    174.5 1.199e+04 1.154e-09
 43.04606    173.2 1.190e+04 1.098e-09
 43.06564    171.8 1.166e+04 9.461e-10
 43.08503    170.1 1.130e+04 7.500e-10
 43.09482    170.8 1.135e+04 7.691e-10
 43.10479    169.2 1.098e+04 5.911e-10
 43.11937    167.4 1.061e+04 4.454e-10
 43.12916    168.1 1.081e+04 5.618e-10
 43.14395    166.4 1.041e+04 4.278e-10
 43.16353    165.2 1.009e+04 3.686e-10
 43.18311    164.1 1.003e+04 3.668e-10
 43.20268    163.5 1.002e+04 3.682e-10
 43.22226    162.8 1.000e+04 3.815e-10
 43.24184    162.4 1.003e+04 4.074e-10
 43.26142    161.9 1.015e+04 4.683e-10
 43.28100    161.4 1.036e+04 5.740e-10
 43.30057    160.8 1.061e+04 7.066e-10
 43.32015    160.3 1.085e+04 8.311e-10
 43.33973    159.7 1.105e+04 9.350e-10
 43.35931    159.0 1.123e+04 1.020e-09
 43.37889    158.3 1.140e+04 1.092e-09
 43.39846    157.3 1.158e+04 1.161e-09
 43.41804    156.2 1.176e+04 1.228e-09
 43.42811    154.9 1.193e+04 1.278e-09
 43.43789    155.7 1.189e+04 1.278e-09
 43.45720    154.2 1.207e+04 1.347e-09
 43.47678    152.7 1.207e+04 1.335e-09
 43.49635    151.2 1.200e+04 1.262e-09
 43.51593    149.7 1.179e+04 1.083e-09
 43.53551    148.2 1.153e+04 8.400e-10
 43.55509    146.2 1.128e+04 6.049e-10
 43.57467    143.5 1.120e+04 4.577e-10
 43.59424    140.2 1.121e+04 4.382e-10
 43.61382    136.6 1.122e+04 4.507e-10
 43.63340    133.5 1.120e+04 5.004e-10
 43.64988    131.1 1.127e+04 5.821e-10
 43.65967    131.5 1.136e+04 5.988e-10
 43.67256    129.7 1.136e+04 6.853e-10
 43.69213    128.1 1.146e+04 7.380e-10
 43.71171    126.5 1.151e+04 7.396e-10
 43.73129    124.5 1.153e+04 7.305e-10
 43.75087    122.5 1.150e+04 6.921e-10
 43.76139    120.6 1.139e+04 6.423e-10
 43.77118    120.8 1.155e+04 7.447e-10
 43.79002    118.9 1.140e+04 6.817e-10
 43.80960    117.0 1.126e+04 6.340e-10
 43.82918    115.4 1.112e+04 6.072e-10
 43.84876    114.0 1.102e+04 6.017e-10
 43.86834    112.8 1.097e+04 6.041e-10
 43.88791    111.8 1.092e+04 6.124e-10
 43.90749    111.0 1.087e+04 6.237e-10
 43.92707    110.3 1.086e+04 6.252e-10
 43.94665    109.6 1.085e+04 6.217e-10
 43.96623    108.9 1.083e+04 6.106e-10
 43.98580    108.2 1.078e+04 5.929e-10
 44.00538    107.4 1.069e+04 5.701e-10
 44.02496    106.5 1.059e+04 5.475e-10
 44.04454    105.8 1.049e+04 5.219e-10
 44.06412    105.1 1.038e+04 4.949e-10
 44.08369    104.6 1.028e+04 4.583e-10
 44.09467    104.2 1.020e+04 4.265e-10
 44.10446    104.2 1.033e+04 5.102e-10
 44.12285    103.8 1.023e+04 4.707e-10
 44.14243    103.3 1.015e+04 4.271e-10
 44.16201    102.7 1.019e+04 4.208e-10
 44.18040    102.0 1.025e+04 4.288e-10
 44.19019    102.2 1.058e+04 5.300e-10
 44.20116    100.9 1.081e+04 5.743e-10
 44.22074     99.1 1.132e+04 7.345e-10
 44.24032     97.2 1.197e+04 1.085e-09
 44.25990     95.7 1.268e+04 1.681e-09
 44.27947     94.5 1.339e+04 2.482e-09
 44.29905     93.3 1.405e+04 3.310e-09
 44.31863     91.9 1.460e+04 3.918e-09
 44.33821     90.3 1.491e+04 4.176e-09
 44.35779     88.6 1.493e+04 4.097e-09
 44.37736     86.9 1.486e+04 3.822e-09
 44.39694     85.3 1.469e+04 3.444e-09
 44.41652     83.6 1.469e+04 3.316e-09
 44.42795     82.0 1.478e+04 3.385e-09
 44.43774     80.4 1.492e+04 3.401e-09
 44.45568     78.7 1.505e+04 3.666e-09
 44.47525     77.3 1.548e+04 4.520e-09
 44.49483     76.3 1.606e+04 6.004e-09
 44.51441     76.2 1.660e+04 7.552e-09
 44.52905     76.2 1.690e+04 8.122e-09
 44.53879     76.3 1.701e+04 8.201e-09
 44.54857     76.5 1.682e+04 7.700e-09
 44.55836     76.5 1.671e+04 7.343e-09
 44.56815     76.8 1.628e+04 6.043e-09
 44.57794     76.7 1.598e+04 5.366e-09
 44.58773     76.3 1.554e+04 4.074e-09
 44.59449     75.6 1.596e+04 3.598e-09
 44.59939     73.0 1.780e+04 5.200e-09
 44.60731     69.7 1.968e+04 5.574e-09
 44.61710     67.2 2.011e+04 5.967e-09
 44.63183     65.7 1.965e+04 5.475e-09
 44.65146     62.6 1.875e+04 6.436e-09
 44.67103     61.0 1.796e+04 7.368e-09
 44.69061     60.7 1.747e+04 7.911e-09
 44.71019     60.5 1.678e+04 7.339e-09
 44.72071     60.5 1.608e+04 5.878e-09
 44.73050     60.7 1.625e+04 6.159e-09
 44.74935     60.8 1.563e+04 4.782e-09
 44.76123     60.9 1.490e+04 3.296e-09
 44.77102     57.8 1.327e+04 1.403e-09
 44.78850     58.1 1.280e+04 9.049e-10
 44.80808     57.7 1.211e+04 5.386e-10
 44.83755     57.7 1.160e+04 3.544e-10
 44.87680     55.9 9.031e+03 1.678e-10
 44.91595     56.2 8.217e+03 1.508e-10
 44.95511     57.8 8.193e+03 1.563e-10
 44.99427     59.6 8.225e+03 1.682e-10
 45.03342     61.3 8.303e+03 1.770e-10
 45.07258     62.2 8.679e+03 2.053e-10
 45.09471     62.1 9.352e+03 2.935e-10
 45.10440     60.7 9.709e+03 4.077e-10
 45.12133     60.9 9.917e+03 4.924e-10
 45.14091     60.8 1.021e+04 6.227e-10
 45.16048     60.7 1.051e+04 7.873e-10
 45.18006     60.7 1.087e+04 9.841e-10
 45.19964     60.6 1.119e+04 1.172e-09
 45.21922     60.3 1.165e+04 1.363e-09
 45.23880     60.1 1.192e+04 1.507e-09
 45.25132     59.0 1.253e+04 1.637e-09
 45.27100     59.9 1.240e+04 1.728e-09
 45.30751     58.2 1.268e+04 1.752e-09
 45.34667     56.8 1.228e+04 1.431e-09
 45.38583     55.8 1.117e+04 8.127e-10
 45.42498     55.1 9.864e+03 3.735e-10
 45.46414     54.2 8.777e+03 1.722e-10
 45.50329     53.8 8.276e+03 1.302e-10
 45.54245     54.3 8.170e+03 1.284e-10
 45.58161     55.6 8.147e+03 1.330e-10
 45.62076     56.9 8.161e+03 1.467e-10
 45.65992     58.3 8.194e+03 1.564e-10
 45.69907     59.5 8.202e+03 1.565e-10
 45.73823     60.6 8.176e+03 1.516e-10
 45.76127     61.7 8.120e+03 1.430e-10
 45.78085     61.7 8.210e+03 1.550e-10
 45.81654     62.6 8.193e+03 1.508e-10
 45.85570     63.5 8.209e+03 1.534e-10
 45.89485     64.3 8.260e+03 1.625e-10
 45.93401     64.9 8.438e+03 1.925e-10
 45.97317     65.6 8.769e+03 2.567e-10
 46.01232     66.4 9.204e+03 3.613e-10
 46.05148     67.3 9.580e+03 4.614e-10
 46.09064     68.1 9.653e+03 4.712e-10
 46.12979     69.0 9.582e+03 4.426e-10
 46.16895     70.1 9.310e+03 3.446e-10
 46.20810     71.0 8.925e+03 2.329e-10
 46.24726     71.6 8.491e+03 1.587e-10
 46.28642     72.3 8.222e+03 1.414e-10
 46.31246     73.2 8.249e+03 1.473e-10
 46.33204     72.3 8.458e+03 1.770e-10
 46.36473     73.1 8.817e+03 2.505e-10
 46.40388     73.7 9.412e+03 3.877e-10
 46.42784     73.9 9.794e+03 4.952e-10
 46.43753     73.2 9.855e+03 5.048e-10
 46.45263     73.5 1.008e+04 5.769e-10
 46.47221     73.6 1.027e+04 6.227e-10
 46.49179     73.6 1.032e+04 6.208e-10
 46.51137     73.5 1.034e+04 5.971e-10
 46.53094     73.3 1.034e+04 5.482e-10
 46.55052     72.8 1.034e+04 4.905e-10
 46.57010     71.9 1.033e+04 4.534e-10
 46.58968     70.9 1.034e+04 4.537e-10
 46.60926     69.8 1.039e+04 4.728e-10
 46.62883     68.7 1.052e+04 5.404e-10
 46.64841     67.9 1.074e+04 6.602e-10
 46.66799     67.3 1.106e+04 8.284e-10
 46.68757     67.0 1.146e+04 1.031e-09
 46.70715     66.7 1.186e+04 1.217e-09
 46.72672     66.3 1.205e+04 1.261e-09
 46.74630     65.9 1.203e+04 1.245e-09
 46.76092     65.6 1.186e+04 1.152e-09
 46.77071     64.8 1.196e+04 1.227e-09
 46.78546     64.6 1.164e+04 1.078e-09
 46.80504     64.2 1.131e+04 9.273e-10
 46.82461     64.1 1.095e+04 7.849e-10
 46.84278     64.1 1.059e+04 6.519e-10
 46.85257     64.2 1.074e+04 7.057e-10
 46.86377     64.3 1.038e+04 5.545e-10
 46.88335     64.3 1.013e+04 4.543e-10
 46.91281     64.5 9.884e+03 3.634e-10
 46.95207     65.2 9.620e+03 3.258e-10
 46.99122     66.2 9.638e+03 3.295e-10
 47.03038     67.0 9.747e+03 3.595e-10
 47.05965     67.4 9.798e+03 3.924e-10
 47.07913     67.8 1.000e+04 4.663e-10
 47.09421     67.9 1.034e+04 6.031e-10
 47.10400     68.2 1.010e+04 5.014e-10
 47.11828     68.1 1.066e+04 7.247e-10
 47.13786     67.4 1.146e+04 1.102e-09
 47.15744     66.5 1.249e+04 1.784e-09
 47.17702     66.0 1.354e+04 2.832e-09
 47.19660     66.0 1.438e+04 3.810e-09
 47.21618     65.7 1.461e+04 3.870e-09
 47.23575     65.6 1.452e+04 3.450e-09
 47.25533     65.3 1.401e+04 2.381e-09
 47.27491     64.3 1.301e+04 1.278e-09
 47.30437     63.5 1.228e+04 7.001e-10
 47.34363     58.9 9.363e+03 2.140e-10
 47.37349     57.9 8.826e+03 1.862e-10
 47.39307     57.7 8.983e+03 2.094e-10
 47.42194     58.2 9.018e+03 2.185e-10
 47.46110     58.9 9.277e+03 2.669e-10
 47.50025     59.6 9.472e+03 3.300e-10
 47.53941     60.1 9.722e+03 3.979e-10
 47.57856     60.4 9.878e+03 4.209e-10
 47.61772     60.7 9.856e+03 3.930e-10
 47.65688     61.2 9.692e+03 3.112e-10
 47.69603     61.7 9.448e+03 2.261e-10
 47.73519     62.4 9.175e+03 1.674e-10
 47.76097     63.2 8.940e+03 1.349e-10
 47.78054     64.3 9.336e+03 1.498e-10
 47.81350     65.5 8.995e+03 1.410e-10
 47.85266     67.1 8.830e+03 1.387e-10
 47.89181     68.9 8.726e+03 1.369e-10
 47.93097     70.8 8.641e+03 1.310e-10
 47.97012     72.6 8.571e+03 1.182e-10
 48.00928     74.4 8.540e+03 1.038e-10
 48.04844     76.0 8.544e+03 9.557e-11
 48.08759     77.7 8.571e+03 9.862e-11
 48.12675     79.6 8.649e+03 1.123e-10
 48.16590     81.6 8.760e+03 1.370e-10
 48.20506     83.9 8.919e+03 1.650e-10
 48.24422     86.2 9.091e+03 1.869e-10
 48.28337     88.5 9.220e+03 2.005e-10
 48.32253     90.7 9.241e+03 2.035e-10
 48.36168     92.8 9.223e+03 2.027e-10
 48.40084     95.0 9.164e+03 1.997e-10
 48.42753     97.2 9.078e+03 1.945e-10
 48.44164     98.0 9.257e+03 1.759e-10
 48.45411     98.1 9.274e+03 1.743e-10
 48.47915    100.2 9.142e+03 1.615e-10
 48.51831    102.4 9.000e+03 1.590e-10
 48.55746    104.6 8.988e+03 1.593e-10
 48.59662    106.9 8.993e+03 1.622e-10
 48.63578    109.0 9.047e+03 1.738e-10
 48.67493    111.1 9.201e+03 1.985e-10
 48.71409    113.1 9.380e+03 2.390e-10
 48.75324    114.9 9.557e+03 2.864e-10
 48.79240    116.5 9.715e+03 3.358e-10
 48.83156    117.9 9.859e+03 3.859e-10
 48.87071    119.3 9.995e+03 4.386e-10
 48.90987    120.5 1.014e+04 4.963e-10
 48.94902    121.7 1.033e+04 5.570e-10
 48.98818    122.8 1.054e+04 6.163e-10
 49.02734    123.7 1.077e+04 7.096e-10
 49.06649    124.5 1.110e+04 8.794e-10
 49.09409    125.1 1.147e+04 1.118e-09
 49.11367    125.3 1.126e+04 9.242e-10
 49.14480    125.8 1.161e+04 1.154e-09
 49.18396    126.3 1.175e+04 1.289e-09
 49.21323    126.5 1.172e+04 1.283e-09
 49.23271    126.7 1.171e+04 1.274e-09
 49.25229    127.0 1.168e+04 1.254e-09
 49.27187    127.4 1.161e+04 1.207e-09
 49.29144    127.8 1.150e+04 1.132e-09
 49.31102    128.2 1.138e+04 1.035e-09
 49.33060    128.7 1.126e+04 9.380e-10
 49.35018    129.3 1.114e+04 8.436e-10
 49.36976    129.8 1.105e+04 7.670e-10
 49.38933    130.4 1.106e+04 7.320e-10
 49.40891    131.1 1.107e+04 7.323e-10
 49.42718    132.0 1.111e+04 7.386e-10
 49.43697    132.0 1.108e+04 7.313e-10
 49.44807    132.8 1.116e+04 7.481e-10
 49.46765    133.6 1.130e+04 7.839e-10
 49.48722    134.4 1.147e+04 8.387e-10
 49.50516    135.2 1.167e+04 9.145e-10
 49.51495    135.2 1.156e+04 8.596e-10
 49.52638    136.0 1.175e+04 9.289e-10
 49.54596    136.8 1.194e+04 1.006e-09
 49.56554    137.7 1.212e+04 1.088e-09
 49.58511    138.5 1.227e+04 1.170e-09
 49.60469    139.5 1.239e+04 1.254e-09
 49.62427    140.4 1.246e+04 1.335e-09
 49.64385    141.5 1.249e+04 1.411e-09
 49.66343    142.5 1.248e+04 1.476e-09
 49.68300    143.5 1.244e+04 1.515e-09
 49.70258    144.5 1.242e+04 1.512e-09
 49.72216    145.6 1.235e+04 1.497e-09
 49.74174    146.7 1.224e+04 1.458e-09
 49.76046    147.8 1.211e+04 1.394e-09
 49.77025    148.1 1.217e+04 1.408e-09
 49.78089    149.4 1.207e+04 1.349e-09
 49.80047    150.7 1.196e+04 1.278e-09
 49.82005    152.0 1.185e+04 1.200e-09
 49.83963    153.3 1.174e+04 1.122e-09
 49.85921    154.6 1.164e+04 1.052e-09
 49.87878    156.0 1.155e+04 9.942e-10
 49.89836    157.3 1.144e+04 9.489e-10
 49.91794    158.5 1.133e+04 9.180e-10
 49.93752    159.8 1.119e+04 9.053e-10
 49.95710    161.2 1.113e+04 9.067e-10
 49.97667    162.6 1.113e+04 9.161e-10
 49.99625    163.8 1.115e+04 9.647e-10
 50.01583    164.9 1.123e+04 1.071e-09
 50.03541    165.9 1.138e+04 1.228e-09
 50.04547    167.0 1.160e+04 1.435e-09
 50.05526    167.2 1.167e+04 1.336e-09
 50.07456    168.2 1.190e+04 1.570e-09
 50.09374    169.2 1.218e+04 1.847e-09
 50.10353    169.6 1.252e+04 1.766e-09
 50.11372    170.4 1.271e+04 2.044e-09
 50.13330    171.3 1.289e+04 2.347e-09
 50.15288    172.2 1.309e+04 2.661e-09
 50.17245    173.2 1.333e+04 2.969e-09
 50.19203    174.1 1.360e+04 3.249e-09
 50.21161    174.9 1.380e+04 3.467e-09
 50.23119    175.7 1.383e+04 3.502e-09
 50.25077    176.5 1.381e+04 3.454e-09
 50.27034    177.5 1.368e+04 3.279e-09
 50.28992    178.5 1.346e+04 2.998e-09
 50.30950    179.6 1.318e+04 2.679e-09
 50.32908    180.8 1.285e+04 2.350e-09
 50.34866    182.0 1.251e+04 2.009e-09
 50.36823    183.2 1.215e+04 1.683e-09
 50.38781    184.4 1.177e+04 1.390e-09
 50.40739    185.7 1.139e+04 1.141e-09
 50.42697    187.1 1.103e+04 9.416e-10
 50.44655    188.6 1.152e+04 1.257e-09
 50.46612    190.0 1.123e+04 1.057e-09
 50.48570    191.4 1.096e+04 8.967e-10
 50.50528    192.8 1.070e+04 7.745e-10
 50.52486    194.1 1.045e+04 6.830e-10
 50.54444    195.5 1.021e+04 6.160e-10
 50.56401    196.9 9.990e+03 5.696e-10
 50.57599    198.4 9.855e+03 5.410e-10
 50.58577    199.1 1.011e+04 6.033e-10
 50.60317    200.5 9.945e+03 5.760e-10
 50.62275    202.0 9.810e+03 5.676e-10
 50.64233    203.6 9.797e+03 5.700e-10
 50.66190    205.4 9.807e+03 5.809e-10
 50.68148    207.1 9.851e+03 6.007e-10
 50.70106    208.7 9.913e+03 6.245e-10
 50.72064    210.2 1.006e+04 6.513e-10
 50.74022    211.6 1.052e+04 7.222e-10
 50.75979    212.7 1.137e+04 8.937e-10
 50.77010    213.5 1.241e+04 1.223e-09
 50.77989    215.0 1.146e+04 9.595e-10
 50.79895    215.9 1.262e+04 1.318e-09
 50.81853    216.9 1.373e+04 1.939e-09
 50.83811    218.2 1.463e+04 2.902e-09
 50.85768    219.8 1.530e+04 4.148e-09
 50.87726    221.1 1.568e+04 5.104e-09
 50.89190    221.6 1.597e+04 5.721e-09
 50.90164    222.2 1.639e+04 6.671e-09
 50.91143    222.9 1.679e+04 7.915e-09
 50.92121    223.9 1.725e+04 9.300e-09
 50.93100    224.9 1.769e+04 1.058e-08
 50.93664    225.5 1.798e+04 1.071e-08
 50.94153    225.8 1.779e+04 9.660e-09
 50.95058    226.3 1.786e+04 9.641e-09
 50.96037    226.7 1.789e+04 9.426e-09
 50.97016    226.9 1.785e+04 8.866e-09
 50.97995    227.0 1.768e+04 8.115e-09
 50.98974    227.1 1.746e+04 7.263e-09
 50.99953    227.1 1.719e+04 6.463e-09
 51.00932    227.0 1.686e+04 5.790e-09
 51.01910    226.8 1.650e+04 5.255e-09
 51.02889    226.7 1.613e+04 4.849e-09
 51.03868    226.6 1.579e+04 4.544e-09
 51.05342    226.4 1.529e+04 4.008e-09
 51.07304    226.8 1.498e+04 3.759e-09
 51.09262    227.2 1.469e+04 3.484e-09
 51.10338    227.7 1.444e+04 3.213e-09
 51.10747    228.2 1.470e+04 3.777e-09
 51.11135    228.2 1.511e+04 4.290e-09
 51.11699    228.4 1.502e+04 4.217e-09
 51.12678    228.7 1.498e+04 4.185e-09
 51.13657    228.9 1.492e+04 4.144e-09
 51.14636    229.2 1.488e+04 4.062e-09
 51.15615    229.4 1.484e+04 4.011e-09
 51.16594    229.6 1.481e+04 3.902e-09
 51.17573    229.8 1.479e+04 3.837e-09
 51.18552    229.9 1.477e+04 3.689e-09
 51.19531    229.9 1.473e+04 3.555e-09
 51.21004    230.4 1.502e+04 3.793e-09
 51.22967    230.4 1.501e+04 3.464e-09
 51.24924    229.8 1.472e+04 2.849e-09
 51.26882    228.7 1.408e+04 2.156e-09
 51.28840    227.4 1.327e+04 1.621e-09
 51.30798    226.3 1.246e+04 1.284e-09
 51.32756    226.1 1.197e+04 1.084e-09
 51.34713    226.2 1.176e+04 9.510e-10
 51.36671    226.5 1.161e+04 8.447e-10
 51.38629    227.1 1.146e+04 7.546e-10
 51.40587    227.8 1.132e+04 6.841e-10
 51.42545    228.5 1.117e+04 6.390e-10
 51.43666    229.1 1.101e+04 6.199e-10
 51.44645    228.5 1.064e+04 5.523e-10
 51.46460    229.5 1.067e+04 5.586e-10
 51.48418    230.3 1.077e+04 5.749e-10
 51.50376    230.9 1.090e+04 5.991e-10
 51.52334    231.0 1.102e+04 6.280e-10
 51.54291    231.0 1.114e+04 6.615e-10
 51.56249    230.8 1.128e+04 7.008e-10
 51.58207    230.3 1.140e+04 7.458e-10
 51.60165    229.7 1.151e+04 7.937e-10
 51.62123    228.9 1.158e+04 8.343e-10
 51.63702    228.3 1.162e+04 8.589e-10
 51.64681    229.1 1.196e+04 1.008e-09
 51.66038    228.4 1.200e+04 1.029e-09
 51.67996    227.8 1.201e+04 1.039e-09
 51.69954    227.2 1.207e+04 1.063e-09
 51.71912    226.4 1.226e+04 1.139e-09
 51.73869    225.4 1.293e+04 1.343e-09
 51.75827    223.4 1.425e+04 1.850e-09
 51.76994    221.0 1.560e+04 2.785e-09
 51.77973    219.0 1.660e+04 4.152e-09
 51.79743    217.7 1.766e+04 6.425e-09
 51.81701    217.5 1.838e+04 9.061e-09
 51.83658    217.4 1.894e+04 1.142e-08
 51.85616    217.3 1.953e+04 1.296e-08
 51.87574    216.8 1.998e+04 1.307e-08
 51.89532    215.9 2.012e+04 1.251e-08
 51.91490    214.6 1.999e+04 1.112e-08
 51.93447    213.0 1.928e+04 9.946e-09
 51.95405    211.7 1.870e+04 9.869e-09
 51.97363    210.9 1.869e+04 1.020e-08
 51.99321    210.4 1.900e+04 1.183e-08
 52.01279    209.3 2.011e+04 1.519e-08
 52.03236    208.0 2.116e+04 1.824e-08
 52.04700    206.7 2.173e+04 1.815e-08
 52.05674    205.2 2.221e+04 1.803e-08
 52.06653    203.4 2.258e+04 1.830e-08
 52.07632    201.2 2.273e+04 1.781e-08
 52.08611    198.4 2.310e+04 1.694e-08
 52.09590    195.3 2.334e+04 1.533e-08
 52.10317    189.5 2.305e+04 1.373e-08
 52.10807    193.3 2.372e+04 1.471e-08
 52.11547    189.8 2.364e+04 1.352e-08
 52.13021    185.5 2.410e+04 1.372e-08
 52.14983    178.3 2.286e+04 1.091e-08
 52.16754    172.1 2.117e+04 8.443e-09
 52.17733    171.4 2.156e+04 1.003e-08
 52.18899    167.7 2.066e+04 8.336e-09
 52.20857    165.0 1.964e+04 5.862e-09
 52.22814    162.5 1.826e+04 3.629e-09
 52.24772    159.5 1.639e+04 2.255e-09
 52.26730    156.4 1.491e+04 1.808e-09
 52.28688    154.3 1.479e+04 1.807e-09
 52.30646    152.8 1.490e+04 1.885e-09
 52.32603    151.6 1.533e+04 2.145e-09
 52.34561    150.3 1.591e+04 2.514e-09
 52.36519    148.6 1.648e+04 2.907e-09
 52.38477    146.5 1.706e+04 3.292e-09
 52.40435    143.9 1.767e+04 3.638e-09
 52.42392    140.6 1.808e+04 3.775e-09
 52.43651    137.0 1.803e+04 3.684e-09
 52.44629    133.5 1.694e+04 3.064e-09
 52.46308    130.4 1.628e+04 2.648e-09
 52.48266    128.0 1.546e+04 1.942e-09
 52.50224    124.9 1.530e+04 1.172e-09
 52.52181    120.5 1.537e+04 6.976e-10
 52.54139    114.7 1.518e+04 4.812e-10
 52.56097    107.9 1.418e+04 4.108e-10
 52.58055    100.4 1.326e+04 4.289e-10
 52.60013     93.9 1.283e+04 4.786e-10
 52.61970     89.6 1.239e+04 6.355e-10
 52.63928     87.2 1.257e+04 8.316e-10
 52.65886     85.7 1.290e+04 1.009e-09
 52.67844     84.2 1.324e+04 1.132e-09
 52.69802     82.5 1.354e+04 1.209e-09
 52.71759     80.4 1.413e+04 1.452e-09
 52.73717     77.9 1.434e+04 1.515e-09
 52.75675     75.3 1.443e+04 1.578e-09
 52.76979     72.9 1.440e+04 1.635e-09
 52.77958     71.7 1.414e+04 1.418e-09
 52.79591     69.9 1.425e+04 1.530e-09
 52.81548     68.4 1.442e+04 1.601e-09
 52.83506     66.6 1.477e+04 1.682e-09
 52.85464     63.4 1.566e+04 1.921e-09
 52.87422     58.3 1.746e+04 2.768e-09
 52.89380     53.3 1.877e+04 4.478e-09
 52.91337     50.5 1.920e+04 7.056e-09
 52.93295     49.3 1.955e+04 1.149e-08
 52.95253     48.7 2.021e+04 1.632e-08
 52.97211     47.6 2.113e+04 1.811e-08
 52.99169     45.4 2.195e+04 1.524e-08
 53.01126     40.8 2.439e+04 9.628e-09
 53.03084     33.6 2.662e+04 6.912e-09
 53.05042     27.6 2.652e+04 5.918e-09
 53.07000     20.8 2.802e+04 5.698e-09
 53.08463      6.6 3.664e+04 1.316e-08
 53.09437      4.5 3.428e+04 2.618e-08
 53.10297      1.8 3.303e+04 2.524e-08
 53.10787      1.4 2.344e+04 2.603e-07
 53.11395     -1.6 2.815e+04 8.409e-08
 53.12374     -6.1 3.043e+04 3.389e-08
 53.13353    -10.1 2.793e+04 2.248e-08
 53.14332    -12.0 2.543e+04 1.719e-08
 53.15311    -12.4 2.426e+04 1.444e-08
 53.16784    -12.4 2.299e+04 1.133e-08
 53.18747    -10.6 2.065e+04 6.364e-09
 53.20704    -10.6 1.824e+04 3.662e-09
 53.22662    -10.9 1.613e+04 2.232e-09
 53.23836    -10.8 1.454e+04 1.553e-09
 53.24815    -10.9 1.485e+04 1.900e-09
 53.26578    -10.4 1.403e+04 1.552e-09
 53.28536    -10.0 1.372e+04 1.461e-09
 53.30493     -9.4 1.362e+04 1.472e-09
 53.32451     -8.9 1.361e+04 1.627e-09
 53.34409     -8.2 1.348e+04 1.852e-09
 53.36367     -7.1 1.342e+04 2.111e-09
 53.38325     -6.0 1.379e+04 2.364e-09
 53.40282     -4.7 1.394e+04 2.567e-09
 53.42240     -3.8 1.387e+04 2.575e-09
 53.43635     -2.6 1.354e+04 2.350e-09
 53.44614     -3.2 1.358e+04 2.310e-09
 53.46156     -2.4 1.322e+04 1.971e-09
 53.48114     -1.5 1.283e+04 1.629e-09
 53.50071     -0.8 1.237e+04 1.282e-09
 53.52029     -0.2 1.189e+04 1.001e-09
 53.53987      0.4 1.145e+04 7.845e-10
 53.55945      1.1 1.095e+04 5.947e-10
 53.57903      1.9 1.043e+04 4.842e-10
 53.59860      2.9 1.016e+04 4.023e-10
 53.61818      3.8 1.002e+04 3.568e-10
 53.64765      5.6 9.977e+03 3.121e-10
 53.68690      7.4 9.884e+03 2.840e-10
 53.72606      9.5 9.729e+03 2.509e-10
 53.75929     11.3 9.600e+03 2.223e-10
 53.77369     10.9 9.855e+03 2.707e-10
 53.77952      9.9 9.760e+03 2.511e-10
 53.79438     11.6 9.666e+03 2.445e-10
 53.81396     11.9 9.711e+03 2.480e-10
 53.83354     12.8 9.836e+03 2.712e-10
 53.85312     13.0 9.956e+03 2.793e-10
 53.87270     13.3 1.019e+04 3.515e-10
 53.89227     13.6 1.020e+04 3.737e-10
 53.91185     14.2 1.011e+04 4.285e-10
 53.93143     15.3 1.021e+04 4.786e-10
 53.95101     16.2 1.050e+04 5.373e-10
 53.97059     16.5 1.076e+04 5.687e-10
 53.99016     16.7 1.078e+04 5.623e-10
 54.00974     16.7 1.069e+04 5.459e-10
 54.02932     16.7 1.066e+04 5.467e-10
 54.04890     16.7 1.067e+04 5.625e-10
 54.06848     17.0 1.065e+04 5.765e-10
 54.08805     17.4 1.059e+04 5.716e-10
 54.10291     17.9 1.058e+04 5.597e-10
 54.11270     18.2 1.020e+04 4.530e-10
 54.12721     18.7 1.022e+04 4.135e-10
 54.14679     18.4 1.047e+04 4.191e-10
 54.16637     19.0 1.059e+04 4.284e-10
 54.18594     16.8 1.179e+04 7.342e-10
 54.20552     17.1 1.178e+04 8.382e-10
 54.22510     17.7 1.192e+04 1.007e-09
 54.24468     18.2 1.200e+04 1.091e-09
 54.26426     19.5 1.192e+04 1.087e-09
 54.28383     20.5 1.194e+04 1.076e-09
 54.31330     21.3 1.204e+04 1.038e-09
 54.35255     22.7 1.244e+04 1.159e-09
 54.38182     23.8 1.291e+04 1.394e-09
 54.40130     25.3 1.320e+04 1.576e-09
 54.42088     27.1 1.349e+04 1.750e-09
 54.43620     28.7 1.407e+04 2.009e-09
 54.44599     28.6 1.488e+04 2.418e-09
 54.46004     29.8 1.576e+04 2.917e-09
 54.47961     30.7 1.664e+04 3.675e-09
 54.49919     31.8 1.740e+04 4.663e-09
 54.51877     33.4 1.809e+04 5.893e-09
 54.53835     35.1 1.861e+04 7.198e-09
 54.55793     37.2 1.895e+04 8.306e-09
 54.57750     39.4 1.924e+04 9.134e-09
 54.59708     41.4 1.949e+04 9.551e-09
 54.61666     43.3 1.975e+04 9.581e-09
 54.63624     45.3 1.998e+04 9.590e-09
 54.65582     47.6 2.018e+04 9.595e-09
 54.67539     49.5 2.062e+04 9.843e-09
 54.69497     51.6 2.092e+04 1.005e-08
 54.71455     54.2 2.130e+04 1.035e-08
 54.73413     57.3 2.249e+04 1.183e-08
 54.74876     59.0 2.385e+04 1.470e-08
 54.75850     60.5 2.476e+04 1.701e-08
 54.76829     62.2 2.587e+04 1.982e-08
 54.77428     64.1 2.669e+04 2.227e-08
 54.77917     62.6 2.680e+04 3.023e-08
 54.78787     64.5 2.761e+04 3.625e-08
 54.79766     65.0 2.932e+04 5.100e-08
 54.80745     63.9 3.229e+04 1.052e-07
 54.81477     65.0 3.310e+04 1.802e-07
 54.81964     64.1 3.179e+04 3.427e-07
 54.82453     62.3 2.623e+04 1.133e-06
 54.82943     59.4 2.250e+04 3.841e-06
 54.83308     51.1 2.292e+04 4.854e-06
 54.83552     47.4 2.209e+04 4.750e-06
 54.83709     38.3 2.090e+04 6.890e-06
 54.83831     36.7 2.016e+04 1.081e-05
 54.84041     33.2 1.966e+04 1.117e-05
 54.84410     28.4 1.376e+04 4.330e-04
 54.84900     14.8 1.949e+04 1.005e-05
 54.85390     12.6 2.168e+04 2.707e-06
 54.85755     10.2 2.558e+04 1.035e-06
 54.85999     11.8 2.687e+04 6.806e-07
 54.86616      8.3 2.709e+04 4.072e-07
 54.87597     11.9 2.813e+04 1.528e-07
 54.88576     16.3 2.828e+04 7.494e-08
 54.89555     19.0 2.870e+04 4.584e-08
 54.90534     22.2 2.903e+04 2.189e-08
 54.91513     22.4 2.890e+04 1.415e-08
 54.92986     21.5 2.448e+04 6.675e-09
 54.94949     19.1 2.085e+04 4.124e-09
 54.96906     13.8 1.895e+04 4.123e-09
 54.98864      9.2 1.875e+04 4.892e-09
 55.00822      6.3 1.864e+04 5.880e-09
 55.02780      2.8 1.962e+04 6.369e-09
 55.04738     -2.4 2.096e+04 5.292e-09
 55.06696    -10.1 1.944e+04 3.219e-09
 55.08653    -19.4 1.624e+04 2.178e-09
 55.10276    -24.4 1.597e+04 2.117e-09
 55.11255    -27.7 1.544e+04 1.889e-09
 55.12569    -31.8 1.548e+04 1.916e-09
 55.14527    -35.0 1.549e+04 2.070e-09
 55.16485    -37.4 1.528e+04 2.191e-09
 55.18442    -38.8 1.518e+04 2.302e-09
 55.20400    -39.5 1.522e+04 2.350e-09
 55.22358    -40.3 1.539e+04 2.335e-09
 55.24316    -41.6 1.570e+04 2.191e-09
 55.26274    -44.0 1.596e+04 2.073e-09
 55.28231    -48.4 1.676e+04 2.040e-09
 55.30189    -57.9 2.873e+04 2.163e-09
 55.31653    -62.8 3.486e+04 3.108e-09
 55.32627    -70.1 4.784e+04 3.615e-09
 55.33605    -81.9 4.597e+04 1.304e-08
 55.34584    -89.3 3.504e+04 5.272e-08
 55.35563    -95.1 2.847e+04 1.190e-07
 55.36523   -101.9 2.830e+04 1.339e-07
 55.37013   -101.2 2.796e+04 1.455e-07
 55.37521   -114.6 3.538e+04 6.486e-08
 55.38500   -138.8 5.033e+04 5.280e-09
 55.39479   -165.7 4.105e+04 7.319e-10
 55.40458   -174.8 2.333e+04 6.446e-10
 55.41437   -177.1 1.753e+04 7.285e-10
 55.42416   -178.8 1.627e+04 7.367e-10
 55.43599   -180.4 1.729e+04 6.788e-10
 55.44578   -171.1 5.000e+04 5.776e-10
 55.45847   -171.5 4.182e+04 6.470e-10
 55.47809   -184.6 1.287e+04 5.659e-10
 55.49767   -185.1 1.148e+04 5.214e-10
 55.51725   -185.0 1.133e+04 4.723e-10
 55.53683   -184.4 1.110e+04 4.410e-10
 55.55641   -183.4 1.103e+04 4.306e-10
 55.57598   -182.3 1.103e+04 4.290e-10
 55.60545   -181.0 1.110e+04 4.460e-10
 55.64470   -178.3 1.114e+04 4.970e-10
 55.68386   -176.0 1.119e+04 5.423e-10
 55.72301   -173.6 1.118e+04 5.776e-10
 55.75973   -171.3 1.112e+04 5.945e-10
 55.77931   -171.3 1.110e+04 6.109e-10
 55.80133   -168.8 1.086e+04 5.716e-10
 55.84048   -166.1 1.058e+04 5.130e-10
 55.87964   -163.5 1.031e+04 4.466e-10
 55.90094   -161.0 1.009e+04 3.851e-10
 55.92052   -162.0 9.414e+03 2.444e-10
 55.95795   -159.7 9.213e+03 2.102e-10
 55.99711   -157.5 9.133e+03 2.000e-10
 56.03626   -155.5 9.129e+03 1.994e-10
 56.07542   -153.6 9.237e+03 2.234e-10
 56.11457   -151.6 9.392e+03 2.677e-10
 56.15373   -149.6 9.445e+03 2.998e-10
 56.19289   -147.6 9.437e+03 3.063e-10
 56.23204   -145.4 9.296e+03 2.994e-10
 56.27120   -143.0 9.035e+03 2.553e-10
 56.31035   -140.5 8.743e+03 2.004e-10
 56.34951   -138.0 8.454e+03 1.530e-10
 56.38867   -135.5 8.239e+03 1.196e-10
 56.42629   -133.1 8.146e+03 1.009e-10
 56.44587   -133.5 8.126e+03 9.333e-11
 56.46698   -131.5 8.126e+03 9.115e-11
 56.50613   -130.0 8.229e+03 9.523e-11
 56.54529   -128.8 8.609e+03 1.280e-10
 56.58445   -127.6 8.956e+03 1.831e-10
 56.62360   -126.3 9.169e+03 2.331e-10
 56.66276   -125.1 9.221e+03 2.492e-10
 56.70191   -123.9 9.189e+03 2.405e-10
 56.74107   -122.9 9.103e+03 2.024e-10
 56.78023   -122.3 9.117e+03 1.764e-10
 56.81938   -122.0 9.153e+03 1.717e-10
 56.85854   -122.0 9.326e+03 1.834e-10
 56.89769   -122.0 9.523e+03 2.205e-10
 56.93685   -121.9 9.737e+03 2.736e-10
 56.96197   -121.7 1.002e+04 3.430e-10
 56.98155   -120.1 1.004e+04 3.602e-10
 57.01516   -119.9 1.035e+04 4.502e-10
 57.05432   -119.7 1.067e+04 5.416e-10
 57.09286   -119.6 1.098e+04 6.429e-10
 57.11244   -120.9 1.049e+04 4.554e-10
 57.13263   -120.8 1.084e+04 5.849e-10
 57.17179   -120.4 1.110e+04 6.886e-10
 57.21094   -120.1 1.121e+04 7.244e-10
 57.25010   -119.8 1.122e+04 6.954e-10
 57.28925   -118.7 1.106e+04 5.365e-10
 57.31852   -117.8 1.102e+04 4.636e-10
 57.33800   -117.1 1.088e+04 3.984e-10
 57.35758   -116.6 1.085e+04 3.606e-10
 57.37716   -116.1 1.085e+04 3.515e-10
 57.39674   -115.7 1.092e+04 3.534e-10
 57.41632   -115.3 1.106e+04 3.817e-10
 57.43573   -114.8 1.122e+04 4.288e-10
 57.44552   -115.4 1.105e+04 3.904e-10
 57.45547   -115.0 1.114e+04 4.261e-10
 57.47505   -114.3 1.126e+04 4.893e-10
 57.49230   -113.9 1.131e+04 5.234e-10
 57.50209   -113.5 1.116e+04 4.540e-10
 57.51421   -112.8 1.127e+04 5.206e-10
 57.53378   -112.5 1.133e+04 5.630e-10
 57.55336   -111.7 1.150e+04 6.414e-10
 57.57294   -111.4 1.159e+04 6.874e-10
 57.59252   -110.6 1.182e+04 7.956e-10
 57.61210   -110.3 1.204e+04 9.073e-10
 57.64156   -110.3 1.221e+04 9.919e-10
 57.68081   -109.4 1.223e+04 1.013e-09
 57.71997   -108.8 1.222e+04 9.738e-10
 57.74924   -108.5 1.200e+04 8.662e-10
 57.76872   -108.4 1.192e+04 8.275e-10
 57.77880   -108.2 1.181e+04 7.854e-10
 57.78859   -108.1 1.161e+04 6.977e-10
 57.80788   -107.8 1.141e+04 6.413e-10
 57.82745   -107.2 1.117e+04 5.746e-10
 57.84703   -106.4 1.092e+04 5.080e-10
 57.86661   -105.4 1.071e+04 4.436e-10
 57.88619   -104.4 1.060e+04 3.940e-10
 57.91565   -103.4 1.055e+04 3.493e-10
 57.95491   -101.6 1.036e+04 3.004e-10
 57.99406    -99.4 1.009e+04 2.464e-10
 58.02301    -96.9 9.822e+03 2.050e-10
 58.04259    -96.3 1.012e+04 2.573e-10
 58.07237    -93.7 9.850e+03 2.175e-10
 58.11153    -91.1 9.684e+03 1.881e-10
 58.15069    -88.5 9.557e+03 1.656e-10
 58.18984    -86.0 9.457e+03 1.508e-10
 58.22900    -83.4 9.401e+03 1.447e-10
 58.26815    -80.8 9.391e+03 1.435e-10
 58.30731    -78.3 9.390e+03 1.484e-10
 58.34647    -75.8 9.402e+03 1.630e-10
 58.38562    -73.2 9.413e+03 1.799e-10
 58.42478    -70.6 9.407e+03 1.935e-10
 58.44556    -68.0 9.392e+03 1.979e-10
 58.46514    -67.4 9.252e+03 1.584e-10
 58.50309    -64.7 9.138e+03 1.544e-10
 58.54225    -61.8 9.015e+03 1.429e-10
 58.58140    -58.8 8.904e+03 1.279e-10
 58.62056    -55.8 8.822e+03 1.135e-10
 58.65971    -52.9 8.775e+03 1.017e-10
 58.69887    -49.9 8.733e+03 9.338e-11
 58.73803    -46.8 8.718e+03 8.955e-11
 58.77718    -43.7 8.717e+03 8.901e-11
 58.81634    -40.6 8.747e+03 9.098e-11
 58.85549    -37.6 8.807e+03 9.859e-11
 58.89465    -34.7 8.844e+03 1.111e-10
 58.93381    -31.6 8.867e+03 1.278e-10
 58.97296    -28.4 8.887e+03 1.468e-10
 59.01212    -25.2 8.913e+03 1.627e-10
 59.05127    -22.3 8.935e+03 1.767e-10
 59.08405    -19.6 8.975e+03 1.925e-10
 59.10362    -19.4 9.031e+03 2.039e-10
 59.11213    -16.8 9.045e+03 2.188e-10
 59.13171    -16.4 8.799e+03 1.786e-10
 59.16874    -13.8 8.737e+03 1.728e-10
 59.20790    -11.5 8.663e+03 1.571e-10
 59.24705     -9.3 8.616e+03 1.503e-10
 59.28621     -7.3 8.689e+03 1.696e-10
 59.32537     -5.1 8.871e+03 2.166e-10
 59.36452     -2.6 9.096e+03 2.555e-10
 59.39379     -0.9 9.352e+03 3.193e-10
 59.41327     -0.4 9.665e+03 3.510e-10
 59.43285     -0.0 9.997e+03 4.500e-10
 59.44521      0.1 1.062e+04 6.142e-10
 59.45500      1.7 9.982e+03 4.356e-10
 59.47201      1.9 1.061e+04 6.327e-10
 59.49158      1.6 1.174e+04 1.005e-09
 59.51116      0.4 1.340e+04 1.825e-09
 59.53074     -1.0 1.528e+04 3.598e-09
 59.55032     -0.8 1.658e+04 6.299e-09
 59.56990     -0.4 1.729e+04 8.174e-09
 59.58947     -0.4 1.745e+04 8.296e-09
 59.60905     -0.5 1.734e+04 7.298e-09
 59.62416     -1.6 1.696e+04 4.347e-09
 59.63395     -2.1 1.895e+04 4.894e-09
 59.64821     -6.7 1.753e+04 1.500e-09
 59.66779    -13.3 1.122e+04 5.815e-10
 59.68736    -14.7 9.830e+03 4.589e-10
 59.70694    -14.9 9.541e+03 3.761e-10
 59.72652    -14.7 9.393e+03 3.157e-10
 59.74610    -15.2 9.297e+03 2.890e-10
 59.76568    -15.2 9.349e+03 2.856e-10
 59.77850    -15.3 9.350e+03 2.856e-10
 59.78828    -16.9 1.019e+04 4.384e-10
 59.80483    -16.7 1.022e+04 4.886e-10
 59.82441    -16.1 1.043e+04 5.559e-10
 59.84399    -15.9 1.069e+04 6.381e-10
 59.86357    -15.4 1.153e+04 8.581e-10
 59.88314    -16.2 1.241e+04 1.150e-09
 59.90272    -16.4 1.389e+04 1.852e-09
 59.92230    -17.2 1.509e+04 2.826e-09
 59.94188    -17.3 1.634e+04 4.218e-09
 59.96146    -17.1 1.782e+04 6.135e-09
 59.98103    -16.9 1.943e+04 8.508e-09
 60.00061    -16.7 2.091e+04 1.121e-08
 60.02019    -16.7 2.203e+04 1.406e-08
 60.03482    -16.2 2.234e+04 1.570e-08
 60.04457    -16.0 2.258e+04 1.677e-08
 60.05435    -15.7 2.274e+04 1.752e-08
 60.06414    -15.5 2.320e+04 1.872e-08
 60.07393    -15.3 2.444e+04 2.101e-08
 60.08372    -16.1 2.736e+04 2.640e-08
 60.09351    -18.0 3.029e+04 4.305e-08
 60.10330    -20.5 2.944e+04 8.938e-08
 60.11168    -21.6 2.625e+04 2.065e-07
 60.11657    -19.1 3.115e+04 5.811e-08
 60.12288    -19.9 2.844e+04 1.318e-07
 60.13267    -19.5 2.566e+04 2.881e-07
 60.14246    -19.5 2.445e+04 5.125e-07
 60.14977    -21.4 2.289e+04 9.101e-07
 60.15464    -23.7 2.219e+04 1.353e-06
 60.15942    -24.4 2.218e+04 2.028e-06
 60.16187    -21.4 2.247e+04 1.305e-06
 60.16443    -25.0 2.159e+04 2.544e-06
 60.16933    -30.0 1.972e+04 7.633e-06
 60.17422    -36.2 1.784e+04 2.100e-05
 60.17912    -42.6 1.699e+04 3.744e-05
 60.18401    -48.9 1.671e+04 4.050e-05
 60.18890    -53.7 1.744e+04 2.239e-05
 60.19380    -56.9 1.840e+04 1.178e-05
 60.19740    -59.5 1.956e+04 7.283e-06
 60.19985    -60.8 1.966e+04 5.826e-06
 60.20359    -61.9 2.051e+04 4.569e-06
 60.20848    -63.5 2.131e+04 3.772e-06
 60.21338    -65.7 2.175e+04 3.157e-06
 60.21827    -67.8 2.212e+04 2.462e-06
 60.22317    -69.4 2.253e+04 1.744e-06
 60.22806    -70.4 2.262e+04 1.096e-06
 60.23295    -70.7 2.259e+04 6.618e-07
 60.24032    -70.7 2.193e+04 3.434e-07
 60.25013    -69.8 2.406e+04 9.109e-08
 60.25992    -69.4 2.702e+04 3.698e-08
 60.26971    -68.9 3.131e+04 1.571e-08
 60.27832    -68.9 3.495e+04 5.831e-09
 60.28322    -79.1 3.252e+04 2.566e-09
 60.28929    -85.4 2.772e+04 1.610e-09
 60.29908    -95.2 2.726e+04 1.352e-09
 60.30887   -112.4 3.190e+04 1.188e-09
 60.31866   -132.1 3.616e+04 1.985e-09
 60.32845   -143.2 2.922e+04 1.261e-08
 60.33824   -149.3 2.847e+04 4.614e-08
 60.34802   -155.7 2.966e+04 9.356e-08
 60.35781   -163.7 3.100e+04 1.125e-07
 60.36760   -173.8 3.160e+04 1.032e-07
 60.37739   -184.6 3.018e+04 5.228e-08
 60.38718   -193.7 2.429e+04 2.554e-08
 60.39697   -197.6 2.082e+04 1.966e-08
 60.40676   -198.5 1.994e+04 1.811e-08
 60.41655   -198.8 1.969e+04 1.721e-08
 60.42473   -199.1 1.940e+04 1.585e-08
 60.42963   -199.9 1.948e+04 1.606e-08
 60.43613   -200.3 1.905e+04 1.406e-08
 60.44496   -200.6 1.859e+04 1.199e-08
 60.44986   -199.8 1.872e+04 1.016e-08
 60.45570   -200.1 1.825e+04 8.650e-09
 60.46549   -200.2 1.769e+04 7.236e-09
 60.47528   -200.4 1.715e+04 6.102e-09
 60.48507   -200.5 1.673e+04 5.346e-09
 60.49486   -200.3 1.644e+04 4.964e-09
 60.50959   -199.9 1.616e+04 4.706e-09
 60.52922   -199.6 1.544e+04 4.092e-09
 60.54880   -199.5 1.502e+04 3.669e-09
 60.56837   -199.1 1.483e+04 3.475e-09
 60.58795   -198.5 1.473e+04 3.444e-09
 60.60753   -197.8 1.468e+04 3.464e-09
 60.62711   -197.0 1.465e+04 3.558e-09
 60.64669   -196.2 1.468e+04 3.596e-09
 60.66626   -195.3 1.469e+04 3.591e-09
 60.68519   -194.3 1.465e+04 3.448e-09
 60.69498   -195.0 1.467e+04 3.270e-09
 60.70542   -194.1 1.447e+04 2.915e-09
 60.72500   -193.2 1.421e+04 2.486e-09
 60.74458   -192.5 1.386e+04 2.031e-09
 60.76415   -191.8 1.339e+04 1.588e-09
 60.77834   -191.2 1.284e+04 1.201e-09
 60.78813   -191.5 1.255e+04 1.151e-09
 60.80331   -190.6 1.195e+04 8.443e-10
 60.82289   -189.7 1.143e+04 6.200e-10
 60.84247   -188.7 1.102e+04 4.686e-10
 60.86204   -187.7 1.074e+04 3.781e-10
 60.88162   -186.9 1.059e+04 3.348e-10
 60.90120   -186.1 1.052e+04 3.168e-10
 60.93067   -185.1 1.042e+04 2.942e-10
 60.96992   -182.6 1.002e+04 2.409e-10
 61.00907   -180.0 9.702e+03 1.992e-10
 61.04823   -177.6 9.442e+03 1.652e-10
 61.08739   -175.1 9.251e+03 1.388e-10
 61.11182   -172.7 9.093e+03 1.178e-10
 61.13140   -172.4 8.874e+03 9.968e-11
 61.16570   -170.0 8.753e+03 8.437e-11
 61.20485   -167.5 8.667e+03 7.316e-11
 61.22570   -165.0 8.618e+03 6.621e-11
 61.24527   -165.1 8.624e+03 6.899e-11
 61.28317   -162.7 8.618e+03 6.749e-11
 61.32232   -160.4 8.624e+03 6.758e-11
 61.36148   -158.2 8.672e+03 7.258e-11
 61.40063   -156.1 8.735e+03 8.320e-11
 61.43979   -154.0 8.790e+03 9.645e-11
 61.47895   -151.8 8.848e+03 1.107e-10
 61.51810   -149.7 8.917e+03 1.250e-10
 61.55726   -147.5 8.989e+03 1.388e-10
 61.59641   -145.4 9.058e+03 1.517e-10
 61.63557   -143.3 9.124e+03 1.635e-10
 61.67473   -141.2 9.188e+03 1.723e-10
 61.71388   -139.2 9.253e+03 1.799e-10
 61.75304   -137.2 9.334e+03 1.887e-10
 61.77838   -135.3 9.423e+03 1.998e-10
 61.79796   -134.9 9.343e+03 1.854e-10
 61.83135   -133.0 9.470e+03 2.047e-10
 61.87051   -131.3 9.618e+03 2.253e-10
 61.90966   -129.5 9.765e+03 2.412e-10
 61.94882   -127.7 9.831e+03 2.454e-10
 61.98798   -126.1 9.872e+03 2.319e-10
 62.02713   -124.5 9.941e+03 2.111e-10
 62.06629   -122.9 9.984e+03 1.912e-10
 62.10544   -121.7 1.003e+04 1.835e-10
 62.14460   -121.2 1.011e+04 1.848e-10
 62.18376   -121.1 1.067e+04 2.507e-10
 62.22291   -121.0 1.126e+04 4.349e-10
 62.25218   -121.0 1.171e+04 6.846e-10
 62.27166   -121.1 1.205e+04 8.691e-10
 62.28654   -121.3 1.228e+04 9.651e-10
 62.29633   -121.5 1.240e+04 1.054e-09
 62.31082   -122.0 1.244e+04 1.070e-09
 62.33039   -122.3 1.246e+04 1.055e-09
 62.34997   -122.7 1.249e+04 9.109e-10
 62.36955   -123.6 1.248e+04 7.147e-10
 62.38913   -125.3 1.235e+04 5.582e-10
 62.40871   -127.1 1.220e+04 5.045e-10
 62.42828   -128.5 1.221e+04 5.002e-10
 62.44475   -129.8 1.235e+04 5.687e-10
 62.46443   -129.5 1.224e+04 5.427e-10
 62.49700   -132.4 1.292e+04 8.342e-10
 62.53616   -135.0 1.345e+04 1.299e-09
 62.56543   -136.6 1.343e+04 1.369e-09
 62.58491   -137.4 1.347e+04 1.383e-09
 62.60449   -139.0 1.341e+04 1.337e-09
 62.62406   -140.4 1.332e+04 1.168e-09
 62.64364   -142.3 1.301e+04 9.174e-10
 62.66322   -143.8 1.274e+04 7.674e-10
 62.68280   -144.9 1.252e+04 7.071e-10
 62.70238   -145.5 1.238e+04 6.899e-10
 62.72195   -145.7 1.228e+04 6.842e-10
 62.74153   -145.7 1.216e+04 6.667e-10
 62.76111   -145.5 1.200e+04 6.161e-10
 62.77803   -145.0 1.184e+04 5.350e-10
 62.78782   -145.5 1.192e+04 6.084e-10
 62.80027   -145.0 1.173e+04 4.884e-10
 62.81705   -144.6 1.160e+04 4.114e-10
 62.82684   -144.7 1.159e+04 4.189e-10
 62.84931   -144.3 1.149e+04 3.604e-10
 62.88856   -143.4 1.124e+04 2.796e-10
 62.92772   -141.8 1.102e+04 2.217e-10
 62.96688   -140.3 1.103e+04 2.018e-10
 63.00603   -138.8 1.103e+04 1.999e-10
 63.04519   -137.5 1.117e+04 2.088e-10
 63.08434   -136.4 1.135e+04 2.421e-10
 63.11151   -135.2 1.154e+04 2.836e-10
 63.13109   -135.7 1.180e+04 3.342e-10
 63.16266   -134.5 1.195e+04 3.789e-10
 63.20181   -133.2 1.205e+04 4.103e-10
 63.24097   -131.9 1.207e+04 4.271e-10
 63.28012   -130.7 1.208e+04 4.359e-10
 63.31928   -129.6 1.204e+04 4.188e-10
 63.34777   -128.3 1.183e+04 3.605e-10
 63.36735   -128.9 1.177e+04 3.393e-10
 63.39759   -127.2 1.140e+04 2.462e-10
 63.43675   -125.3 1.104e+04 1.698e-10
 63.47590   -123.5 1.079e+04 1.196e-10
 63.51506   -121.7 1.061e+04 9.385e-11
 63.55422   -120.0 1.051e+04 8.660e-11
 63.59337   -118.3 1.047e+04 8.564e-11
 63.63253   -116.6 1.037e+04 9.022e-11
 63.67168   -114.9 1.032e+04 1.001e-10
 63.71084   -113.2 1.029e+04 1.101e-10
 63.75000   -111.6 1.028e+04 1.203e-10
 63.77807   -110.2 1.030e+04 1.390e-10
 63.79765   -110.5 1.025e+04 1.299e-10
 63.82831   -109.4 1.031e+04 1.789e-10
 63.86746   -108.4 1.049e+04 2.727e-10
 63.90662   -107.6 1.076e+04 4.197e-10
 63.94578   -107.1 1.105e+04 5.916e-10
 63.98493   -107.0 1.128e+04 7.089e-10
 64.02409   -107.4 1.135e+04 7.423e-10
 64.06324   -108.2 1.123e+04 7.126e-10
 64.10240   -108.4 1.073e+04 5.347e-10
 64.14156   -108.5 1.023e+04 3.760e-10
 64.18071   -108.5 9.869e+03 2.876e-10
 64.21987   -108.0 9.604e+03 2.446e-10
 64.25902   -107.0 9.431e+03 2.238e-10
 64.29818   -106.0 9.331e+03 2.102e-10
 64.33734   -104.9 9.227e+03 1.972e-10
 64.37649   -103.8 9.092e+03 1.783e-10
 64.40880   -102.4 8.934e+03 1.545e-10
 64.42838   -102.3 8.838e+03 1.357e-10
 64.44464   -100.9 8.677e+03 1.192e-10
 64.46422   -100.0 8.810e+03 1.438e-10
 64.49396    -98.4 8.702e+03 1.381e-10
 64.53312    -96.8 8.665e+03 1.367e-10
 64.57227    -95.1 8.632e+03 1.442e-10
 64.61143    -93.4 8.645e+03 1.649e-10
 64.65058    -91.7 8.700e+03 1.925e-10
 64.68974    -89.9 8.747e+03 2.177e-10
 64.72890    -88.1 8.745e+03 2.314e-10
 64.76805    -86.2 8.721e+03 2.343e-10
 64.80721    -84.3 8.646e+03 2.232e-10
 64.84636    -82.5 8.558e+03 2.113e-10
 64.88552    -80.6 8.482e+03 2.038e-10
 64.92468    -78.6 8.448e+03 2.015e-10
 64.96383    -76.7 8.413e+03 2.053e-10
 65.00299    -74.7 8.380e+03 2.094e-10
 65.04214    -72.7 8.346e+03 2.102e-10
 65.08130    -70.6 8.285e+03 2.064e-10
 65.11120    -68.5 8.237e+03 1.998e-10
 65.13078    -68.2 7.958e+03 1.416e-10
 65.15961    -66.3 7.949e+03 1.395e-10
 65.19877    -64.6 7.992e+03 1.462e-10
 65.23792    -62.9 8.095e+03 1.697e-10
 65.27708    -61.3 8.271e+03 2.109e-10
 65.31624    -59.7 8.535e+03 2.719e-10
 65.35539    -58.2 8.870e+03 3.499e-10
 65.39455    -57.1 9.162e+03 4.276e-10
 65.42382    -56.4 9.309e+03 4.913e-10
 65.44330    -56.1 9.372e+03 5.223e-10
 65.45408    -55.6 9.460e+03 5.597e-10
 65.46387    -55.8 9.282e+03 4.927e-10
 65.47943    -55.4 9.281e+03 4.978e-10
 65.48922    -55.5 9.336e+03 5.193e-10
 65.50203    -55.1 9.315e+03 5.130e-10
 65.52161    -54.6 9.269e+03 4.965e-10
 65.54119    -54.1 9.229e+03 4.813e-10
 65.56077    -53.6 9.209e+03 4.715e-10
 65.58034    -52.9 9.218e+03 4.707e-10
 65.59992    -52.2 9.318e+03 4.932e-10
 65.62939    -51.2 9.519e+03 5.430e-10
 65.66864    -49.4 9.819e+03 6.595e-10
 65.70780    -47.9 1.053e+04 9.834e-10
 65.73707    -46.8 1.102e+04 1.399e-09
 65.75655    -46.0 1.173e+04 1.901e-09
 65.77612    -46.1 1.324e+04 2.761e-09
 65.78736    -47.7 1.580e+04 4.767e-09
 65.79715    -45.9 1.332e+04 2.350e-09
 65.81528    -48.2 1.605e+04 4.058e-09
 65.83486    -51.2 1.811e+04 7.945e-09
 65.85444    -53.3 1.907e+04 1.418e-08
 65.87401    -54.4 1.955e+04 2.025e-08
 65.88865    -54.7 1.977e+04 2.333e-08
 65.89839    -54.8 1.978e+04 2.345e-08
 65.90818    -54.8 1.985e+04 2.103e-08
 65.91797    -55.1 2.014e+04 1.796e-08
 65.92776    -56.0 2.088e+04 1.437e-08
 65.93754    -58.1 2.189e+04 1.082e-08
 65.94733    -61.5 2.203e+04 7.337e-09
 65.95390    -65.0 2.024e+04 4.806e-09
 65.95880    -63.2 2.513e+04 1.248e-08
 65.96691    -66.2 2.273e+04 7.820e-09
 65.97670    -69.4 1.834e+04 4.934e-09
 65.98649    -71.6 1.510e+04 3.779e-09
 65.99628    -72.1 1.419e+04 3.518e-09
 66.00990    -72.0 1.388e+04 3.285e-09
 66.01969    -72.1 1.412e+04 3.854e-09
 66.03059    -71.5 1.403e+04 3.876e-09
 66.05022    -70.5 1.369e+04 3.689e-09
 66.06979    -69.3 1.329e+04 3.341e-09
 66.08937    -68.4 1.305e+04 3.074e-09
 66.10895    -67.5 1.298e+04 2.989e-09
 66.12064    -66.5 1.297e+04 2.969e-09
 66.13043    -66.8 1.295e+04 2.860e-09
 66.14811    -65.8 1.288e+04 2.736e-09
 66.16768    -64.8 1.274e+04 2.485e-09
 66.18726    -63.9 1.255e+04 2.153e-09
 66.20684    -63.2 1.231e+04 1.794e-09
 66.22642    -62.8 1.201e+04 1.452e-09
 66.24600    -62.6 1.165e+04 1.169e-09
 66.26557    -62.5 1.125e+04 9.620e-10
 66.28515    -62.5 1.089e+04 8.270e-10
 66.30473    -62.4 1.067e+04 7.404e-10
 66.32431    -62.4 1.049e+04 6.709e-10
 66.34389    -62.4 1.039e+04 6.274e-10
 66.36346    -62.7 1.036e+04 6.148e-10
 66.38304    -63.0 1.038e+04 6.164e-10
 66.40262    -63.5 1.062e+04 6.728e-10
 66.42220    -64.0 1.102e+04 7.915e-10
 66.44178    -64.6 1.156e+04 9.842e-10
 66.45392    -65.0 1.211e+04 1.237e-09
 66.46371    -66.6 1.361e+04 2.653e-09
 66.48093    -66.4 1.410e+04 3.417e-09
 66.50051    -66.4 1.463e+04 4.238e-09
 66.52009    -67.2 1.558e+04 5.315e-09
 66.53472    -68.5 1.628e+04 5.112e-09
 66.54446    -70.3 1.754e+04 7.174e-09
 66.55021    -72.6 1.871e+04 1.053e-08
 66.56005    -71.8 1.816e+04 8.226e-09
 66.57882    -75.7 1.936e+04 1.270e-08
 66.59840    -78.9 1.971e+04 1.604e-08
 66.61798    -81.9 1.965e+04 1.671e-08
 66.63756    -84.6 1.872e+04 1.299e-08
 66.65713    -87.5 1.738e+04 8.079e-09
 66.67671    -91.3 1.588e+04 5.102e-09
 66.69629    -94.7 1.480e+04 3.977e-09
 66.71587    -96.8 1.432e+04 3.627e-09
 66.73545    -97.9 1.412e+04 3.508e-09
 66.75502    -98.5 1.403e+04 3.472e-09
 66.77460    -98.8 1.391e+04 3.423e-09
 66.78720    -99.0 1.367e+04 3.156e-09
 66.79699    -98.6 1.358e+04 3.138e-09
 66.81376    -98.6 1.324e+04 2.731e-09
 66.83334    -98.8 1.283e+04 2.245e-09
 66.85291    -99.1 1.243e+04 1.791e-09
 66.87249    -99.6 1.201e+04 1.409e-09
 66.89207   -100.1 1.156e+04 1.115e-09
 66.91165   -100.6 1.114e+04 9.010e-10
 66.93123   -100.9 1.076e+04 7.542e-10
 66.95080   -101.1 1.046e+04 6.605e-10
 66.97038   -101.2 1.029e+04 6.080e-10
 66.98996   -101.2 1.020e+04 5.833e-10
 67.00954   -101.0 1.017e+04 5.785e-10
 67.02912   -100.9 1.017e+04 5.872e-10
 67.04869   -100.7 1.023e+04 6.193e-10
 67.06827   -100.4 1.029e+04 6.472e-10
 67.08078   -100.2 1.032e+04 6.572e-10
 67.09057   -100.2 1.038e+04 6.875e-10
 67.10743   -100.1 1.039e+04 6.904e-10
 67.12049   -100.0 1.038e+04 6.817e-10
 67.13028   -100.1 1.060e+04 7.534e-10
 67.14658   -100.1 1.056e+04 7.386e-10
 67.16616   -100.0 1.052e+04 7.276e-10
 67.18574   -100.0 1.049e+04 7.242e-10
 67.20532    -99.9 1.048e+04 7.304e-10
 67.22490    -99.7 1.048e+04 7.484e-10
 67.24447    -99.5 1.052e+04 7.776e-10
 67.26405    -99.2 1.057e+04 8.076e-10
 67.28363    -99.0 1.062e+04 8.306e-10
 67.30321    -98.7 1.063e+04 8.388e-10
 67.32279    -98.4 1.060e+04 8.365e-10
 67.34236    -98.1 1.052e+04 8.082e-10
 67.36194    -97.8 1.045e+04 7.720e-10
 67.38152    -97.7 1.043e+04 7.494e-10
 67.40110    -97.6 1.043e+04 7.449e-10
 67.42068    -97.9 1.054e+04 7.529e-10
 67.44025    -98.5 1.081e+04 8.250e-10
 67.46972    -99.2 1.122e+04 9.871e-10
 67.50897    -99.9 1.180e+04 1.273e-09
 67.54813   -101.4 1.235e+04 1.623e-09
 67.57740   -103.1 1.258e+04 1.841e-09
 67.59688   -103.8 1.262e+04 1.895e-09
 67.61129   -104.3 1.257e+04 1.879e-09
 67.62108   -104.3 1.269e+04 1.955e-09
 67.63603   -105.1 1.268e+04 1.916e-09
 67.65561   -106.1 1.263e+04 1.825e-09
 67.67519   -107.0 1.250e+04 1.696e-09
 67.69477   -107.7 1.230e+04 1.565e-09
 67.71435   -108.2 1.203e+04 1.418e-09
 67.73392   -108.5 1.173e+04 1.269e-09
 67.75350   -108.5 1.144e+04 1.128e-09
 67.77308   -108.5 1.118e+04 9.952e-10
 67.78705   -108.3 1.094e+04 8.753e-10
 67.79684   -108.3 1.040e+04 6.434e-10
 67.81224   -108.0 1.021e+04 5.553e-10
 67.83181   -107.6 1.003e+04 4.816e-10
 67.85139   -107.2 9.869e+03 4.244e-10
 67.87097   -106.7 9.713e+03 3.891e-10
 67.90043   -106.0 9.558e+03 3.757e-10
 67.93969   -104.2 9.406e+03 3.726e-10
 67.97884   -102.0 9.338e+03 3.767e-10
 68.01800    -99.7 9.320e+03 3.896e-10
 68.05716    -97.3 9.385e+03 4.132e-10
 68.09631    -94.9 9.621e+03 4.662e-10
 68.13547    -92.4 9.966e+03 5.590e-10
 68.16474    -90.0 1.016e+04 6.531e-10
 68.18422    -88.8 1.023e+04 6.930e-10
 68.20380    -87.5 1.039e+04 7.516e-10
 68.22337    -87.4 1.065e+04 8.120e-10
 68.24295    -91.3 1.626e+04 1.228e-09
 68.26253    -97.9 2.427e+04 2.535e-09
 68.27717   -102.0 2.653e+04 3.224e-09
 68.28687   -103.1 2.712e+04 3.217e-09
 68.29666   -112.5 2.869e+04 1.310e-08
 68.30648   -116.9 2.562e+04 2.215e-08
 68.31627   -120.1 2.355e+04 3.641e-08
 68.32606   -121.6 2.238e+04 5.355e-08
 68.33585   -121.9 2.190e+04 6.985e-08
 68.34564   -121.9 2.181e+04 7.967e-08
 68.35543   -121.0 2.185e+04 8.201e-08
 68.36522   -120.0 2.215e+04 7.404e-08
 68.37501   -119.6 2.249e+04 5.929e-08
 68.38480   -119.5 2.258e+04 4.995e-08
 68.39458   -119.9 2.263e+04 4.317e-08
 68.40437   -120.8 2.234e+04 3.761e-08
 68.41187   -121.6 2.175e+04 3.331e-08
 68.41676   -121.3 2.122e+04 2.246e-08
 68.42395   -121.6 2.067e+04 2.057e-08
 68.43374   -121.8 2.026e+04 1.884e-08
 68.44353   -121.9 1.996e+04 1.747e-08
 68.45332   -122.0 1.973e+04 1.631e-08
 68.45841   -122.0 1.944e+04 1.551e-08
 68.46335   -123.4 1.846e+04 1.060e-08
 68.47789   -122.8 1.759e+04 8.177e-09
 68.49747   -122.1 1.648e+04 5.885e-09
 68.51704   -121.6 1.549e+04 4.424e-09
 68.53662   -121.5 1.472e+04 3.656e-09
 68.55620   -121.1 1.418e+04 3.303e-09
 68.57578   -120.5 1.385e+04 3.173e-09
 68.59536   -119.7 1.367e+04 3.150e-09
 68.61493   -118.7 1.358e+04 3.154e-09
 68.63451   -117.5 1.348e+04 3.114e-09
 68.65409   -116.4 1.338e+04 3.013e-09
 68.67233   -115.2 1.326e+04 2.855e-09
 68.68212   -115.0 1.321e+04 2.754e-09
 68.69325   -113.9 1.308e+04 2.592e-09
 68.71282   -112.8 1.289e+04 2.367e-09
 68.73240   -111.8 1.266e+04 2.149e-09
 68.76187   -110.7 1.242e+04 1.957e-09
 68.80112   -108.3 1.188e+04 1.564e-09
 68.84028   -105.6 1.121e+04 1.176e-09
 68.87943   -102.6 1.060e+04 8.575e-10
 68.91859    -99.6 1.006e+04 6.200e-10
 68.95774    -96.5 9.610e+03 4.599e-10
 68.99690    -93.4 9.330e+03 3.635e-10
 69.03606    -90.6 9.256e+03 3.163e-10
 69.07521    -87.7 9.248e+03 2.947e-10
 69.11058    -84.8 9.255e+03 2.864e-10
 69.13016    -84.9 9.254e+03 2.735e-10
 69.15352    -82.0 9.261e+03 2.726e-10
 69.19268    -79.3 9.370e+03 2.776e-10
 69.23184    -76.7 9.509e+03 2.947e-10
 69.27099    -74.1 9.658e+03 3.201e-10
 69.31015    -71.5 9.806e+03 3.511e-10
 69.34930    -69.0 9.943e+03 3.783e-10
 69.38846    -66.5 1.005e+04 3.942e-10
 69.42762    -64.0 1.011e+04 3.977e-10
 69.46677    -61.6 1.013e+04 3.877e-10
 69.50593    -59.1 1.013e+04 3.562e-10
 69.54509    -56.7 1.011e+04 3.222e-10
 69.58424    -54.4 1.015e+04 3.034e-10
 69.62340    -52.4 1.020e+04 2.996e-10
 69.66255    -50.7 1.052e+04 3.459e-10
 69.70171    -49.1 1.081e+04 5.002e-10
 69.73356    -47.1 1.115e+04 7.330e-10
 69.75314    -46.4 1.126e+04 7.726e-10
 69.77013    -45.4 1.169e+04 1.036e-09
 69.78674    -45.2 1.170e+04 1.161e-09
 69.79653    -45.0 1.162e+04 1.290e-09
 69.80919    -44.0 1.162e+04 1.311e-09
 69.82877    -42.9 1.149e+04 1.264e-09
 69.84835    -41.7 1.134e+04 1.110e-09
 69.86793    -40.8 1.117e+04 9.230e-10
 69.88750    -40.0 1.100e+04 7.627e-10
 69.90708    -39.3 1.077e+04 6.338e-10
 69.92666    -38.6 1.047e+04 5.328e-10
 69.94624    -37.8 1.024e+04 4.609e-10
 69.96582    -37.1 1.020e+04 4.255e-10
 69.98539    -36.6 1.024e+04 4.214e-10
 70.01486    -35.4 1.040e+04 4.450e-10
 70.05411    -33.1 1.044e+04 5.062e-10
 70.08338    -30.9 1.053e+04 5.579e-10
 70.10286    -30.6 1.050e+04 5.610e-10
 70.12002    -28.7 1.057e+04 6.033e-10
 70.12981    -28.9 1.107e+04 6.846e-10
 70.14202    -28.4 1.110e+04 6.985e-10
 70.16160    -27.2 1.125e+04 8.054e-10
 70.18117    -26.7 1.114e+04 8.415e-10
 70.20075    -25.0 1.107e+04 8.772e-10
 70.22033    -23.8 1.089e+04 8.432e-10
 70.23991    -22.2 1.085e+04 7.847e-10
 70.25949    -21.0 1.083e+04 6.683e-10
 70.27367    -20.1 1.085e+04 5.641e-10
 70.28346    -20.1 1.113e+04 7.080e-10
 70.29864    -19.3 1.112e+04 6.244e-10
 70.31822    -18.4 1.112e+04 5.538e-10
 70.33780    -17.5 1.120e+04 5.208e-10
 70.35738    -16.7 1.128e+04 4.947e-10
 70.37695    -15.9 1.132e+04 4.799e-10
 70.39653    -15.1 1.146e+04 4.827e-10
 70.41611    -14.6 1.147e+04 4.885e-10
 70.43569    -13.8 1.140e+04 5.216e-10
 70.45330    -13.1 1.127e+04 5.461e-10
 70.46309    -14.3 1.132e+04 8.624e-10
 70.47484    -13.9 1.144e+04 9.855e-10
 70.49442    -13.8 1.122e+04 1.083e-09
 70.51400    -12.5 1.146e+04 1.245e-09
 70.53358    -12.1 1.128e+04 1.244e-09
 70.55316    -10.5 1.138e+04 1.283e-09
 70.57273     -9.7 1.140e+04 1.238e-09
 70.59231     -8.7 1.155e+04 1.120e-09
 70.61189     -8.2 1.175e+04 9.440e-10
 70.63147     -8.3 1.171e+04 7.333e-10
 70.65105     -8.6 1.142e+04 5.361e-10
 70.68051    -10.3 1.055e+04 3.623e-10
 70.71977    -10.5 9.921e+03 3.107e-10
 70.75892     -9.7 9.727e+03 2.829e-10
 70.79460     -8.6 9.493e+03 2.295e-10
 70.81418     -8.0 9.425e+03 2.312e-10
 70.83723     -6.8 9.316e+03 1.838e-10
 70.87639     -5.6 9.218e+03 1.468e-10
 70.91555     -4.1 9.165e+03 1.370e-10
 70.95470     -2.4 9.359e+03 1.442e-10
 70.99386     -0.8 9.483e+03 1.839e-10
 71.03301      1.5 9.678e+03 2.455e-10
 71.07217      4.4 1.004e+04 3.198e-10
 71.11027      6.9 1.034e+04 3.571e-10
 71.12976      5.7 1.037e+04 3.502e-10
 71.14050      7.4 1.058e+04 3.428e-10
 71.16008      8.0 1.092e+04 3.614e-10
 71.17965      8.3 1.120e+04 4.056e-10
 71.19923      8.4 1.183e+04 4.641e-10
 71.21881      8.8 1.198e+04 7.028e-10
 71.23839      9.4 1.229e+04 9.777e-10
 71.25797     10.4 1.267e+04 1.398e-09
 71.27754     11.7 1.309e+04 1.868e-09
 71.29712     13.1 1.352e+04 2.318e-09
 71.31670     14.6 1.375e+04 2.635e-09
 71.33471     16.0 1.390e+04 2.748e-09
 71.34450     16.3 1.407e+04 2.776e-09
 71.35586     17.6 1.408e+04 2.766e-09
 71.37543     18.9 1.407e+04 2.580e-09
 71.39501     19.7 1.417e+04 2.356e-09
 71.41459     20.0 1.411e+04 2.100e-09
 71.43417     20.3 1.391e+04 1.918e-09
 71.45315     20.6 1.373e+04 1.843e-09
 71.46294     20.0 1.447e+04 2.795e-09
 71.47332     20.1 1.529e+04 3.429e-09
 71.49290     20.7 1.581e+04 4.049e-09
 71.51248     21.3 1.590e+04 4.126e-09
 71.52711     21.7 1.547e+04 3.658e-09
 71.53685     21.7 1.552e+04 3.662e-09
 71.54664     21.5 1.587e+04 3.720e-09
 71.55643     21.5 1.589e+04 3.715e-09
 71.56622     21.3 1.586e+04 3.715e-09
 71.57601     21.2 1.583e+04 3.703e-09
 71.58580     20.9 1.559e+04 3.705e-09
 71.59559     20.8 1.549e+04 3.693e-09
 71.60476     19.9 1.570e+04 3.938e-09
 71.60966     19.7 1.629e+04 4.562e-09
 71.61517     19.0 1.672e+04 4.874e-09
 71.62459     17.1 1.806e+04 6.177e-09
 71.62948     16.7 1.910e+04 6.612e-09
 71.63474     15.5 1.996e+04 7.514e-09
 71.64948     14.4 2.061e+04 1.007e-08
 71.66910     13.9 2.098e+04 1.404e-08
 71.68868     13.0 2.082e+04 1.829e-08
 71.70826     12.4 2.013e+04 2.039e-08
 71.72784     12.3 1.981e+04 2.076e-08
 71.74742     12.5 1.973e+04 1.919e-08
 71.76699     12.2 1.987e+04 1.548e-08
 71.78643     11.8 1.942e+04 1.157e-08
 71.79622     10.2 1.797e+04 6.051e-09
 71.80615      9.1 1.660e+04 4.508e-09
 71.82573      8.8 1.557e+04 3.889e-09
 71.84531      9.3 1.519e+04 3.965e-09
 71.86488     10.1 1.544e+04 4.546e-09
 71.87502     11.0 1.587e+04 5.396e-09
 71.88480     10.5 1.595e+04 4.612e-09
 71.90404     11.7 1.643e+04 5.773e-09
 71.92362     13.2 1.685e+04 7.656e-09
 71.94320     14.7 1.735e+04 9.954e-09
 71.96277     16.2 1.791e+04 1.215e-08
 71.98235     17.1 1.840e+04 1.401e-08
 72.00193     17.3 1.904e+04 1.680e-08
 72.02151     17.7 1.922e+04 2.170e-08
 72.04109     18.4 1.939e+04 2.570e-08
 72.06066     19.5 1.912e+04 2.307e-08
 72.08024     20.3 1.883e+04 1.736e-08
 72.09488     21.0 1.862e+04 1.285e-08
 72.10462     21.1 1.854e+04 1.107e-08
 72.11441     21.7 1.845e+04 9.023e-09
 72.12419     21.9 1.863e+04 7.997e-09
 72.12941     22.6 1.851e+04 6.312e-09
 72.13430     22.4 1.827e+04 9.817e-09
 72.14018     22.6 1.840e+04 9.061e-09
 72.14507     22.8 1.853e+04 1.301e-08
 72.15356     23.5 1.848e+04 1.146e-08
 72.16335     23.5 1.864e+04 1.051e-08
 72.17314     23.9 1.859e+04 9.325e-09
 72.18293     23.9 1.856e+04 8.675e-09
 72.19272     24.3 1.847e+04 8.084e-09
 72.20251     24.3 1.846e+04 7.702e-09
 72.21230     23.7 1.871e+04 8.008e-09
 72.22208     23.6 1.868e+04 7.980e-09
 72.23187     22.1 1.947e+04 9.051e-09
 72.24166     22.0 1.950e+04 9.167e-09
 72.25145     20.6 2.019e+04 1.060e-08
 72.26124     20.4 2.012e+04 1.070e-08
 72.27597     19.8 2.043e+04 1.303e-08
 72.29560     19.3 2.008e+04 1.326e-08
 72.31518     18.3 1.957e+04 1.196e-08
 72.33476     15.8 1.932e+04 1.027e-08
 72.35433     11.7 1.875e+04 8.440e-09
 72.37391      6.5 1.783e+04 7.573e-09
 72.39349      2.1 1.737e+04 7.909e-09
 72.40553     -0.6 1.743e+04 8.478e-09
 72.41532     -1.6 1.753e+04 8.534e-09
 72.43265     -3.6 1.767e+04 8.190e-09
 72.45222     -7.1 1.807e+04 7.022e-09
 72.46279    -19.4 2.354e+04 6.406e-09
 72.46763    -17.5 2.540e+04 1.008e-08
 72.47660    -30.0 3.017e+04 1.143e-08
 72.48639    -40.7 3.268e+04 1.555e-08
 72.49618    -50.4 2.815e+04 2.592e-08
 72.50597    -56.3 2.486e+04 3.265e-08
 72.51575    -59.9 2.180e+04 3.499e-08
 72.52554    -61.8 2.057e+04 2.806e-08
 72.53533    -63.6 1.977e+04 1.949e-08
 72.54512    -65.8 1.954e+04 1.203e-08
 72.55491    -69.8 1.894e+04 6.291e-09
 72.56964    -75.0 1.757e+04 2.923e-09
 72.58927    -86.7 1.281e+04 9.880e-10
 72.60885    -93.5 1.104e+04 6.944e-10
 72.62843    -96.6 1.115e+04 6.752e-10
 72.64800   -100.8 1.213e+04 8.786e-10
 72.66758   -104.7 1.282e+04 1.288e-09
 72.68716   -107.7 1.326e+04 1.778e-09
 72.70674   -109.9 1.351e+04 2.146e-09
 72.72632   -112.0 1.357e+04 2.240e-09
 72.74589   -114.1 1.352e+04 2.210e-09
 72.76547   -116.3 1.324e+04 1.875e-09
 72.78505   -118.8 1.288e+04 1.498e-09
 72.79607   -121.3 1.252e+04 1.264e-09
 72.80586   -122.9 1.280e+04 1.500e-09
 72.82421   -124.7 1.249e+04 1.370e-09
 72.84378   -125.8 1.222e+04 1.281e-09
 72.86336   -126.3 1.196e+04 1.195e-09
 72.88294   -126.3 1.171e+04 1.098e-09
 72.90252   -126.3 1.149e+04 9.929e-10
 72.92210   -126.1 1.128e+04 9.019e-10
 72.93605   -126.0 1.119e+04 8.450e-10
 72.94584   -125.1 1.118e+04 8.357e-10
 72.96125   -125.6 1.126e+04 8.232e-10
 72.98083   -127.1 1.239e+04 8.559e-10
 73.00041   -129.1 1.432e+04 1.157e-09
 73.01999   -131.0 1.585e+04 1.879e-09
 73.03956   -132.5 1.685e+04 3.089e-09
 73.05914   -133.5 1.746e+04 4.643e-09
 73.07872   -134.4 1.778e+04 6.198e-09
 73.09830   -135.1 1.783e+04 7.335e-09
 73.11788   -135.6 1.785e+04 7.923e-09
 73.12935   -135.8 1.783e+04 8.278e-09
 73.13914   -137.7 1.675e+04 6.959e-09
 73.15703   -137.7 1.609e+04 5.557e-09
 73.17661   -137.6 1.535e+04 4.128e-09
 73.19619   -137.5 1.446e+04 2.863e-09
 73.21577   -137.5 1.343e+04 1.882e-09
 73.23534   -137.6 1.231e+04 1.204e-09
 73.25492   -137.7 1.121e+04 7.757e-10
 73.27450   -137.9 1.035e+04 5.213e-10
 73.29408   -138.0 9.899e+03 3.788e-10
 73.31366   -137.8 9.638e+03 3.123e-10
 73.33323   -137.5 9.499e+03 2.848e-10
 73.35281   -137.0 9.438e+03 2.770e-10
 73.38228   -136.5 9.431e+03 2.741e-10
 73.42153   -135.2 9.499e+03 2.879e-10
 73.46069   -134.0 9.621e+03 3.136e-10
 73.49984   -132.8 9.659e+03 3.241e-10
 73.53900   -131.4 9.627e+03 3.205e-10
 73.57815   -129.9 9.449e+03 2.714e-10
 73.61731   -128.1 9.196e+03 2.126e-10
 73.65647   -126.1 8.980e+03 1.669e-10
 73.69562   -124.0 8.835e+03 1.389e-10
 73.73478   -121.8 8.780e+03 1.280e-10
 73.77393   -119.4 8.771e+03 1.264e-10
 73.79611   -117.1 8.807e+03 1.306e-10
 73.81569   -116.2 8.749e+03 1.225e-10
 73.85225   -114.0 8.868e+03 1.337e-10
 73.89140   -111.8 8.977e+03 1.480e-10
 73.93056   -109.7 9.024e+03 1.541e-10
 73.96971   -107.7 9.029e+03 1.542e-10
 73.99728   -105.7 9.009e+03 1.410e-10
 74.01686   -106.5 8.840e+03 1.174e-10
 74.04803   -104.4 8.770e+03 1.057e-10
 74.08718   -102.3 8.730e+03 1.034e-10
 74.12634   -100.2 8.752e+03 1.046e-10
 74.16549    -98.0 8.786e+03 1.078e-10
 74.20465    -95.7 8.796e+03 1.109e-10
 74.24381    -93.4 8.795e+03 1.121e-10
 74.28296    -91.0 8.795e+03 1.081e-10
 74.32212    -88.7 8.782e+03 1.009e-10
 74.36127    -86.4 8.785e+03 9.489e-11
 74.40043    -84.1 8.801e+03 9.110e-11
 74.43959    -81.8 8.805e+03 9.017e-11
 74.46267    -79.7 8.875e+03 9.216e-11
 74.48225    -79.1 8.862e+03 9.015e-11
 74.51790    -77.0 8.964e+03 9.552e-11
 74.55705    -74.9 9.044e+03 1.081e-10
 74.59621    -72.9 9.140e+03 1.265e-10
 74.63537    -71.0 9.272e+03 1.501e-10
 74.67452    -69.1 9.443e+03 1.786e-10
 74.71368    -67.4 9.638e+03 2.094e-10
 74.75283    -65.6 9.813e+03 2.362e-10
 74.79199    -64.0 9.938e+03 2.483e-10
 74.83115    -62.5 1.001e+04 2.473e-10
 74.87030    -60.9 1.007e+04 2.228e-10
 74.90946    -59.3 1.009e+04 1.978e-10
 74.94861    -57.7 1.008e+04 1.905e-10
 74.98777    -55.9 1.018e+04 1.900e-10
 75.02693    -54.0 1.029e+04 2.031e-10
 75.05832    -51.9 1.037e+04 2.274e-10
 75.07790    -52.4 1.036e+04 2.262e-10
 75.10524    -50.2 1.047e+04 2.442e-10
 75.12924    -48.1 1.056e+04 2.509e-10
 75.14881    -47.7 1.052e+04 2.205e-10
 75.18355    -45.7 1.062e+04 2.166e-10
 75.22271    -43.9 1.071e+04 2.085e-10
 75.26186    -42.3 1.078e+04 2.053e-10
 75.30102    -40.9 1.089e+04 2.162e-10
 75.34017    -39.5 1.096e+04 2.533e-10
 75.37933    -38.0 1.104e+04 3.013e-10
 75.41849    -36.4 1.110e+04 3.349e-10
 75.45764    -34.8 1.114e+04 3.469e-10
 75.49680    -33.2 1.112e+04 3.415e-10
 75.53595    -31.4 1.104e+04 3.100e-10
 75.57511    -29.4 1.094e+04 2.541e-10
 75.61427    -27.4 1.083e+04 1.967e-10
 75.65342    -25.4 1.068e+04 1.530e-10
 75.69258    -23.5 1.052e+04 1.259e-10
 75.73173    -21.5 1.042e+04 1.099e-10
 75.77089    -19.4 1.038e+04 1.007e-10
 75.79580    -17.5 1.038e+04 9.669e-11
 75.81538    -17.0 1.032e+04 8.921e-11
 75.84920    -15.1 1.036e+04 9.404e-11
 75.88836    -13.3 1.033e+04 1.102e-10
 75.92751    -11.0 1.029e+04 1.321e-10
 75.96667     -8.7 1.026e+04 1.391e-10
 76.00583     -6.5 1.024e+04 1.259e-10
 76.04498     -4.9 1.030e+04 1.053e-10
 76.08414     -3.7 1.024e+04 9.436e-11
 76.11935     -2.3 1.027e+04 9.833e-11
 76.13893     -2.5 1.022e+04 1.020e-10
 76.16245     -1.3 1.013e+04 1.323e-10
 76.20161      0.8 1.010e+04 1.643e-10
 76.24076      2.7 1.012e+04 1.667e-10
 76.27992      4.9 1.007e+04 1.451e-10
 76.31907      7.0 1.001e+04 1.116e-10
 76.35823      9.0 1.000e+04 8.126e-11
 76.39739     10.9 1.003e+04 5.996e-11
 76.43654     12.7 9.980e+03 5.128e-11
 76.46236     14.9 9.928e+03 5.139e-11
 76.48194     15.6 9.928e+03 5.112e-11
 76.51485     17.7 9.944e+03 5.512e-11
 76.55401     19.9 9.976e+03 6.463e-11
 76.59317     21.9 1.002e+04 7.987e-11
 76.63232     23.8 1.010e+04 9.969e-11
 76.67148     25.3 1.037e+04 1.298e-10
 76.71063     27.1 1.077e+04 2.206e-10
 76.74979     28.9 1.120e+04 3.749e-10
 76.77906     29.8 1.155e+04 5.168e-10
 76.79545     30.6 1.214e+04 7.505e-10
 76.80524     30.3 1.227e+04 8.745e-10
 76.81812     30.6 1.278e+04 1.248e-09
 76.83770     30.7 1.333e+04 1.941e-09
 76.85727     31.3 1.374e+04 2.728e-09
 76.87685     32.2 1.430e+04 3.806e-09
 76.89643     33.3 1.482e+04 4.758e-09
 76.91601     34.2 1.499e+04 4.813e-09
 76.93559     35.0 1.497e+04 4.280e-09
 76.95516     35.1 1.477e+04 3.316e-09
 76.97474     34.9 1.448e+04 2.499e-09
 76.99432     34.4 1.410e+04 1.947e-09
 77.01390     34.0 1.378e+04 1.651e-09
 77.03348     33.9 1.355e+04 1.505e-09
 77.05305     34.1 1.351e+04 1.564e-09
 77.07263     34.4 1.341e+04 1.457e-09
 77.10210     34.9 1.356e+04 1.522e-09
 77.12893     35.8 1.358e+04 1.448e-09
 77.14850     36.4 1.367e+04 1.663e-09
 77.17062     37.5 1.366e+04 1.662e-09
 77.18998     38.4 1.378e+04 1.805e-09
 77.19987     38.6 1.325e+04 1.322e-09
 77.21966     40.6 1.361e+04 1.643e-09
 77.24893     41.6 1.373e+04 1.763e-09
 77.26841     42.6 1.383e+04 1.818e-09
 77.28799     43.5 1.381e+04 1.717e-09
 77.30757     44.4 1.387e+04 1.579e-09
 77.32715     45.1 1.391e+04 1.339e-09
 77.34672     45.6 1.393e+04 1.075e-09
 77.36630     46.0 1.380e+04 9.274e-10
 77.38588     45.9 1.315e+04 9.039e-10
 77.40546     45.4 1.289e+04 9.133e-10
 77.42504     44.6 1.277e+04 9.572e-10
 77.44461     42.7 1.347e+04 1.103e-09
 77.46201     37.2 1.663e+04 2.463e-09
 77.47180     34.9 1.857e+04 5.385e-09
 77.48377     31.5 1.901e+04 1.363e-08
 77.49841     30.4 1.941e+04 2.152e-08
 77.50815     30.8 1.974e+04 3.154e-08
 77.52288     31.3 1.975e+04 3.191e-08
 77.54250     31.8 1.933e+04 2.502e-08
 77.56208     31.9 1.822e+04 1.144e-08
 77.58166     29.3 1.680e+04 3.952e-09
 77.60124     26.6 1.411e+04 1.438e-09
 77.62082     24.8 1.253e+04 9.257e-10
 77.64039     25.2 1.195e+04 7.449e-10
 77.65997     25.8 1.195e+04 7.023e-10
 77.67955     27.2 1.170e+04 6.062e-10
 77.69913     28.2 1.169e+04 5.861e-10
 77.71871     30.0 1.153e+04 5.361e-10
 77.73029     30.7 1.157e+04 5.383e-10
 77.74008     30.7 1.152e+04 4.766e-10
 77.75786     32.6 1.151e+04 5.021e-10
 77.77744     32.9 1.156e+04 5.170e-10
 77.79539     35.0 1.153e+04 5.717e-10
 77.81507     35.6 1.114e+04 3.656e-10
 77.84616     38.0 1.107e+04 3.613e-10
 77.88532     40.5 1.098e+04 3.402e-10
 77.92447     43.0 1.088e+04 2.961e-10
 77.96363     45.3 1.080e+04 2.396e-10
 78.00278     47.4 1.072e+04 1.910e-10
 78.04194     49.4 1.058e+04 1.678e-10
 78.08110     51.5 1.052e+04 1.682e-10
 78.12025     53.5 1.049e+04 1.779e-10
 78.15941     55.5 1.049e+04 2.057e-10
 78.19856     57.5 1.053e+04 2.486e-10
 78.23772     59.5 1.058e+04 2.971e-10
 78.26100     61.4 1.064e+04 3.332e-10
 78.28058     61.2 1.087e+04 3.817e-10
 78.31603     63.1 1.087e+04 4.037e-10
 78.35519     65.0 1.085e+04 4.066e-10
 78.39434     66.9 1.082e+04 4.042e-10
 78.43350     68.8 1.079e+04 3.996e-10
 78.46205     70.7 1.075e+04 3.942e-10
 78.48163     71.2 1.063e+04 3.382e-10
 78.51181     73.1 1.062e+04 3.364e-10
 78.55097     75.0 1.062e+04 3.429e-10
 78.59012     76.7 1.064e+04 3.649e-10
 78.62928     78.5 1.067e+04 4.014e-10
 78.66844     80.2 1.072e+04 4.249e-10
 78.70759     81.8 1.072e+04 4.292e-10
 78.74675     83.4 1.071e+04 4.133e-10
 78.78590     85.0 1.064e+04 3.763e-10
 78.82506     86.5 1.063e+04 3.507e-10
 78.86422     88.1 1.066e+04 3.513e-10
 78.90337     89.2 1.068e+04 3.682e-10
 78.93264     89.8 1.066e+04 3.858e-10
 78.95212     90.4 1.078e+04 4.849e-10
 78.97170     91.1 1.099e+04 6.614e-10
 78.99128     91.9 1.128e+04 8.830e-10
 79.01086     92.7 1.162e+04 1.133e-09
 79.03043     93.2 1.199e+04 1.404e-09
 79.05001     93.5 1.232e+04 1.662e-09
 79.06959     93.6 1.257e+04 1.791e-09
 79.08917     93.5 1.260e+04 1.767e-09
 79.10875     93.2 1.256e+04 1.635e-09
 79.12832     92.6 1.220e+04 1.230e-09
 79.13821     91.9 1.189e+04 1.019e-09
 79.14810     92.7 1.192e+04 1.091e-09
 79.17746     92.3 1.145e+04 7.857e-10
 79.21662     92.1 1.083e+04 4.959e-10
 79.25578     92.0 1.031e+04 3.384e-10
 79.29493     92.1 1.002e+04 2.814e-10
 79.32204     92.6 9.872e+03 2.738e-10
 79.34162     92.1 9.742e+03 2.266e-10
 79.37324     93.1 9.772e+03 2.632e-10
 79.41240     94.2 9.844e+03 3.061e-10
 79.45156     95.5 9.927e+03 3.418e-10
 79.49071     96.7 1.001e+04 3.643e-10
 79.52987     97.8 1.007e+04 3.756e-10
 79.56902     98.9 1.009e+04 3.781e-10
 79.60818     99.8 1.006e+04 3.746e-10
 79.64734    100.8 9.979e+03 3.644e-10
 79.68649    101.8 9.849e+03 3.495e-10
 79.72565    102.8 9.696e+03 3.296e-10
 79.76480    104.0 9.535e+03 3.014e-10
 79.79518    105.2 9.344e+03 2.565e-10
 79.81476    106.5 9.340e+03 2.500e-10
 79.84312    107.8 9.121e+03 1.975e-10
 79.88227    109.1 8.884e+03 1.357e-10
 79.92143    110.4 8.656e+03 8.292e-11
 79.96058    111.4 8.412e+03 5.162e-11
 79.99974    112.4 8.086e+03 4.270e-11
 80.03890    114.0 8.028e+03 4.255e-11
 80.07805    115.9 8.020e+03 4.328e-11
 80.11721    117.9 8.018e+03 4.791e-11
 80.15636    120.0 8.085e+03 5.933e-11
 80.19552    122.0 8.219e+03 7.945e-11
 80.23468    124.1 8.415e+03 1.090e-10
 80.27383    126.1 8.634e+03 1.448e-10
 80.31299    127.9 8.846e+03 1.748e-10
 80.35214    129.6 8.958e+03 1.802e-10
 80.38308    131.1 8.952e+03 1.778e-10
 80.40265    130.8 8.923e+03 1.667e-10
 80.43046    132.5 8.913e+03 1.614e-10
 80.46175    134.4 8.873e+03 1.514e-10
 80.48132    135.5 8.866e+03 1.577e-10
 80.50877    137.5 8.838e+03 1.465e-10
 80.54792    139.6 8.808e+03 1.336e-10
 80.58708    141.8 8.781e+03 1.200e-10
 80.62624    144.0 8.753e+03 1.057e-10
 80.66539    146.2 8.718e+03 9.092e-11
 80.70455    148.5 8.673e+03 7.704e-11
 80.74370    150.8 8.609e+03 6.657e-11
 80.78286    153.3 8.539e+03 6.225e-11
 80.82202    155.9 8.528e+03 6.228e-11
 80.86117    158.5 8.522e+03 6.373e-11
 80.90033    161.0 8.521e+03 7.134e-11
 80.93948    163.5 8.657e+03 9.387e-11
 80.97864    166.1 9.007e+03 1.383e-10
 81.01780    168.6 9.488e+03 2.101e-10
 81.05695    170.5 9.872e+03 2.929e-10
 81.08622    171.1 1.003e+04 3.560e-10
 81.10570    172.1 1.024e+04 4.492e-10
 81.12528    173.2 1.053e+04 5.914e-10
 81.13790    174.2 1.090e+04 7.697e-10
 81.14769    174.7 1.127e+04 9.262e-10
 81.16444    175.5 1.180e+04 1.196e-09
 81.18401    175.9 1.249e+04 1.588e-09
 81.20359    175.9 1.326e+04 2.181e-09
 81.22317    175.9 1.406e+04 3.070e-09
 81.24275    175.9 1.487e+04 4.343e-09
 81.26233    175.9 1.561e+04 5.924e-09
 81.28190    176.0 1.627e+04 7.238e-09
 81.30148    175.8 1.670e+04 7.406e-09
 81.32106    175.3 1.674e+04 7.235e-09
 81.34064    174.7 1.665e+04 6.430e-09
 81.36022    173.9 1.625e+04 5.160e-09
 81.37979    173.1 1.557e+04 3.995e-09
 81.39937    172.2 1.472e+04 3.172e-09
 81.41895    171.7 1.392e+04 2.684e-09
 81.43853    171.7 1.336e+04 2.416e-09
 81.45371    172.0 1.303e+04 2.231e-09
 81.46350    171.1 1.290e+04 2.178e-09
 81.47118    172.1 1.284e+04 2.097e-09
 81.48097    172.2 1.293e+04 1.923e-09
 81.49726    173.3 1.258e+04 1.630e-09
 81.51684    174.3 1.235e+04 1.414e-09
 81.53642    175.2 1.218e+04 1.257e-09
 81.55600    176.1 1.209e+04 1.194e-09
 81.57557    177.2 1.209e+04 1.196e-09
 81.59515    178.3 1.214e+04 1.223e-09
 81.61473    179.4 1.229e+04 1.299e-09
 81.63431    180.5 1.254e+04 1.436e-09
 81.65389    181.7 1.289e+04 1.648e-09
 81.67346    182.8 1.328e+04 1.938e-09
 81.69304    183.8 1.366e+04 2.302e-09
 81.71262    184.8 1.399e+04 2.730e-09
 81.73220    185.9 1.424e+04 3.192e-09
 81.75178    187.1 1.438e+04 3.610e-09
 81.77135    188.3 1.438e+04 3.816e-09
 81.79093    189.4 1.436e+04 3.809e-09
 81.80447    190.7 1.418e+04 3.694e-09
 81.81426    191.3 1.433e+04 2.848e-09
 81.83009    192.5 1.415e+04 2.814e-09
 81.84967    193.7 1.378e+04 2.678e-09
 81.86924    195.1 1.333e+04 2.430e-09
 81.88882    196.3 1.290e+04 2.123e-09
 81.90840    197.3 1.259e+04 1.827e-09
 81.92798    198.0 1.237e+04 1.583e-09
 81.94756    198.4 1.219e+04 1.403e-09
 81.96713    198.7 1.224e+04 1.331e-09
 81.98422    198.7 1.227e+04 1.334e-09
 81.99401    196.9 1.206e+04 1.330e-09
 82.00629    196.6 1.208e+04 1.340e-09
 82.02587    195.9 1.227e+04 1.407e-09
 82.04545    194.8 1.265e+04 1.621e-09
 82.06502    191.6 1.460e+04 2.175e-09
 82.08460    185.9 1.929e+04 3.115e-09
 82.09924    182.4 2.093e+04 3.864e-09
 82.10898    179.5 2.183e+04 4.612e-09
 82.11877    176.4 2.231e+04 5.406e-09
 82.12855    173.2 2.200e+04 6.173e-09
 82.13765    169.8 2.146e+04 6.839e-09
 82.14255    163.8 2.039e+04 7.675e-09
 82.14813    159.9 2.046e+04 8.209e-09
 82.15792    155.5 2.109e+04 8.944e-09
 82.16771    151.4 2.167e+04 9.937e-09
 82.17750    146.5 2.328e+04 1.126e-08
 82.18729    143.0 2.330e+04 1.232e-08
 82.20202    136.0 2.375e+04 1.302e-08
 82.22165    126.9 2.374e+04 1.256e-08
 82.24123    116.5 2.248e+04 9.624e-09
 82.26080    106.7 1.912e+04 5.531e-09
 82.28038     99.3 1.511e+04 3.010e-09
 82.29996     94.8 1.258e+04 1.803e-09
 82.31954     92.7 1.169e+04 1.184e-09
 82.33912     91.6 1.128e+04 8.101e-10
 82.35869     90.5 1.075e+04 5.787e-10
 82.38816     89.3 1.002e+04 3.856e-10
 82.42741     88.9 9.533e+03 3.046e-10
 82.46144     89.4 9.534e+03 3.044e-10
 82.48101     89.5 9.924e+03 3.199e-10
 82.50515     90.9 1.001e+04 3.364e-10
 82.52463     90.8 9.908e+03 3.456e-10
 82.53490     91.6 1.005e+04 3.747e-10
 82.55447     92.4 1.024e+04 4.290e-10
 82.57405     93.3 1.045e+04 5.014e-10
 82.59363     94.3 1.069e+04 5.864e-10
 82.61321     95.2 1.091e+04 6.717e-10
 82.63279     96.0 1.109e+04 7.512e-10
 82.65236     96.7 1.123e+04 8.224e-10
 82.67194     97.4 1.134e+04 8.907e-10
 82.69152     98.0 1.147e+04 9.641e-10
 82.71110     98.5 1.161e+04 1.042e-09
 82.73068     99.0 1.175e+04 1.119e-09
 82.75025     99.5 1.187e+04 1.190e-09
 82.76983     99.9 1.198e+04 1.251e-09
 82.78941    100.2 1.208e+04 1.301e-09
 82.80431    100.5 1.216e+04 1.338e-09
 82.81410    100.5 1.216e+04 1.366e-09
 82.82857    100.6 1.222e+04 1.395e-09
 82.84814    100.6 1.226e+04 1.413e-09
 82.86772    100.4 1.236e+04 1.440e-09
 82.88730    100.1 1.257e+04 1.507e-09
 82.90688     99.6 1.291e+04 1.648e-09
 82.92646     99.0 1.335e+04 1.894e-09
 82.94603     98.4 1.385e+04 2.269e-09
 82.96561     98.0 1.435e+04 2.763e-09
 82.98519     97.6 1.480e+04 3.334e-09
 83.00477     97.4 1.519e+04 3.910e-09
 83.02435     97.3 1.568e+04 4.479e-09
 83.04392     97.3 1.581e+04 5.138e-09
 83.05505     97.4 1.597e+04 5.073e-09
 83.06484     97.5 1.567e+04 4.804e-09
 83.08308     97.6 1.569e+04 4.585e-09
 83.10266     97.5 1.556e+04 4.255e-09
 83.12224     97.1 1.533e+04 3.904e-09
 83.13759     96.3 1.511e+04 3.610e-09
 83.14738     93.7 1.418e+04 2.588e-09
 83.16139     93.0 1.412e+04 2.554e-09
 83.18097     92.2 1.421e+04 2.677e-09
 83.20055     91.4 1.438e+04 2.942e-09
 83.22013     90.7 1.452e+04 3.320e-09
 83.23970     90.3 1.465e+04 3.766e-09
 83.25928     90.3 1.467e+04 4.190e-09
 83.27886     90.5 1.469e+04 4.430e-09
 83.29844     90.8 1.465e+04 4.381e-09
 83.31802     91.2 1.444e+04 4.134e-09
 83.33759     91.7 1.413e+04 3.806e-09
 83.35717     92.3 1.387e+04 3.470e-09
 83.37675     92.8 1.366e+04 3.160e-09
 83.39633     93.5 1.349e+04 2.817e-09
 83.41591     94.1 1.333e+04 2.440e-09
 83.43548     94.9 1.308e+04 2.133e-09
 83.45506     95.9 1.278e+04 1.891e-09
 83.47088     96.9 1.244e+04 1.672e-09
 83.48067     97.1 1.236e+04 1.737e-09
 83.49422     98.2 1.206e+04 1.531e-09
 83.51380     99.4 1.183e+04 1.360e-09
 83.53337    100.4 1.170e+04 1.226e-09
 83.55295    101.4 1.162e+04 1.117e-09
 83.57253    102.4 1.155e+04 1.027e-09
 83.58557    103.4 1.152e+04 9.560e-10
 83.59536    103.9 1.223e+04 1.656e-09
 83.61169    104.8 1.233e+04 1.646e-09
 83.63126    105.7 1.247e+04 1.653e-09
 83.65084    106.5 1.262e+04 1.683e-09
 83.67042    107.3 1.276e+04 1.726e-09
 83.69000    108.0 1.287e+04 1.766e-09
 83.70958    108.7 1.295e+04 1.792e-09
 83.72915    109.1 1.301e+04 1.817e-09
 83.74873    109.4 1.306e+04 1.862e-09
 83.76831    109.5 1.312e+04 1.957e-09
 83.78789    109.6 1.322e+04 2.126e-09
 83.80416    109.6 1.342e+04 2.403e-09
 83.81395    110.1 1.366e+04 2.726e-09
 83.82704    109.9 1.403e+04 3.106e-09
 83.84662    109.5 1.460e+04 3.700e-09
 83.86620    108.9 1.528e+04 4.501e-09
 83.88578    108.0 1.598e+04 5.432e-09
 83.90536    106.9 1.661e+04 6.334e-09
 83.92493    105.8 1.703e+04 7.013e-09
 83.94451    104.7 1.726e+04 7.210e-09
 83.96409    103.5 1.728e+04 6.986e-09
 83.98367    102.2 1.714e+04 6.303e-09
 84.00325    101.0 1.680e+04 5.212e-09
 84.02282     99.5 1.624e+04 3.997e-09
 84.04240     97.6 1.540e+04 2.903e-09
 84.06198     95.5 1.430e+04 2.084e-09
 84.08156     93.3 1.312e+04 1.613e-09
 84.10114     91.5 1.205e+04 1.375e-09
 84.11609     90.1 1.150e+04 1.292e-09
 84.12587     90.5 1.382e+04 2.414e-09
 84.13744     89.0 1.270e+04 2.022e-09
 84.14723     88.8 1.359e+04 2.659e-09
 84.15987     87.3 1.334e+04 2.590e-09
 84.17945     85.6 1.368e+04 2.771e-09
 84.19903     84.2 1.412e+04 3.015e-09
 84.21366     83.0 1.439e+04 3.017e-09
 84.22340     80.5 1.573e+04 3.721e-09
 84.23319     72.6 2.040e+04 7.250e-09
 84.24298     63.4 2.565e+04 1.919e-08
 84.25277     56.2 2.727e+04 4.681e-08
 84.26256     49.8 2.649e+04 1.179e-07
 84.27235     43.4 2.485e+04 2.706e-07
 84.28214     36.8 2.430e+04 3.742e-07
 84.29192     30.5 2.471e+04 3.058e-07
 84.30171     24.7 2.515e+04 1.840e-07
 84.30888     20.1 2.454e+04 1.021e-07
 84.31377     20.8 2.516e+04 1.538e-07
 84.32129     17.2 2.427e+04 1.158e-07
 84.33108     15.3 2.449e+04 7.757e-08
 84.34087     13.4 2.564e+04 4.505e-08
 84.35066     10.5 2.629e+04 2.484e-08
 84.36045      6.5 2.501e+04 1.523e-08
 84.37518     -0.7 2.058e+04 7.583e-09
 84.39481     -6.7 1.535e+04 4.709e-09
 84.41438     -6.4 1.389e+04 3.657e-09
 84.43396     -4.5 1.345e+04 2.875e-09
 84.45354     -2.5 1.324e+04 2.181e-09
 84.47072     -1.5 1.312e+04 1.683e-09
 84.48051     -1.9 1.302e+04 1.484e-09
 84.49270     -1.3 1.241e+04 1.060e-09
 84.51227     -1.2 1.179e+04 7.684e-10
 84.53185     -1.1 1.141e+04 6.261e-10
 84.55143     -0.6 1.117e+04 6.200e-10
 84.57101     -0.3 1.124e+04 6.923e-10
 84.59059     -0.1 1.152e+04 8.437e-10
 84.61016      0.1 1.202e+04 1.117e-09
 84.62974      0.6 1.243e+04 1.497e-09
 84.64660      1.5 1.269e+04 1.928e-09
 84.65639      1.2 1.265e+04 1.802e-09
 84.66890      2.2 1.280e+04 2.058e-09
 84.68848      2.9 1.294e+04 2.120e-09
 84.70805      3.3 1.289e+04 1.962e-09
 84.72763      3.3 1.262e+04 1.629e-09
 84.74721      2.1 1.252e+04 1.348e-09
 84.76679     -0.0 1.263e+04 1.229e-09
 84.78637     -2.8 1.274e+04 1.324e-09
 84.80400     -4.8 1.248e+04 1.518e-09
 84.81379     -3.6 1.284e+04 1.597e-09
 84.82552     -4.6 1.259e+04 1.848e-09
 84.84510     -4.9 1.249e+04 1.945e-09
 84.86468     -4.9 1.271e+04 1.594e-09
 84.88426     -6.0 1.250e+04 1.016e-09
 84.90383     -8.8 1.120e+04 6.138e-10
 84.93330    -11.3 9.912e+03 3.215e-10
 84.97255    -11.6 9.240e+03 1.755e-10
 85.01171    -11.7 8.998e+03 1.217e-10
 85.05086    -11.1 8.972e+03 1.173e-10
 85.09002    -10.4 9.149e+03 1.788e-10
 85.12769     -8.4 9.419e+03 2.882e-10
 85.14727     -8.4 9.704e+03 3.799e-10
 85.16833     -5.8 1.006e+04 4.739e-10
 85.20749     -4.3 1.033e+04 4.689e-10
 85.24665     -3.4 1.056e+04 4.769e-10
 85.28580     -3.2 1.117e+04 6.261e-10
 85.31507     -2.8 1.099e+04 7.008e-10
 85.33455     -3.3 1.218e+04 1.054e-09
 85.35413     -2.7 1.309e+04 1.336e-09
 85.37371     -5.5 1.553e+04 2.934e-09
 85.39328     -7.2 1.708e+04 5.960e-09
 85.41286     -7.1 1.803e+04 1.155e-08
 85.43244     -5.6 1.808e+04 1.749e-08
 85.45202     -4.0 1.815e+04 1.846e-08
 85.47057     -3.2 1.828e+04 1.571e-08
 85.48036     -4.1 1.753e+04 1.109e-08
 85.49117     -4.3 1.754e+04 8.416e-09
 85.51075     -6.2 1.681e+04 6.829e-09
 85.53033     -7.7 1.606e+04 6.133e-09
 85.54991     -7.9 1.602e+04 6.300e-09
 85.56949     -7.4 1.591e+04 6.957e-09
 85.58906     -6.5 1.580e+04 7.494e-09
 85.60864     -5.2 1.583e+04 7.484e-09
 85.62822     -4.1 1.579e+04 6.917e-09
 85.64780     -3.2 1.541e+04 5.755e-09
 85.66738     -2.8 1.482e+04 4.405e-09
 85.68695     -2.5 1.397e+04 3.362e-09
 85.70653     -1.8 1.329e+04 2.457e-09
 85.71743     -1.2 1.278e+04 1.930e-09
 85.72722     -0.9 1.308e+04 2.140e-09
 85.74569     -0.4 1.300e+04 1.657e-09
 85.76527     -0.0 1.273e+04 1.418e-09
 85.78484      0.1 1.242e+04 1.235e-09
 85.80385      0.3 1.207e+04 1.085e-09
 85.81364     -0.3 1.290e+04 1.111e-09
 85.82400      0.3 1.274e+04 1.022e-09
 85.84358      0.7 1.280e+04 9.797e-10
 85.86316      1.0 1.305e+04 9.888e-10
 85.88273      0.7 1.351e+04 1.134e-09
 85.90231     -0.2 1.415e+04 1.502e-09
 85.92189     -1.3 1.463e+04 2.149e-09
 85.94147     -1.6 1.487e+04 3.191e-09
 85.96105     -1.1 1.494e+04 4.156e-09
 85.98062     -0.1 1.495e+04 4.628e-09
 86.00020      1.0 1.488e+04 4.580e-09
 86.01978      2.2 1.480e+04 4.244e-09
 86.03936      2.8 1.456e+04 3.560e-09
 86.05894      3.4 1.399e+04 2.598e-09
 86.07851      3.9 1.337e+04 1.754e-09
 86.09809      4.3 1.273e+04 1.152e-09
 86.11767      4.3 1.221e+04 7.372e-10
 86.13713      3.4 1.185e+04 5.301e-10
 86.14692      1.7 1.113e+04 4.112e-10
 86.15683     -0.7 1.202e+04 5.096e-10
 86.17640     -4.8 1.346e+04 8.648e-10
 86.19598     -6.6 1.330e+04 1.615e-09
 86.21556     -5.4 1.308e+04 2.971e-09
 86.23514     -3.6 1.362e+04 3.590e-09
 86.24795     -3.1 1.396e+04 3.160e-09
 86.25774     -5.1 1.478e+04 2.583e-09
 86.27429     -6.4 1.365e+04 2.184e-09
 86.29387     -7.7 1.217e+04 1.557e-09
 86.31345     -7.9 1.140e+04 1.022e-09
 86.33303     -7.8 1.117e+04 6.814e-10
 86.35261     -8.4 1.084e+04 4.878e-10
 86.37218     -9.2 1.039e+04 3.585e-10
 86.39176     -9.8 9.909e+03 3.163e-10
 86.42123     -8.1 9.639e+03 3.287e-10
 86.46048     -5.9 9.709e+03 3.840e-10
 86.48030     -4.8 9.943e+03 4.651e-10
 86.48999     -5.3 9.847e+03 4.673e-10
 86.50923     -4.8 1.019e+04 5.615e-10
 86.52881     -4.5 1.029e+04 6.931e-10
 86.54839     -4.2 1.059e+04 8.362e-10
 86.56797     -4.0 1.104e+04 1.028e-09
 86.58754     -3.7 1.149e+04 1.300e-09
 86.60712     -3.6 1.213e+04 1.636e-09
 86.62670     -3.4 1.268e+04 1.963e-09
 86.64628     -3.0 1.290e+04 2.171e-09
 86.66586     -2.5 1.272e+04 2.173e-09
 86.68543     -1.8 1.238e+04 1.962e-09
 86.70501     -1.1 1.203e+04 1.676e-09
 86.72459     -0.5 1.182e+04 1.290e-09
 86.74417     -0.1 1.148e+04 1.025e-09
 86.76375      0.7 1.100e+04 7.795e-10
 86.77846      1.1 1.076e+04 6.143e-10
 86.78825     -0.1 1.058e+04 5.645e-10
 86.80290      0.3 1.065e+04 4.999e-10
 86.81348      0.5 1.073e+04 4.870e-10
 86.82327      0.8 1.039e+04 4.094e-10
 86.85194      1.1 1.080e+04 5.673e-10
 86.89120      2.6 1.113e+04 8.216e-10
 86.93035      5.1 1.145e+04 1.118e-09
 86.95962      7.5 1.153e+04 1.227e-09
 86.97910      7.6 1.158e+04 1.242e-09
 86.99868      9.8 1.148e+04 1.213e-09
 87.01826     10.2 1.163e+04 1.264e-09
 87.03784     12.0 1.128e+04 1.137e-09
 87.05742     12.5 1.143e+04 1.121e-09
 87.07699     13.8 1.119e+04 9.855e-10
 87.09657     14.3 1.118e+04 8.823e-10
 87.11615     14.9 1.112e+04 7.880e-10
 87.13573     15.4 1.108e+04 7.161e-10
 87.14677     16.0 1.098e+04 6.436e-10
 87.15655     16.0 1.101e+04 6.508e-10
 87.17488     16.5 1.096e+04 6.215e-10
 87.19446     17.2 1.092e+04 6.070e-10
 87.21404     17.8 1.090e+04 6.005e-10
 87.23362     18.6 1.073e+04 5.715e-10
 87.25320     19.4 1.070e+04 5.621e-10
 87.27277     20.2 1.064e+04 5.501e-10
 87.29235     20.9 1.057e+04 5.374e-10
 87.32182     22.0 1.056e+04 5.574e-10
 87.36107     23.9 1.039e+04 5.252e-10
 87.40023     26.2 1.023e+04 4.757e-10
 87.43938     28.3 1.012e+04 4.404e-10
 87.47854     30.6 1.014e+04 4.176e-10
 87.50781     31.6 1.030e+04 3.998e-10
 87.52729     32.1 1.034e+04 4.009e-10
 87.54687     33.0 1.045e+04 4.250e-10
 87.56644     33.9 1.055e+04 4.763e-10
 87.58602     34.8 1.068e+04 5.529e-10
 87.60560     35.7 1.080e+04 6.433e-10
 87.62518     36.9 1.094e+04 7.403e-10
 87.64476     37.5 1.107e+04 8.018e-10
 87.67422     39.4 1.121e+04 8.712e-10
 87.71347     41.2 1.138e+04 9.478e-10
 87.75263     42.8 1.140e+04 9.240e-10
 87.79179     44.4 1.137e+04 7.990e-10
 87.81352     45.8 1.127e+04 6.299e-10
 87.83207     44.8 1.112e+04 5.579e-10
 87.84948     43.4 1.092e+04 5.046e-10
 87.86021     44.6 1.096e+04 5.244e-10
 87.87969     45.5 1.094e+04 5.250e-10
 87.89927     46.4 1.086e+04 5.154e-10
 87.91885     47.4 1.078e+04 5.034e-10
 87.93843     48.5 1.076e+04 4.716e-10
 87.95800     49.1 1.077e+04 4.551e-10
 87.98747     50.5 1.079e+04 3.831e-10
 88.02672     52.6 1.067e+04 3.403e-10
 88.06588     55.1 1.051e+04 3.016e-10
 88.10503     57.3 1.058e+04 3.005e-10
 88.13430     58.9 1.067e+04 3.150e-10
 88.14661     59.8 1.071e+04 3.257e-10
 88.15640     59.5 1.057e+04 2.864e-10
 88.17336     60.7 1.057e+04 2.955e-10
 88.19294     61.5 1.064e+04 3.227e-10
 88.21252     62.6 1.088e+04 3.917e-10
 88.23210     63.5 1.124e+04 5.170e-10
 88.25167     64.3 1.169e+04 7.207e-10
 88.27125     65.0 1.216e+04 1.031e-09
 88.29083     65.8 1.265e+04 1.473e-09
 88.31041     66.7 1.317e+04 2.047e-09
 88.32999     67.6 1.369e+04 2.680e-09
 88.34956     68.3 1.414e+04 3.198e-09
 88.36914     68.5 1.436e+04 3.327e-09
 88.37981     68.5 1.434e+04 3.315e-09
 88.38960     68.3 1.472e+04 4.713e-09
 88.40830     68.5 1.462e+04 4.504e-09
 88.42788     68.8 1.437e+04 4.013e-09
 88.44745     69.3 1.403e+04 3.366e-09
 88.46703     69.8 1.367e+04 2.715e-09
 88.47989     70.2 1.338e+04 2.078e-09
 88.48968     70.3 1.313e+04 1.867e-09
 88.50619     70.5 1.286e+04 1.496e-09
 88.52577     71.0 1.248e+04 1.178e-09
 88.54534     71.3 1.211e+04 9.639e-10
 88.56492     72.3 1.178e+04 8.402e-10
 88.58450     73.0 1.172e+04 8.337e-10
 88.60408     73.6 1.173e+04 8.306e-10
 88.62366     74.3 1.176e+04 8.371e-10
 88.64323     74.9 1.184e+04 8.681e-10
 88.66281     75.4 1.201e+04 9.387e-10
 88.68239     75.6 1.226e+04 1.068e-09
 88.70197     75.8 1.253e+04 1.277e-09
 88.72155     76.1 1.284e+04 1.570e-09
 88.74112     76.6 1.309e+04 1.847e-09
 88.76070     77.4 1.319e+04 1.881e-09
 88.78028     77.9 1.315e+04 1.857e-09
 88.79986     78.7 1.308e+04 1.733e-09
 88.81318     79.3 1.289e+04 1.561e-09
 88.82296     79.6 1.293e+04 1.561e-09
 88.83901     80.0 1.260e+04 1.320e-09
 88.85859     80.2 1.224e+04 1.151e-09
 88.87817     80.5 1.212e+04 1.130e-09
 88.89775     80.7 1.214e+04 1.155e-09
 88.91032     80.8 1.228e+04 1.270e-09
 88.92011     80.3 1.208e+04 1.062e-09
 88.93690     80.8 1.224e+04 1.131e-09
 88.95648     81.5 1.247e+04 1.205e-09
 88.97606     82.0 1.269e+04 1.236e-09
 88.99564     82.3 1.272e+04 1.209e-09
 89.01522     82.5 1.266e+04 1.132e-09
 89.03479     82.6 1.244e+04 1.006e-09
 89.05437     82.6 1.213e+04 8.777e-10
 89.08384     82.9 1.135e+04 5.163e-10
 89.12309     83.6 1.094e+04 3.821e-10
 89.14665     84.3 1.072e+04 3.075e-10
 89.15634     83.7 1.111e+04 4.564e-10
 89.17184     84.0 1.100e+04 4.025e-10
 89.19142     84.2 1.091e+04 3.688e-10
 89.21100     84.5 1.090e+04 3.627e-10
 89.23057     84.7 1.091e+04 3.702e-10
 89.25015     84.9 1.094e+04 3.914e-10
 89.26973     85.3 1.103e+04 4.244e-10
 89.28931     85.7 1.116e+04 4.697e-10
 89.30889     86.2 1.129e+04 5.264e-10
 89.32846     86.8 1.140e+04 5.846e-10
 89.34804     87.4 1.147e+04 6.280e-10
 89.36762     87.8 1.152e+04 6.546e-10
 89.39708     88.5 1.154e+04 6.562e-10
 89.43634     89.6 1.162e+04 6.590e-10
 89.47549     90.5 1.164e+04 6.349e-10
 89.51465     91.4 1.159e+04 5.725e-10
 89.55381     92.1 1.146e+04 5.185e-10
 89.59296     93.0 1.130e+04 5.083e-10
 89.62223     93.6 1.133e+04 5.511e-10
 89.64171     93.8 1.137e+04 5.816e-10
 89.66129     94.5 1.144e+04 6.385e-10
 89.68087     94.9 1.153e+04 6.691e-10
 89.70045     95.4 1.166e+04 7.323e-10
 89.72002     95.7 1.183e+04 8.195e-10
 89.73960     95.9 1.202e+04 9.127e-10
 89.75918     96.1 1.217e+04 9.978e-10
 89.77876     96.3 1.225e+04 1.057e-09
 89.79834     96.5 1.225e+04 1.085e-09
 89.81302     96.6 1.224e+04 1.082e-09
 89.82281     96.3 1.191e+04 8.571e-10
 89.83749     96.5 1.184e+04 8.457e-10
 89.85707     96.7 1.175e+04 8.211e-10
 89.87665     96.9 1.164e+04 7.865e-10
 89.90611     97.8 1.142e+04 6.815e-10
 89.93548     98.4 1.125e+04 6.618e-10
 89.95496     98.8 1.105e+04 5.961e-10
 89.97136     99.5 1.080e+04 4.955e-10
 89.99104     99.7 1.062e+04 4.228e-10
 90.02368    101.5 1.031e+04 3.157e-10
 90.06283    103.1 1.008e+04 2.291e-10
 90.10199    104.7 9.913e+03 1.806e-10
 90.14115    106.4 9.861e+03 1.737e-10
 90.18030    108.3 9.854e+03 1.760e-10
 90.21946    110.2 9.852e+03 1.892e-10
 90.25861    112.2 9.935e+03 2.213e-10
 90.29777    114.3 1.013e+04 2.741e-10
 90.33693    116.3 1.040e+04 3.481e-10
 90.37608    118.3 1.066e+04 4.354e-10
 90.40535    119.1 1.082e+04 5.243e-10
 90.42483    119.8 1.095e+04 6.132e-10
 90.44441    120.6 1.110e+04 7.079e-10
 90.46399    121.5 1.133e+04 8.190e-10
 90.47958    122.2 1.170e+04 9.784e-10
 90.48937    121.9 1.208e+04 1.152e-09
 90.50188    122.1 1.271e+04 1.542e-09
 90.51167    121.8 1.275e+04 1.566e-09
 90.52272    121.9 1.354e+04 2.239e-09
 90.54230    121.9 1.440e+04 3.270e-09
 90.56188    121.8 1.532e+04 4.692e-09
 90.58146    121.5 1.613e+04 6.330e-09
 90.60103    120.8 1.670e+04 7.876e-09
 90.62061    120.2 1.717e+04 9.292e-09
 90.64019    119.5 1.762e+04 1.072e-08
 90.65977    118.6 1.790e+04 1.161e-08
 90.67935    117.3 1.788e+04 1.152e-08
 90.69892    116.3 1.754e+04 1.063e-08
 90.71850    116.1 1.683e+04 8.716e-09
 90.73808    116.1 1.595e+04 6.494e-09
 90.75766    115.9 1.497e+04 4.286e-09
 90.77724    115.0 1.403e+04 2.776e-09
 90.79681    113.6 1.319e+04 1.928e-09
 90.81287    112.4 1.257e+04 1.515e-09
 90.82266    111.6 1.218e+04 1.305e-09
 90.83597    111.5 1.200e+04 1.216e-09
 90.85555    111.5 1.194e+04 1.171e-09
 90.87513    111.8 1.189e+04 1.118e-09
 90.89470    111.9 1.186e+04 1.073e-09
 90.91428    112.2 1.175e+04 1.013e-09
 90.93386    112.4 1.169e+04 9.899e-10
 90.96332    112.8 1.186e+04 1.085e-09
 91.00258    112.9 1.175e+04 1.039e-09
 91.03259    112.8 1.177e+04 1.053e-09
 91.05217    113.0 1.147e+04 8.876e-10
 91.08089    112.6 1.186e+04 1.088e-09
 91.12005    112.1 1.226e+04 1.341e-09
 91.14634    112.0 1.256e+04 1.507e-09
 91.15603    111.9 1.264e+04 1.587e-09
 91.16880    111.6 1.282e+04 1.701e-09
 91.18837    111.2 1.285e+04 1.729e-09
 91.20795    110.8 1.282e+04 1.702e-09
 91.22753    110.8 1.268e+04 1.606e-09
 91.24711    110.8 1.244e+04 1.447e-09
 91.26669    111.1 1.216e+04 1.270e-09
 91.28626    111.4 1.188e+04 1.084e-09
 91.30584    111.7 1.162e+04 9.076e-10
 91.32542    112.1 1.142e+04 7.634e-10
 91.34500    112.4 1.127e+04 6.571e-10
 91.36458    112.6 1.110e+04 5.978e-10
 91.38415    112.9 1.102e+04 5.917e-10
 91.40373    113.4 1.101e+04 5.921e-10
 91.42331    113.9 1.102e+04 6.008e-10
 91.44289    114.4 1.109e+04 6.330e-10
 91.46247    114.8 1.121e+04 6.924e-10
 91.47943    115.2 1.140e+04 7.822e-10
 91.48922    115.5 1.124e+04 7.118e-10
 91.50162    115.9 1.148e+04 8.347e-10
 91.52120    116.1 1.177e+04 9.891e-10
 91.54078    116.2 1.206e+04 1.156e-09
 91.56036    116.2 1.237e+04 1.311e-09
 91.57270    116.1 1.266e+04 1.446e-09
 91.58249    116.7 1.265e+04 1.435e-09
 91.59951    116.2 1.291e+04 1.571e-09
 91.61909    115.4 1.312e+04 1.686e-09
 91.63867    114.2 1.336e+04 1.819e-09
 91.65825    112.0 1.381e+04 2.080e-09
 91.67782    108.9 1.459e+04 2.691e-09
 91.69740    105.4 1.547e+04 3.844e-09
 91.71698    102.3 1.594e+04 4.847e-09
 91.73656     99.3 1.592e+04 4.833e-09
 91.75614     96.8 1.551e+04 4.250e-09
 91.77571     94.9 1.465e+04 2.862e-09
 91.79529     92.9 1.362e+04 1.637e-09
 91.81271     89.7 1.260e+04 8.371e-10
 91.82250     90.2 1.283e+04 8.688e-10
 91.83445     87.3 1.194e+04 5.375e-10
 91.85403     83.6 1.112e+04 4.008e-10
 91.87360     81.5 1.065e+04 3.569e-10
 91.89318     79.8 1.050e+04 3.540e-10
 91.91276     79.1 1.044e+04 3.525e-10
 91.94223     78.2 1.055e+04 3.792e-10
 91.98148     77.2 1.078e+04 4.785e-10
 92.02063     76.5 1.092e+04 5.822e-10
 92.05979     75.4 1.104e+04 6.307e-10
 92.09363     73.7 1.114e+04 6.287e-10
 92.11321     74.3 1.077e+04 4.810e-10
 92.13810     72.3 1.096e+04 5.131e-10
 92.17726     69.9 1.120e+04 5.552e-10
 92.21641     67.3 1.164e+04 6.678e-10
 92.25557     64.7 1.244e+04 9.839e-10
 92.29473     63.2 1.306e+04 1.413e-09
 92.32400     61.0 1.365e+04 1.950e-09
 92.34348     60.1 1.368e+04 2.224e-09
 92.36305     60.0 1.339e+04 2.088e-09
 92.38263     60.0 1.300e+04 1.667e-09
 92.40221     59.6 1.255e+04 1.171e-09
 92.42179     58.7 1.203e+04 7.969e-10
 92.44137     57.6 1.142e+04 5.647e-10
 92.46094     56.6 1.079e+04 4.478e-10
 92.47928     56.1 1.035e+04 4.130e-10
 92.48906     54.6 1.015e+04 3.676e-10
 92.50010     54.6 1.015e+04 3.692e-10
 92.51968     54.5 1.016e+04 3.825e-10
 92.53926     54.5 1.016e+04 4.074e-10
 92.55883     54.4 1.021e+04 4.389e-10
 92.57841     54.5 1.029e+04 4.628e-10
 92.59799     54.4 1.035e+04 4.617e-10
 92.61757     54.3 1.035e+04 4.558e-10
 92.63374     54.2 1.029e+04 4.304e-10
 92.64353     54.3 1.038e+04 4.608e-10
 92.65672     54.2 1.026e+04 4.321e-10
 92.68619     54.1 1.003e+04 3.690e-10
 92.72544     54.2 9.967e+03 3.476e-10
 92.76460     54.2 9.927e+03 3.348e-10
 92.80375     54.3 9.908e+03 3.267e-10
 92.84291     54.5 9.871e+03 3.120e-10
 92.88207     54.9 9.803e+03 2.853e-10
 92.92122     55.1 9.723e+03 2.590e-10
 92.96038     55.0 9.632e+03 2.470e-10
 92.99953     54.9 9.585e+03 2.484e-10
 93.03869     54.7 9.567e+03 2.534e-10
 93.07785     54.2 9.494e+03 2.502e-10
 93.11700     53.6 9.426e+03 2.350e-10
 93.14603     52.9 9.350e+03 2.205e-10
 93.16412     53.0 9.486e+03 2.385e-10
 93.17424     53.4 9.352e+03 2.107e-10
 93.19532     52.6 9.292e+03 2.016e-10
 93.23447     51.9 9.264e+03 1.972e-10
 93.27363     51.1 9.288e+03 2.002e-10
 93.31278     50.3 9.360e+03 2.072e-10
 93.35194     49.2 9.523e+03 2.181e-10
 93.39110     47.6 9.839e+03 2.398e-10
 93.43025     45.4 1.025e+04 2.822e-10
 93.46941     43.3 1.046e+04 3.457e-10
 93.50856     41.2 1.059e+04 4.488e-10
 93.53783     39.3 1.102e+04 5.551e-10
 93.55731     37.9 1.114e+04 6.231e-10
 93.57689     36.3 1.137e+04 6.962e-10
 93.59647     34.9 1.142e+04 7.573e-10
 93.61605     33.2 1.142e+04 7.614e-10
 93.63562     32.0 1.133e+04 7.445e-10
 93.66509     31.0 1.091e+04 6.390e-10
 93.70434     29.7 1.035e+04 4.233e-10
 93.74350     28.7 9.858e+03 2.636e-10
 93.78266     28.0 9.556e+03 1.893e-10
 93.81260     28.0 9.377e+03 1.681e-10
 93.83218     29.5 9.270e+03 1.455e-10
 93.86097     29.9 9.205e+03 1.449e-10
 93.90012     30.7 9.218e+03 1.493e-10
 93.93928     31.6 9.282e+03 1.644e-10
 93.97844     32.7 9.430e+03 1.899e-10
 94.01759     33.2 9.842e+03 2.442e-10
 94.05675     33.0 1.028e+04 3.223e-10
 94.09590     31.8 1.109e+04 5.965e-10
 94.13506     30.8 1.213e+04 1.244e-09
 94.17422     30.3 1.252e+04 1.580e-09
 94.21337     29.7 1.249e+04 1.390e-09
 94.23528     28.7 1.213e+04 9.052e-10
 94.24497     29.1 1.183e+04 8.046e-10
 94.26212     28.9 1.182e+04 7.788e-10
 94.29159     26.6 1.127e+04 5.693e-10
 94.33084     24.6 1.125e+04 6.909e-10
 94.37000     23.6 1.121e+04 7.789e-10
 94.40915     23.2 1.107e+04 7.380e-10
 94.44831     22.9 1.079e+04 5.582e-10
 94.47916     22.3 1.052e+04 4.236e-10
 94.49874     23.2 1.058e+04 4.719e-10
 94.52662     22.6 1.027e+04 4.006e-10
 94.56578     22.4 1.028e+04 4.118e-10
 94.59504     21.6 1.059e+04 5.225e-10
 94.61453     21.5 1.091e+04 6.650e-10
 94.63410     21.2 1.132e+04 8.800e-10
 94.65368     20.6 1.183e+04 1.215e-09
 94.67326     20.1 1.235e+04 1.697e-09
 94.69284     20.2 1.281e+04 2.288e-09
 94.71242     20.6 1.314e+04 2.740e-09
 94.73199     20.9 1.328e+04 2.827e-09
 94.75157     20.9 1.323e+04 2.575e-09
 94.76560     20.5 1.304e+04 2.126e-09
 94.77539     20.7 1.304e+04 2.160e-09
 94.80061     19.5 1.245e+04 1.574e-09
 94.83987     17.7 1.172e+04 1.051e-09
 94.87902     16.3 1.099e+04 7.649e-10
 94.91818     15.8 1.051e+04 6.271e-10
 94.95734     15.6 1.019e+04 5.063e-10
 94.99649     15.2 9.938e+03 3.959e-10
 95.03565     14.8 9.642e+03 3.235e-10
 95.07480     14.9 9.350e+03 2.807e-10
 95.11396     15.3 9.114e+03 2.473e-10
 95.14573     16.1 9.094e+03 2.356e-10
 95.16530     15.6 9.196e+03 2.681e-10
 95.19227     15.2 9.451e+03 3.038e-10
 95.23143     14.0 1.019e+04 4.690e-10
 95.27058     13.2 1.105e+04 8.319e-10
 95.29631     13.2 1.115e+04 1.096e-09
 95.31589     14.8 1.097e+04 8.801e-10
 95.33901     14.8 1.119e+04 1.086e-09
 95.35849     15.2 1.110e+04 1.051e-09
 95.37807     15.7 1.081e+04 8.734e-10
 95.39765     15.7 1.043e+04 6.558e-10
 95.42711     16.0 9.667e+03 3.930e-10
 95.46636     15.9 8.961e+03 1.811e-10
 95.50552     15.0 8.450e+03 8.138e-11
 95.54468     14.8 7.966e+03 6.427e-11
 95.58383     15.6 7.885e+03 6.387e-11
 95.62299     16.9 7.898e+03 6.907e-11
 95.66214     18.2 8.013e+03 8.156e-11
 95.70130     19.5 8.168e+03 9.934e-11
 95.74046     20.9 8.336e+03 1.205e-10
 95.77961     22.4 8.507e+03 1.407e-10
 95.81229     23.8 8.676e+03 1.565e-10
 95.83187     23.9 8.577e+03 1.495e-10
 95.85792     25.1 8.779e+03 1.667e-10
 95.89708     25.8 9.143e+03 2.147e-10
 95.93624     25.4 9.928e+03 3.956e-10
 95.97539     23.4 1.160e+04 8.886e-10
 96.00466     21.9 1.238e+04 1.318e-09
 96.02414     20.4 1.322e+04 1.866e-09
 96.04372     19.2 1.352e+04 1.946e-09
 96.06330     17.2 1.348e+04 1.854e-09
 96.08288     15.6 1.312e+04 1.602e-09
 96.10245     13.7 1.270e+04 1.320e-09
 96.13192     11.5 1.181e+04 8.292e-10
 96.15526     10.0 1.143e+04 6.300e-10
 96.16495      8.7 1.120e+04 4.955e-10
 96.18077      6.1 1.091e+04 4.569e-10
 96.20034      3.7 1.087e+04 5.101e-10
 96.21992      2.2 1.095e+04 6.628e-10
 96.23950      1.6 1.122e+04 8.625e-10
 96.25908      1.3 1.159e+04 9.787e-10
 96.27866      0.5 1.171e+04 9.499e-10
 96.29823     -0.7 1.189e+04 8.064e-10
 96.31781     -3.1 1.205e+04 6.817e-10
 96.33739     -5.7 1.215e+04 6.639e-10
 96.35697     -8.8 1.236e+04 7.977e-10
 96.36694    -10.8 1.265e+04 9.621e-10
 96.37673    -10.4 1.244e+04 9.548e-10
 96.40601    -11.6 1.219e+04 1.103e-09
 96.44526    -13.4 1.189e+04 9.346e-10
 96.47885    -16.9 1.170e+04 5.563e-10
 96.49843    -18.2 1.177e+04 5.695e-10
 96.52358    -21.0 1.095e+04 5.610e-10
 96.56273    -20.9 1.082e+04 6.484e-10
 96.60189    -19.9 1.053e+04 4.772e-10
 96.64104    -20.1 1.002e+04 2.859e-10
 96.68020    -19.5 9.843e+03 2.483e-10
 96.71936    -18.4 9.700e+03 2.312e-10
 96.75851    -16.8 9.567e+03 2.270e-10
 96.78778    -15.4 9.542e+03 2.094e-10
 96.80726    -15.2 9.496e+03 2.066e-10
 96.82173    -14.6 9.574e+03 1.877e-10
 96.83152    -14.4 9.501e+03 1.840e-10
 96.84642    -14.6 9.835e+03 1.884e-10
 96.86600    -18.3 1.314e+04 2.549e-10
 96.88557    -23.4 1.476e+04 6.735e-10
 96.89746    -25.2 1.351e+04 1.578e-09
 96.90725    -22.9 1.277e+04 8.966e-10
 96.92473    -23.7 1.225e+04 1.673e-09
 96.94431    -20.6 1.242e+04 2.400e-09
 96.96389    -18.7 1.251e+04 2.452e-09
 96.98346    -17.1 1.259e+04 1.639e-09
 97.00304    -17.0 1.265e+04 8.524e-10
 97.02262    -20.3 1.147e+04 3.783e-10
 97.04220    -22.8 1.012e+04 2.751e-10
 97.07166    -24.1 9.686e+03 2.522e-10
 97.11092    -23.7 9.654e+03 2.781e-10
 97.14542    -23.0 9.911e+03 3.628e-10
 97.16500    -22.2 9.501e+03 2.498e-10
 97.18923    -21.8 1.002e+04 3.784e-10
 97.21850    -21.0 1.017e+04 4.244e-10
 97.23798    -21.3 1.041e+04 4.761e-10
 97.25756    -21.6 1.061e+04 5.776e-10
 97.27713    -21.8 1.078e+04 6.601e-10
 97.29671    -22.0 1.079e+04 7.210e-10
 97.31629    -22.1 1.080e+04 7.438e-10
 97.33587    -22.0 1.071e+04 7.389e-10
 97.35545    -21.5 1.076e+04 6.612e-10
 97.37502    -22.0 1.033e+04 5.190e-10
 97.39460    -21.5 1.021e+04 4.654e-10
 97.41829    -21.7 9.570e+03 2.911e-10
 97.43796    -19.8 1.010e+04 4.283e-10
 97.46332    -20.0 9.609e+03 2.892e-10
 97.50248    -20.4 9.409e+03 2.470e-10
 97.54163    -20.0 9.814e+03 2.762e-10
 97.58079    -20.5 9.891e+03 3.334e-10
 97.61994    -20.4 1.022e+04 4.837e-10
 97.65910    -20.6 1.073e+04 6.653e-10
 97.69826    -21.2 1.117e+04 9.127e-10
 97.73741    -21.0 1.159e+04 1.179e-09
 97.77657    -20.4 1.182e+04 1.279e-09
 97.81198    -19.6 1.159e+04 1.092e-09
 97.83156    -19.8 1.175e+04 1.188e-09
 97.85488    -19.2 1.119e+04 8.089e-10
 97.89404    -19.0 1.085e+04 6.521e-10
 97.93319    -18.0 1.080e+04 6.450e-10
 97.97235    -16.8 1.094e+04 7.797e-10
 98.01150    -14.9 1.114e+04 9.319e-10
 98.05066    -13.1 1.120e+04 9.640e-10
 98.08982    -11.4 1.111e+04 8.024e-10
 98.12897    -10.1 1.099e+04 6.394e-10
 98.16813     -9.3 1.091e+04 5.286e-10
 98.20728     -8.6 1.084e+04 4.976e-10
 98.24644     -7.4 1.082e+04 5.256e-10
 98.27571     -6.0 1.083e+04 4.748e-10
 98.29519     -5.3 1.085e+04 5.146e-10
 98.31477     -4.6 1.102e+04 5.385e-10
 98.33435     -4.0 1.126e+04 6.011e-10
 98.36381     -3.1 1.156e+04 6.783e-10
 98.40306     -1.3 1.188e+04 8.075e-10
 98.44222      0.3 1.202e+04 8.198e-10
 98.47854      1.1 1.233e+04 7.424e-10
 98.49607      0.2 1.473e+04 2.174e-09
 98.49880     -0.1 1.573e+04 3.165e-09
 98.51055     -1.9 1.719e+04 4.611e-09
 98.53013     -3.1 1.722e+04 6.399e-09
 98.54970     -2.7 1.674e+04 8.278e-09
 98.56928     -1.5 1.627e+04 8.254e-09
 98.58886     -0.0 1.583e+04 6.959e-09
 98.60844      1.3 1.538e+04 5.112e-09
 98.62802      1.9 1.498e+04 3.225e-09
 98.64759      1.2 1.425e+04 2.221e-09
 98.67706     -0.4 1.314e+04 1.277e-09
 98.71631      0.6 1.242e+04 1.068e-09
 98.75547      2.6 1.209e+04 9.155e-10
 98.79462      4.6 1.190e+04 7.891e-10
 98.83378      6.2 1.174e+04 6.890e-10
 98.87294      7.6 1.164e+04 6.647e-10
 98.91209      8.4 1.172e+04 7.487e-10
 98.95125      9.5 1.212e+04 1.022e-09
 98.98052      9.7 1.250e+04 1.296e-09
 99.00000     10.4 1.244e+04 1.333e-09
 99.01953     11.4 1.233e+04 1.285e-09
 99.03911     12.2 1.224e+04 1.126e-09
 99.05873     12.4 1.216e+04 9.288e-10
 99.07831     12.0 1.205e+04 7.704e-10
 99.09789     11.4 1.181e+04 7.096e-10
 99.11747     10.2 1.192e+04 7.430e-10
 99.13704      9.0 1.208e+04 8.681e-10
 99.15470      9.0 1.202e+04 1.169e-09
 99.16449      9.1 1.183e+04 1.076e-09
 99.17620      9.8 1.182e+04 1.138e-09
 99.19578     10.4 1.186e+04 1.114e-09
 99.21536     11.5 1.168e+04 9.447e-10
 99.23493     11.1 1.158e+04 7.762e-10
 99.25451     11.5 1.102e+04 5.355e-10
 99.27409     10.6 1.086e+04 4.107e-10
 99.30355     10.9 1.052e+04 3.243e-10
 99.34281     11.0 1.012e+04 2.503e-10
 99.38196     12.0 9.925e+03 2.436e-10
 99.42112     13.4 9.904e+03 2.536e-10
 99.46028     15.1 9.877e+03 2.667e-10
 99.49943     16.9 9.826e+03 2.690e-10
 99.53859     18.8 9.779e+03 2.597e-10
 99.56004     20.7 9.734e+03 2.489e-10
 99.57961     20.8 9.742e+03 2.448e-10
 99.61690     23.0 9.709e+03 2.395e-10
 99.65606     25.3 9.667e+03 2.266e-10
 99.69521     27.7 9.605e+03 2.049e-10
 99.73437     30.0 9.576e+03 1.851e-10
 99.77352     32.2 9.573e+03 1.703e-10
 99.81167     34.6 9.565e+03 1.683e-10
 99.83125     34.6 9.444e+03 1.412e-10
 99.85184     37.1 9.455e+03 1.434e-10
 99.89099     39.5 9.514e+03 1.565e-10
 99.93015     41.7 9.631e+03 1.846e-10
 99.96930     43.9 9.766e+03 2.214e-10
100.00846     46.1 9.872e+03 2.562e-10
