# Columns:
#   distance along LOS (in CHIMPs)
#   peculiar velocity  (in km/s)
#   temperature (K)
#   HI number density
# pos=(127.984,119.104,6.8639), angles=(1.5639,0.127416)
  0.00143    -92.1 1.052e+04 4.022e-10
  0.02256    -91.5 1.075e+04 4.779e-10
  0.06194    -91.0 1.088e+04 5.157e-10
  0.10133    -90.4 1.087e+04 5.013e-10
  0.14071    -90.1 1.083e+04 4.239e-10
  0.16990    -90.2 1.086e+04 3.883e-10
  0.17965    -90.8 1.107e+04 4.835e-10
  0.18974    -91.0 1.108e+04 4.794e-10
  0.20943    -91.2 1.110e+04 4.910e-10
  0.22912    -91.3 1.112e+04 5.226e-10
  0.24535    -91.2 1.109e+04 5.508e-10
  0.25520    -91.1 1.108e+04 5.181e-10
  0.26851    -90.9 1.109e+04 5.370e-10
  0.28820    -90.5 1.108e+04 5.403e-10
  0.30789    -90.2 1.115e+04 5.153e-10
  0.33752    -90.1 1.122e+04 4.268e-10
  0.37700    -89.9 1.120e+04 3.712e-10
  0.40644    -89.9 1.118e+04 3.389e-10
  0.42604    -90.0 1.137e+04 3.456e-10
  0.44573    -90.6 1.162e+04 3.851e-10
  0.46542    -91.4 1.188e+04 4.664e-10
  0.48095    -92.0 1.199e+04 6.155e-10
  0.49079    -92.8 1.203e+04 7.824e-10
  0.50480    -92.7 1.211e+04 1.027e-09
  0.52449    -92.3 1.218e+04 1.229e-09
  0.54419    -91.8 1.222e+04 1.326e-09
  0.56388    -91.3 1.219e+04 1.327e-09
  0.58357    -90.8 1.210e+04 1.200e-09
  0.60326    -90.5 1.195e+04 9.886e-10
  0.62295    -90.4 1.178e+04 7.989e-10
  0.63656    -90.5 1.157e+04 6.614e-10
  0.64641    -91.0 1.134e+04 5.112e-10
  0.66233    -90.8 1.116e+04 4.606e-10
  0.68202    -90.4 1.101e+04 4.201e-10
  0.70172    -90.1 1.091e+04 3.896e-10
  0.73135    -89.7 1.082e+04 3.538e-10
  0.77083    -88.9 1.061e+04 2.883e-10
  0.79238    -88.0 1.039e+04 2.439e-10
  0.81207    -87.7 1.008e+04 2.063e-10
  0.84960    -86.6 9.936e+03 1.895e-10
  0.88898    -85.2 9.902e+03 1.865e-10
  0.92836    -83.7 9.921e+03 2.037e-10
  0.96774    -82.0 9.959e+03 2.280e-10
  1.00713    -80.3 9.988e+03 2.505e-10
  1.04651    -78.7 1.004e+04 2.810e-10
  1.08392    -77.1 1.013e+04 3.245e-10
  1.10361    -76.3 9.770e+03 2.142e-10
  1.12528    -74.7 9.880e+03 2.584e-10
  1.16466    -73.1 1.008e+04 3.288e-10
  1.20404    -71.6 1.023e+04 4.311e-10
  1.24342    -70.0 1.037e+04 5.430e-10
  1.28281    -68.3 1.043e+04 6.315e-10
  1.32219    -66.7 1.043e+04 6.648e-10
  1.36157    -65.0 1.022e+04 6.003e-10
  1.39516    -63.2 9.957e+03 5.115e-10
  1.41485    -62.0 9.978e+03 5.302e-10
  1.44034    -60.2 9.717e+03 4.443e-10
  1.47972    -58.4 9.441e+03 3.502e-10
  1.51910    -56.7 9.179e+03 2.783e-10
  1.55848    -55.1 8.948e+03 2.419e-10
  1.59787    -53.3 8.818e+03 2.319e-10
  1.63725    -51.3 8.773e+03 2.302e-10
  1.67663    -49.2 8.730e+03 2.371e-10
  1.70640    -47.1 8.695e+03 2.468e-10
  1.72609    -46.2 8.695e+03 2.423e-10
  1.75540    -44.1 8.678e+03 2.543e-10
  1.79478    -42.0 8.647e+03 2.620e-10
  1.83416    -40.0 8.604e+03 2.647e-10
  1.87355    -37.8 8.457e+03 2.553e-10
  1.91293    -35.6 8.252e+03 2.182e-10
  1.95231    -33.4 8.016e+03 1.715e-10
  1.99169    -31.3 7.777e+03 1.303e-10
  2.01763    -29.3 7.564e+03 1.009e-10
  2.03733    -28.4 7.719e+03 1.246e-10
  2.07046    -26.4 7.509e+03 9.781e-11
  2.10984    -24.4 7.369e+03 8.401e-11
  2.14923    -22.4 7.333e+03 7.986e-11
  2.18861    -20.5 7.388e+03 8.929e-11
  2.22799    -18.6 7.481e+03 1.084e-10
  2.26737    -16.7 7.560e+03 1.323e-10
  2.30676    -14.4 7.674e+03 1.552e-10
  2.32887    -12.5 7.758e+03 1.652e-10
  2.34856    -12.2 7.885e+03 1.716e-10
  2.38552    -10.8 7.948e+03 1.905e-10
  2.42490     -9.0 7.983e+03 2.114e-10
  2.46429     -7.6 8.047e+03 2.140e-10
  2.50367     -7.0 8.082e+03 2.217e-10
  2.54305     -6.9 8.275e+03 2.651e-10
  2.58243     -6.6 8.523e+03 3.346e-10
  2.62042     -5.8 8.659e+03 3.775e-10
  2.64011     -5.8 8.772e+03 4.047e-10
  2.66120     -4.8 8.644e+03 3.767e-10
  2.70058     -4.0 8.404e+03 3.091e-10
  2.73997     -3.8 8.162e+03 2.507e-10
  2.77935     -3.6 7.977e+03 2.322e-10
  2.81873     -3.0 7.907e+03 2.361e-10
  2.85811     -2.1 7.914e+03 2.411e-10
  2.89750     -1.2 7.943e+03 2.470e-10
  2.93165     -0.3 7.916e+03 2.383e-10
  2.95135     -0.2 8.199e+03 2.995e-10
  2.97626      1.1 8.134e+03 2.790e-10
  3.01564      2.4 7.894e+03 2.119e-10
  3.05503      3.4 7.503e+03 1.391e-10
  3.07915      3.6 7.133e+03 1.006e-10
  3.09884      4.3 7.104e+03 9.351e-11
  3.13379      5.1 6.934e+03 8.687e-11
  3.17317      6.2 6.945e+03 9.085e-11
  3.21256      7.6 7.023e+03 1.026e-10
  3.24289      9.1 7.155e+03 1.177e-10
  3.26258      9.3 7.163e+03 1.174e-10
  3.29132     10.7 7.306e+03 1.323e-10
  3.33071     11.9 7.498e+03 1.522e-10
  3.37009     12.8 7.736e+03 1.845e-10
  3.40947     14.0 7.923e+03 2.199e-10
  3.44885     15.3 8.025e+03 2.387e-10
  3.48824     16.8 8.027e+03 2.328e-10
  3.52762     17.9 7.960e+03 2.011e-10
  3.55413     18.6 7.934e+03 1.763e-10
  3.57382     19.0 8.070e+03 1.857e-10
  3.60638     19.4 7.964e+03 1.638e-10
  3.64577     20.1 7.916e+03 1.590e-10
  3.68515     21.1 7.902e+03 1.569e-10
  3.72453     22.3 7.881e+03 1.492e-10
  3.76392     23.6 7.833e+03 1.340e-10
  3.80330     24.9 7.758e+03 1.157e-10
  3.84268     26.2 7.673e+03 1.026e-10
  3.86536     27.6 7.570e+03 9.782e-11
  3.88506     27.7 7.638e+03 1.131e-10
  3.92145     29.4 7.673e+03 1.214e-10
  3.96083     31.2 7.749e+03 1.300e-10
  4.00021     33.0 7.849e+03 1.423e-10
  4.03959     34.8 7.967e+03 1.627e-10
  4.07898     36.7 8.134e+03 1.970e-10
  4.11836     38.6 8.364e+03 2.484e-10
  4.15691     40.6 8.632e+03 2.968e-10
  4.17660     41.1 8.535e+03 2.440e-10
  4.19712     42.8 8.575e+03 2.409e-10
  4.23651     44.4 8.594e+03 2.266e-10
  4.27589     45.9 8.562e+03 1.982e-10
  4.31527     47.2 8.494e+03 1.624e-10
  4.35466     48.4 8.407e+03 1.310e-10
  4.39404     49.5 8.355e+03 1.146e-10
  4.43342     50.7 8.362e+03 1.149e-10
  4.46815     51.9 8.432e+03 1.233e-10
  4.48784     52.7 8.374e+03 1.151e-10
  4.51219     53.8 8.520e+03 1.307e-10
  4.55157     54.9 8.753e+03 1.632e-10
  4.59095     55.8 9.048e+03 2.087e-10
  4.63033     56.4 9.328e+03 2.551e-10
  4.66972     57.0 9.589e+03 2.996e-10
  4.70910     57.4 9.825e+03 3.412e-10
  4.74848     57.8 1.006e+04 3.798e-10
  4.77938     58.3 1.030e+04 4.291e-10
  4.79908     59.8 1.010e+04 3.765e-10
  4.82725     60.4 1.030e+04 4.120e-10
  4.86663     61.1 1.051e+04 4.644e-10
  4.90601     62.0 1.071e+04 5.190e-10
  4.94540     62.9 1.075e+04 5.279e-10
  4.98478     64.0 1.070e+04 5.043e-10
  5.02416     65.3 1.051e+04 4.288e-10
  5.06354     66.6 1.024e+04 3.516e-10
  5.09062     67.8 1.009e+04 3.287e-10
  5.11031     68.8 1.031e+04 3.471e-10
  5.14231     70.0 1.035e+04 3.658e-10
  5.18169     71.3 1.048e+04 4.381e-10
  5.22107     72.7 1.069e+04 5.659e-10
  5.26046     74.2 1.094e+04 7.110e-10
  5.29984     75.7 1.111e+04 7.575e-10
  5.32928     76.2 1.116e+04 7.632e-10
  5.34887     76.6 1.116e+04 7.607e-10
  5.36856     76.9 1.113e+04 7.396e-10
  5.38826     77.3 1.102e+04 6.848e-10
  5.40166     77.7 1.088e+04 6.178e-10
  5.41151     78.1 1.097e+04 6.612e-10
  5.42764     78.4 1.079e+04 5.791e-10
  5.44733     78.6 1.063e+04 5.236e-10
  5.46702     78.9 1.047e+04 5.094e-10
  5.48671     79.3 1.047e+04 5.158e-10
  5.50640     79.7 1.050e+04 5.271e-10
  5.53604     80.5 1.054e+04 5.571e-10
  5.57552     81.5 1.064e+04 6.265e-10
  5.61490     82.2 1.077e+04 6.672e-10
  5.65428     82.7 1.078e+04 6.592e-10
  5.69340     83.0 1.068e+04 6.066e-10
  5.71310     84.3 1.076e+04 6.570e-10
  5.73305     84.7 1.055e+04 5.594e-10
  5.77243     85.2 1.020e+04 4.262e-10
  5.81181     85.7 9.782e+03 3.018e-10
  5.85120     86.1 9.481e+03 2.374e-10
  5.89058     86.7 9.477e+03 2.372e-10
  5.92996     87.2 9.680e+03 2.753e-10
  5.95940     87.4 9.922e+03 3.307e-10
  5.97900     87.5 1.015e+04 3.996e-10
  5.99869     87.5 1.038e+04 5.000e-10
  6.01429     87.4 1.064e+04 6.236e-10
  6.02414     87.9 1.093e+04 7.322e-10
  6.03807     87.7 1.118e+04 8.601e-10
  6.05776     87.2 1.135e+04 9.521e-10
  6.07745     86.7 1.148e+04 1.001e-09
  6.09714     85.3 1.203e+04 1.140e-09
  6.11684     77.9 1.580e+04 2.030e-09
  6.13653     67.3 2.088e+04 6.401e-09
  6.15125     62.8 2.207e+04 1.127e-08
  6.16104     60.1 2.276e+04 1.695e-08
  6.16981     58.7 2.283e+04 2.051e-08
  6.17473     58.5 2.533e+04 2.606e-08
  6.18073     57.1 2.464e+04 2.757e-08
  6.19058     56.0 2.354e+04 2.632e-08
  6.20043     55.1 2.252e+04 2.149e-08
  6.21524     52.3 2.382e+04 1.378e-08
  6.23498     44.4 2.237e+04 6.812e-09
  6.25467     38.0 2.064e+04 6.830e-09
  6.27437     34.9 1.997e+04 9.328e-09
  6.29406     34.2 1.981e+04 1.436e-08
  6.31375     34.6 1.974e+04 1.961e-08
  6.32553     34.9 1.999e+04 2.382e-08
  6.33537     35.4 2.056e+04 2.105e-08
  6.35313     35.6 2.046e+04 2.044e-08
  6.37282     35.5 2.013e+04 1.838e-08
  6.39251     35.1 1.968e+04 1.475e-08
  6.41221     34.4 1.893e+04 1.073e-08
  6.43190     33.3 1.785e+04 7.485e-09
  6.45159     32.1 1.661e+04 5.310e-09
  6.47128     31.1 1.562e+04 4.092e-09
  6.49097     31.0 1.721e+04 5.417e-09
  6.51066     29.8 1.668e+04 5.264e-09
  6.53035     29.2 1.633e+04 5.273e-09
  6.54507     29.5 1.596e+04 4.755e-09
  6.55394     29.2 1.571e+04 4.332e-09
  6.55886     28.7 1.659e+04 5.709e-09
  6.56472     28.3 1.644e+04 5.494e-09
  6.57456     27.8 1.622e+04 5.246e-09
  6.58441     27.1 1.601e+04 5.022e-09
  6.59425     26.5 1.573e+04 4.792e-09
  6.60907     25.9 1.545e+04 4.330e-09
  6.62692     25.1 1.542e+04 4.345e-09
  6.63676     25.4 1.601e+04 4.820e-09
  6.64850     21.6 1.749e+04 5.651e-09
  6.66819     14.8 2.108e+04 1.098e-08
  6.68291     12.9 2.258e+04 1.736e-08
  6.69271     10.7 2.399e+04 2.682e-08
  6.70255      9.7 2.378e+04 4.008e-08
  6.70955      9.8 2.325e+04 5.435e-08
  6.71448      8.9 2.195e+04 5.214e-08
  6.72225      8.5 2.189e+04 5.734e-08
  6.73209      3.6 2.475e+04 7.906e-08
  6.74194     -5.3 2.747e+04 1.498e-07
  6.75178    -13.7 2.432e+04 3.459e-07
  6.76163    -19.7 2.209e+04 5.557e-07
  6.77147    -23.4 2.129e+04 6.102e-07
  6.78132    -24.2 2.098e+04 3.838e-07
  6.78736    -23.1 2.168e+04 1.559e-07
  6.79229    -22.8 2.201e+04 1.218e-07
  6.80101    -22.3 2.303e+04 5.170e-08
  6.81086    -25.3 2.307e+04 2.344e-08
  6.82567    -29.3 2.016e+04 1.183e-08
  6.84541    -32.2 1.609e+04 4.153e-09
  6.86511    -34.7 1.386e+04 1.910e-09
  6.88480    -35.4 1.266e+04 1.368e-09
  6.90449    -35.0 1.234e+04 1.217e-09
  6.92418    -34.4 1.231e+04 1.195e-09
  6.93816    -34.3 1.242e+04 1.235e-09
  6.94800    -34.1 1.209e+04 1.160e-09
  6.96356    -34.4 1.240e+04 1.406e-09
  6.98325    -34.5 1.280e+04 1.812e-09
  7.00295    -34.1 1.319e+04 2.248e-09
  7.02264    -33.3 1.356e+04 2.601e-09
  7.04233    -32.7 1.369e+04 2.716e-09
  7.06202    -32.2 1.359e+04 2.542e-09
  7.08171    -31.9 1.322e+04 1.931e-09
  7.09377    -32.1 1.264e+04 1.373e-09
  7.10362    -32.4 1.239e+04 1.607e-09
  7.12109    -32.6 1.188e+04 1.205e-09
  7.14078    -32.8 1.149e+04 9.492e-10
  7.16048    -33.0 1.120e+04 8.027e-10
  7.18017    -33.0 1.096e+04 7.172e-10
  7.19986    -32.7 1.081e+04 6.684e-10
  7.21955    -32.4 1.078e+04 6.396e-10
  7.23924    -32.3 1.080e+04 6.089e-10
  7.24939    -32.3 1.087e+04 5.766e-10
  7.25924    -32.4 1.080e+04 6.345e-10
  7.27862    -32.6 1.088e+04 6.182e-10
  7.29832    -33.0 1.097e+04 6.119e-10
  7.31801    -33.6 1.112e+04 6.190e-10
  7.33770    -34.2 1.120e+04 6.496e-10
  7.35739    -34.8 1.123e+04 6.758e-10
  7.38702    -35.8 1.122e+04 6.761e-10
  7.42650    -36.5 1.113e+04 6.294e-10
  7.46589    -38.1 1.108e+04 5.491e-10
  7.49533    -39.1 1.125e+04 6.253e-10
  7.51492    -42.0 1.158e+04 6.495e-10
  7.53461    -44.9 1.170e+04 9.011e-10
  7.55078    -46.6 1.178e+04 1.261e-09
  7.56063    -46.3 1.190e+04 1.280e-09
  7.57399    -47.2 1.192e+04 1.518e-09
  7.59369    -47.7 1.192e+04 1.562e-09
  7.61338    -48.4 1.194e+04 1.326e-09
  7.63307    -50.6 1.171e+04 8.058e-10
  7.65276    -55.1 1.088e+04 4.333e-10
  7.67245    -59.4 9.597e+03 2.995e-10
  7.69214    -61.0 9.170e+03 2.750e-10
  7.70640    -61.4 9.108e+03 2.757e-10
  7.71625    -61.1 9.236e+03 2.928e-10
  7.74147    -61.6 9.119e+03 2.897e-10
  7.78095    -61.7 8.928e+03 2.728e-10
  7.82033    -61.7 8.663e+03 2.219e-10
  7.85237    -61.8 8.494e+03 1.922e-10
  7.87206    -62.3 9.049e+03 2.746e-10
  7.89910    -62.3 8.897e+03 2.554e-10
  7.93848    -62.1 8.874e+03 2.570e-10
  7.97786    -61.7 9.032e+03 3.092e-10
  8.01725    -60.9 9.420e+03 3.817e-10
  8.04668    -60.4 9.838e+03 4.417e-10
  8.06628    -60.7 1.004e+04 4.570e-10
  8.08597    -61.2 1.026e+04 4.700e-10
  8.10566    -61.9 1.036e+04 4.776e-10
  8.12535    -62.6 1.047e+04 4.906e-10
  8.14504    -63.1 1.062e+04 5.185e-10
  8.16341    -63.5 1.064e+04 5.442e-10
  8.17326    -65.1 1.047e+04 6.729e-10
  8.18443    -65.2 1.025e+04 6.524e-10
  8.20412    -65.1 1.007e+04 6.169e-10
  8.22381    -64.9 9.900e+03 5.705e-10
  8.24350    -64.6 9.755e+03 5.154e-10
  8.26319    -64.5 9.612e+03 4.519e-10
  8.29283    -64.9 9.333e+03 3.687e-10
  8.33231    -64.1 8.815e+03 2.791e-10
  8.37169    -62.6 8.241e+03 2.034e-10
  8.41107    -61.2 7.923e+03 1.609e-10
  8.45045    -59.6 7.857e+03 1.459e-10
  8.47484    -57.9 7.874e+03 1.446e-10
  8.49454    -58.5 7.573e+03 1.227e-10
  8.52922    -57.7 7.905e+03 1.490e-10
  8.56860    -57.0 8.939e+03 2.967e-10
  8.60799    -55.4 1.008e+04 5.607e-10
  8.64737    -53.8 1.097e+04 8.551e-10
  8.67681    -52.2 1.046e+04 8.114e-10
  8.69640    -51.8 1.055e+04 8.040e-10
  8.71609    -51.6 1.065e+04 7.637e-10
  8.73578    -51.9 1.145e+04 7.830e-10
  8.74617    -53.7 1.400e+04 9.813e-10
  8.75602    -52.8 1.520e+04 1.384e-09
  8.77517    -54.9 1.728e+04 2.422e-09
  8.78589    -56.2 1.825e+04 4.284e-09
  8.79573    -54.8 1.491e+04 1.422e-09
  8.81455    -56.0 1.626e+04 2.068e-09
  8.83424    -56.6 1.685e+04 2.779e-09
  8.85393    -56.8 1.690e+04 3.162e-09
  8.87362    -57.2 1.656e+04 3.153e-09
  8.89331    -57.7 1.533e+04 2.522e-09
  8.91301    -59.2 1.361e+04 1.734e-09
  8.93166    -61.1 1.201e+04 1.220e-09
  8.94151    -59.6 1.170e+04 1.146e-09
  8.95239    -60.1 1.143e+04 9.764e-10
  8.97208    -60.5 1.139e+04 8.952e-10
  8.99177    -61.2 1.135e+04 8.685e-10
  9.01146    -63.0 1.216e+04 9.365e-10
  9.03115    -66.1 1.394e+04 1.468e-09
  9.05085    -68.6 1.555e+04 3.262e-09
  9.07054    -70.0 1.675e+04 6.607e-09
  9.08728    -70.7 1.791e+04 1.066e-08
  9.09712    -68.9 1.649e+04 6.047e-09
  9.10992    -69.6 1.762e+04 9.702e-09
  9.12961    -70.3 1.867e+04 1.168e-08
  9.14930    -72.3 1.915e+04 1.171e-08
  9.16899    -76.8 1.997e+04 7.896e-09
  9.18868    -85.5 1.828e+04 4.024e-09
  9.20838    -95.4 1.552e+04 3.003e-09
  9.22807   -102.1 1.472e+04 2.977e-09
  9.24290   -106.1 1.450e+04 3.576e-09
  9.25274   -103.5 1.498e+04 3.706e-09
  9.26745   -107.0 1.511e+04 4.322e-09
  9.28714   -111.2 1.559e+04 4.385e-09
  9.30683   -117.0 1.615e+04 4.024e-09
  9.32652   -124.0 1.601e+04 3.336e-09
  9.34622   -130.2 1.508e+04 3.022e-09
  9.36591   -134.4 1.426e+04 2.859e-09
  9.38560   -136.7 1.366e+04 2.599e-09
  9.39851   -138.2 1.320e+04 2.131e-09
  9.40836   -137.9 1.381e+04 2.544e-09
  9.42498   -139.9 1.344e+04 1.947e-09
  9.44467   -142.5 1.303e+04 1.453e-09
  9.46436   -145.3 1.251e+04 1.237e-09
  9.48405   -147.6 1.227e+04 1.202e-09
  9.50375   -149.1 1.221e+04 1.201e-09
  9.52344   -150.0 1.211e+04 1.289e-09
  9.54313   -150.4 1.219e+04 1.435e-09
  9.55413   -150.5 1.229e+04 1.549e-09
  9.56398   -150.7 1.287e+04 2.006e-09
  9.58251   -150.9 1.293e+04 2.044e-09
  9.60220   -151.6 1.310e+04 2.108e-09
  9.62189   -153.0 1.355e+04 2.315e-09
  9.64159   -154.9 1.426e+04 2.775e-09
  9.66128   -156.8 1.504e+04 3.521e-09
  9.68097   -158.6 1.567e+04 4.368e-09
  9.69991   -160.3 1.597e+04 4.935e-09
  9.70975   -160.0 1.673e+04 6.687e-09
  9.72035   -161.4 1.678e+04 6.900e-09
  9.74004   -162.5 1.658e+04 6.745e-09
  9.75973   -163.1 1.586e+04 5.398e-09
  9.77942   -163.7 1.490e+04 3.789e-09
  9.79912   -164.4 1.385e+04 2.575e-09
  9.81881   -165.2 1.287e+04 1.803e-09
  9.83850   -165.6 1.209e+04 1.330e-09
  9.85552   -165.7 1.150e+04 1.021e-09
  9.86537   -165.8 1.162e+04 1.070e-09
  9.87788   -165.9 1.111e+04 8.321e-10
  9.89757   -165.7 1.067e+04 6.595e-10
  9.91726   -165.0 1.029e+04 5.305e-10
  9.93696   -164.2 1.001e+04 4.378e-10
  9.95665   -163.4 9.826e+03 3.759e-10
  9.98628   -161.8 9.654e+03 3.171e-10
 10.01134   -160.3 9.631e+03 3.058e-10
 10.02109   -162.2 9.904e+03 3.833e-10
 10.03541   -161.5 9.932e+03 3.845e-10
 10.05510   -161.0 1.003e+04 4.051e-10
 10.07479   -160.5 1.018e+04 4.464e-10
 10.09449   -160.0 1.035e+04 5.071e-10
 10.11418   -159.5 1.054e+04 5.869e-10
 10.13387   -158.9 1.073e+04 6.856e-10
 10.15356   -158.1 1.093e+04 8.035e-10
 10.16676   -157.4 1.117e+04 9.425e-10
 10.17661   -159.0 1.195e+04 1.327e-09
 10.19294   -158.6 1.253e+04 1.598e-09
 10.21263   -158.3 1.319e+04 1.936e-09
 10.23233   -158.0 1.383e+04 2.333e-09
 10.25202   -157.7 1.435e+04 2.767e-09
 10.27171   -157.3 1.468e+04 3.186e-09
 10.29140   -156.8 1.481e+04 3.524e-09
 10.31109   -156.0 1.479e+04 3.735e-09
 10.32238   -155.1 1.475e+04 3.795e-09
 10.33223   -156.9 1.445e+04 3.789e-09
 10.35047   -156.0 1.403e+04 3.307e-09
 10.37017   -155.2 1.359e+04 2.740e-09
 10.38986   -154.6 1.313e+04 2.194e-09
 10.40955   -154.1 1.269e+04 1.723e-09
 10.42924   -153.8 1.229e+04 1.348e-09
 10.44893   -153.4 1.198e+04 1.062e-09
 10.46815   -153.0 1.177e+04 8.457e-10
 10.47800   -154.5 1.142e+04 6.441e-10
 10.48831   -154.1 1.115e+04 5.786e-10
 10.50800   -153.6 1.093e+04 5.365e-10
 10.52770   -153.1 1.079e+04 4.941e-10
 10.54739   -152.5 1.065e+04 4.558e-10
 10.56708   -151.9 1.052e+04 4.255e-10
 10.58677   -151.0 1.042e+04 4.071e-10
 10.60646   -150.0 1.035e+04 4.005e-10
 10.62377   -149.0 1.032e+04 3.995e-10
 10.63362   -149.3 1.054e+04 4.661e-10
 10.64584   -148.3 1.063e+04 4.887e-10
 10.66554   -147.3 1.086e+04 5.315e-10
 10.68523   -146.6 1.133e+04 6.050e-10
 10.70492   -146.2 1.204e+04 7.242e-10
 10.72461   -146.2 1.287e+04 9.105e-10
 10.74430   -146.3 1.358e+04 1.187e-09
 10.76399   -146.3 1.400e+04 1.543e-09
 10.77939   -146.1 1.415e+04 1.951e-09
 10.78924   -146.5 1.474e+04 3.584e-09
 10.80337   -145.5 1.467e+04 3.666e-09
 10.82307   -144.7 1.426e+04 3.659e-09
 10.84276   -144.1 1.412e+04 3.415e-09
 10.86245   -143.6 1.395e+04 3.326e-09
 10.88214   -143.0 1.372e+04 3.299e-09
 10.90183   -142.3 1.345e+04 3.213e-09
 10.92152   -141.6 1.319e+04 3.026e-09
 10.93501   -140.9 1.295e+04 2.763e-09
 10.94485   -141.3 1.321e+04 2.469e-09
 10.96091   -140.5 1.292e+04 2.300e-09
 10.98060   -139.6 1.257e+04 2.099e-09
 11.00029   -138.7 1.222e+04 1.854e-09
 11.01998   -137.8 1.187e+04 1.597e-09
 11.03967   -136.8 1.149e+04 1.357e-09
 11.05936   -135.7 1.113e+04 1.154e-09
 11.07905   -134.5 1.083e+04 9.944e-10
 11.09063   -133.4 1.057e+04 8.671e-10
 11.10047   -133.5 1.069e+04 8.614e-10
 11.11844   -132.4 1.050e+04 7.726e-10
 11.13813   -131.2 1.031e+04 7.036e-10
 11.15782   -129.9 1.018e+04 6.514e-10
 11.17751   -128.6 1.008e+04 6.107e-10
 11.19720   -127.4 1.001e+04 5.758e-10
 11.21689   -126.1 9.953e+03 5.482e-10
 11.23640   -124.8 9.949e+03 5.309e-10
 11.24625   -124.8 1.015e+04 6.007e-10
 11.25628   -123.5 1.016e+04 5.946e-10
 11.27597   -122.3 1.016e+04 5.926e-10
 11.29566   -121.1 1.016e+04 5.921e-10
 11.31535   -119.9 1.023e+04 5.988e-10
 11.33504   -118.8 1.052e+04 6.511e-10
 11.35473   -117.9 1.082e+04 7.424e-10
 11.37442   -117.0 1.113e+04 8.712e-10
 11.39202   -116.3 1.152e+04 1.066e-09
 11.40186   -116.2 1.116e+04 9.962e-10
 11.41381   -115.5 1.146e+04 1.186e-09
 11.43350   -114.9 1.193e+04 1.455e-09
 11.45319   -114.4 1.251e+04 1.818e-09
 11.47288   -114.1 1.311e+04 2.242e-09
 11.49257   -114.0 1.359e+04 2.662e-09
 11.51226   -114.5 1.394e+04 3.093e-09
 11.53195   -115.3 1.418e+04 3.594e-09
 11.54764   -115.7 1.433e+04 4.161e-09
 11.55748   -115.2 1.411e+04 1.896e-09
 11.56994   -115.4 1.408e+04 2.270e-09
 11.57978   -115.8 1.459e+04 3.448e-09
 11.59103   -115.9 1.430e+04 3.835e-09
 11.61072   -115.8 1.404e+04 4.145e-09
 11.63041   -115.5 1.393e+04 4.475e-09
 11.65010   -115.0 1.396e+04 4.802e-09
 11.66979   -114.4 1.399e+04 4.940e-09
 11.68948   -113.6 1.397e+04 4.932e-09
 11.70326   -112.7 1.389e+04 4.835e-09
 11.71310   -112.6 1.371e+04 4.221e-09
 11.72887   -111.7 1.371e+04 4.268e-09
 11.74856   -110.8 1.363e+04 4.094e-09
 11.76825   -109.8 1.346e+04 3.713e-09
 11.78794   -108.8 1.320e+04 3.179e-09
 11.80763   -108.1 1.282e+04 2.549e-09
 11.82732   -107.5 1.232e+04 1.970e-09
 11.84702   -106.9 1.176e+04 1.518e-09
 11.85887   -106.4 1.121e+04 1.199e-09
 11.86872   -106.0 1.205e+04 1.710e-09
 11.88640   -105.4 1.155e+04 1.376e-09
 11.90609   -104.6 1.108e+04 1.134e-09
 11.92578   -103.7 1.071e+04 9.692e-10
 11.94547   -102.9 1.045e+04 8.515e-10
 11.96516   -102.0 1.024e+04 7.554e-10
 11.98486   -101.1 1.007e+04 6.775e-10
 12.00455   -100.3 9.969e+03 6.105e-10
 12.01449    -99.5 9.894e+03 5.541e-10
 12.02434   -100.3 1.131e+04 9.327e-10
 12.04393    -99.6 1.110e+04 8.731e-10
 12.06362    -98.8 1.084e+04 8.027e-10
 12.08331    -97.8 1.058e+04 7.286e-10
 12.10300    -96.8 1.037e+04 6.636e-10
 12.12269    -95.7 1.019e+04 6.117e-10
 12.14239    -94.5 1.007e+04 5.749e-10
 12.16026    -93.2 1.001e+04 5.534e-10
 12.17011    -94.0 1.113e+04 9.642e-10
 12.18177    -92.8 1.091e+04 8.982e-10
 12.20146    -91.6 1.070e+04 8.330e-10
 12.22115    -90.0 1.047e+04 7.561e-10
 12.24084    -88.2 1.025e+04 6.700e-10
 12.26053    -86.6 1.006e+04 5.837e-10
 12.28023    -85.0 9.882e+03 5.078e-10
 12.29992    -83.4 9.759e+03 4.530e-10
 12.31588    -82.3 9.723e+03 4.251e-10
 12.32573    -82.1 9.766e+03 4.481e-10
 12.34924    -80.9 9.679e+03 3.906e-10
 12.38872    -78.1 9.321e+03 3.011e-10
 12.42811    -75.0 8.946e+03 2.330e-10
 12.46185    -72.0 8.732e+03 1.965e-10
 12.48154    -72.5 8.983e+03 2.390e-10
 12.50687    -69.5 8.944e+03 2.344e-10
 12.54625    -66.7 8.937e+03 2.434e-10
 12.58564    -64.0 9.015e+03 2.757e-10
 12.62502    -61.3 9.080e+03 3.053e-10
 12.66440    -58.5 9.094e+03 3.123e-10
 12.70378    -55.7 9.005e+03 3.073e-10
 12.74317    -52.6 8.850e+03 2.653e-10
 12.77309    -49.7 8.677e+03 2.111e-10
 12.79278    -49.6 8.408e+03 1.161e-10
 12.82193    -46.8 8.309e+03 8.112e-11
 12.86132    -44.2 8.237e+03 6.039e-11
 12.90070    -41.5 8.181e+03 5.186e-11
 12.94008    -38.3 8.170e+03 5.001e-11
 12.97946    -35.5 8.233e+03 4.996e-11
 13.01885    -34.6 8.369e+03 6.755e-11
 13.05823    -35.6 1.000e+04 3.255e-10
 13.08433    -35.9 1.226e+04 1.310e-09
 13.09407    -36.6 1.213e+04 1.777e-09
 13.10726    -36.7 1.268e+04 2.513e-09
 13.12695    -34.5 1.325e+04 3.989e-09
 13.14664    -32.7 1.349e+04 4.473e-09
 13.16634    -30.9 1.356e+04 4.501e-09
 13.18603    -29.6 1.329e+04 3.500e-09
 13.20572    -29.2 1.282e+04 2.214e-09
 13.22541    -31.3 1.183e+04 1.202e-09
 13.23975    -33.7 1.029e+04 6.466e-10
 13.24959    -34.9 9.850e+03 5.204e-10
 13.26479    -35.1 9.471e+03 4.259e-10
 13.29443    -34.6 9.107e+03 3.459e-10
 13.33391    -32.5 8.568e+03 2.483e-10
 13.37329    -30.2 8.303e+03 1.941e-10
 13.39556    -28.0 8.037e+03 1.485e-10
 13.41525    -27.9 8.096e+03 1.657e-10
 13.45206    -25.3 7.924e+03 1.338e-10
 13.49144    -22.8 7.840e+03 1.128e-10
 13.53082    -20.3 7.808e+03 1.005e-10
 13.57020    -17.8 7.820e+03 9.699e-11
 13.60959    -15.4 7.935e+03 1.022e-10
 13.64897    -13.1 8.075e+03 1.282e-10
 13.68711    -10.8 8.316e+03 1.709e-10
 13.70680    -10.3 8.346e+03 1.582e-10
 13.72773     -8.3 8.779e+03 2.367e-10
 13.76712     -6.4 9.401e+03 3.838e-10
 13.79656     -5.2 9.984e+03 6.114e-10
 13.81615     -5.0 1.021e+04 7.038e-10
 13.83584     -4.0 1.037e+04 8.917e-10
 13.85238     -2.9 1.071e+04 1.024e-09
 13.86222     -2.8 1.079e+04 1.031e-09
 13.87522     -1.8 1.106e+04 1.179e-09
 13.89492     -1.1 1.129e+04 1.266e-09
 13.91461     -0.6 1.134e+04 1.326e-09
 13.93430      0.2 1.140e+04 1.387e-09
 13.95399      0.9 1.126e+04 1.396e-09
 13.97368      1.8 1.146e+04 1.507e-09
 13.99337      1.4 1.276e+04 1.807e-09
 14.00800     -4.4 1.714e+04 4.060e-09
 14.01784     -6.8 1.846e+04 5.003e-09
 14.02778    -12.8 2.105e+04 1.258e-08
 14.03758    -15.8 2.215e+04 2.665e-08
 14.04743    -17.5 2.270e+04 6.425e-08
 14.05727    -17.7 2.228e+04 1.784e-07
 14.06712    -16.9 2.197e+04 4.390e-07
 14.07696    -18.4 2.202e+04 6.652e-07
 14.08571    -20.9 2.217e+04 4.114e-07
 14.09063    -21.1 2.211e+04 3.452e-07
 14.09665    -21.4 2.364e+04 1.009e-07
 14.10650    -22.8 2.344e+04 3.326e-08
 14.11635    -24.4 2.259e+04 1.522e-08
 14.13116    -29.6 1.910e+04 5.482e-09
 14.15090    -33.4 1.452e+04 1.535e-09
 14.16361    -36.7 1.111e+04 4.538e-10
 14.17346    -38.0 1.078e+04 4.204e-10
 14.19029    -38.7 9.352e+03 2.592e-10
 14.20998    -37.2 8.979e+03 2.150e-10
 14.22967    -35.6 8.945e+03 1.983e-10
 14.24936    -35.0 8.869e+03 1.930e-10
 14.27899    -32.5 8.766e+03 1.864e-10
 14.30958    -29.1 8.228e+03 1.396e-10
 14.32927    -29.5 8.446e+03 1.761e-10
 14.35786    -26.4 8.089e+03 1.337e-10
 14.39389    -23.8 7.964e+03 1.131e-10
 14.41358    -24.0 7.865e+03 1.082e-10
 14.43662    -21.5 7.883e+03 1.009e-10
 14.47601    -19.1 7.897e+03 9.642e-11
 14.51539    -16.9 7.908e+03 9.573e-11
 14.55477    -14.8 7.894e+03 9.808e-11
 14.59415    -12.5 7.871e+03 1.002e-10
 14.62082    -10.4 7.910e+03 9.812e-11
 14.64051    -11.0 7.931e+03 9.058e-11
 14.67292     -9.5 8.030e+03 9.094e-11
 14.71230     -8.0 8.114e+03 1.022e-10
 14.75168     -6.2 8.232e+03 1.136e-10
 14.79107     -4.7 8.369e+03 1.206e-10
 14.83045     -3.4 8.485e+03 1.316e-10
 14.86983     -1.6 8.496e+03 1.517e-10
 14.90921      0.5 8.603e+03 1.503e-10
 14.93206      2.4 8.687e+03 1.386e-10
 14.95175      0.5 9.114e+03 1.513e-10
 14.98798      2.1 9.263e+03 1.446e-10
 15.02736      3.7 9.530e+03 1.542e-10
 15.06675      4.8 1.005e+04 1.910e-10
 15.10613      5.6 1.050e+04 2.905e-10
 15.14551      7.0 1.064e+04 4.646e-10
 15.18489      9.4 1.070e+04 6.233e-10
 15.21433     11.4 1.060e+04 6.160e-10
 15.23325     11.7 1.080e+04 6.513e-10
 15.24310     10.4 1.100e+04 7.257e-10
 15.25362     12.4 1.043e+04 6.036e-10
 15.27331     12.5 1.059e+04 5.632e-10
 15.30294     13.8 1.030e+04 4.284e-10
 15.34242     16.3 9.763e+03 3.206e-10
 15.38181     18.8 9.380e+03 2.500e-10
 15.42119     21.3 9.205e+03 2.199e-10
 15.46057     24.0 9.202e+03 2.153e-10
 15.49995     26.6 9.287e+03 2.267e-10
 15.53484     29.3 9.420e+03 2.524e-10
 15.55453     28.0 9.745e+03 3.762e-10
 15.57872     30.7 9.954e+03 4.546e-10
 15.61810     33.6 1.020e+04 5.315e-10
 15.64754     35.8 1.016e+04 5.456e-10
 15.66714     37.2 1.024e+04 5.768e-10
 15.68683     38.4 1.030e+04 6.080e-10
 15.70011     39.8 1.036e+04 6.402e-10
 15.70995     39.1 1.046e+04 6.785e-10
 15.72621     40.4 1.043e+04 6.827e-10
 15.74590     41.6 1.043e+04 6.905e-10
 15.76559     43.0 1.040e+04 6.833e-10
 15.78528     43.9 1.037e+04 6.769e-10
 15.80498     45.1 1.028e+04 6.498e-10
 15.82467     46.1 1.029e+04 6.465e-10
 15.84598     48.3 1.026e+04 6.386e-10
 15.86577     47.4 9.738e+03 4.586e-10
 15.89378     49.9 9.465e+03 4.041e-10
 15.93316     52.3 9.157e+03 3.342e-10
 15.97255     54.9 8.836e+03 2.641e-10
 16.01193     57.5 8.510e+03 2.042e-10
 16.05131     60.1 8.193e+03 1.584e-10
 16.09070     62.9 7.949e+03 1.266e-10
 16.13008     65.6 7.760e+03 1.070e-10
 16.15731     68.4 7.605e+03 9.357e-11
 16.17700     67.9 7.448e+03 8.773e-11
 16.20884     70.9 7.380e+03 8.109e-11
 16.24823     73.9 7.301e+03 7.531e-11
 16.28761     77.0 7.222e+03 7.183e-11
 16.32699     80.1 7.201e+03 7.157e-11
 16.36637     83.3 7.198e+03 7.225e-11
 16.40576     86.4 7.204e+03 7.542e-11
 16.44514     89.6 7.238e+03 8.286e-11
 16.46855     92.8 7.310e+03 9.508e-11
 16.48824     92.2 7.475e+03 1.150e-10
 16.52390     95.4 7.571e+03 1.337e-10
 16.56329     98.6 7.679e+03 1.567e-10
 16.60267    101.8 7.826e+03 1.859e-10
 16.64205    105.2 8.067e+03 2.258e-10
 16.68144    108.6 8.465e+03 2.833e-10
 16.72082    111.8 8.959e+03 3.574e-10
 16.76009    113.8 9.223e+03 4.095e-10
 16.78953    113.6 9.396e+03 5.131e-10
 16.80923    115.2 9.610e+03 6.233e-10
 16.82893    116.8 9.877e+03 7.601e-10
 16.84862    118.3 1.019e+04 9.045e-10
 16.86831    119.9 1.048e+04 1.065e-09
 16.88800    121.3 1.070e+04 1.212e-09
 16.90769    122.7 1.085e+04 1.292e-09
 16.92536    124.0 1.098e+04 1.326e-09
 16.93521    123.1 1.053e+04 1.046e-09
 16.94707    124.3 1.051e+04 1.014e-09
 16.96676    125.5 1.045e+04 9.669e-10
 16.98646    126.6 1.034e+04 9.118e-10
 17.00615    127.6 1.021e+04 8.541e-10
 17.02584    128.7 1.007e+04 7.937e-10
 17.04553    129.8 9.912e+03 7.290e-10
 17.06522    130.9 9.753e+03 6.629e-10
 17.08098    132.2 9.604e+03 5.978e-10
 17.09083    131.2 9.071e+03 4.258e-10
 17.10460    132.5 8.956e+03 3.878e-10
 17.12430    133.8 8.830e+03 3.537e-10
 17.15393    135.8 8.638e+03 3.050e-10
 17.19341    138.4 8.526e+03 2.769e-10
 17.23279    141.0 8.561e+03 2.719e-10
 17.27218    143.1 8.610e+03 2.810e-10
 17.30162    144.6 8.730e+03 2.946e-10
 17.32121    145.3 8.784e+03 3.048e-10
 17.34090    146.2 8.814e+03 3.161e-10
 17.36059    147.3 8.832e+03 3.317e-10
 17.38028    148.8 8.986e+03 3.736e-10
 17.39222    150.0 9.331e+03 4.535e-10
 17.40206    148.7 9.409e+03 4.507e-10
 17.41967    149.6 9.833e+03 5.700e-10
 17.43936    150.3 1.021e+04 7.106e-10
 17.45905    151.0 1.045e+04 8.489e-10
 17.47874    151.8 1.062e+04 9.684e-10
 17.49843    152.7 1.073e+04 1.051e-09
 17.51812    153.7 1.078e+04 1.066e-09
 17.53781    154.5 1.077e+04 1.058e-09
 17.54784    155.3 1.074e+04 1.021e-09
 17.55768    154.8 1.043e+04 8.681e-10
 17.57720    155.6 1.032e+04 7.837e-10
 17.59689    156.2 1.018e+04 6.889e-10
 17.61658    156.6 1.001e+04 6.061e-10
 17.63627    157.1 9.888e+03 5.675e-10
 17.65596    157.5 9.879e+03 5.669e-10
 17.67565    157.9 9.899e+03 5.748e-10
 17.69361    158.2 1.001e+04 6.184e-10
 17.70346    158.7 9.568e+03 5.154e-10
 17.71504    159.2 9.905e+03 6.140e-10
 17.73473    159.3 1.046e+04 8.051e-10
 17.75442    159.3 1.121e+04 1.131e-09
 17.77411    159.3 1.213e+04 1.656e-09
 17.79380    159.2 1.319e+04 2.432e-09
 17.81349    159.1 1.430e+04 3.421e-09
 17.83318    158.8 1.531e+04 4.305e-09
 17.84923    158.2 1.598e+04 4.551e-09
 17.85907    159.5 1.589e+04 5.170e-09
 17.87257    158.8 1.633e+04 5.256e-09
 17.89226    158.0 1.636e+04 5.013e-09
 17.91195    157.5 1.616e+04 4.282e-09
 17.93164    157.0 1.555e+04 3.381e-09
 17.95133    156.5 1.460e+04 2.576e-09
 17.97102    156.2 1.348e+04 1.968e-09
 17.99071    156.2 1.244e+04 1.550e-09
 18.00485    156.4 1.173e+04 1.269e-09
 18.01469    157.3 1.300e+04 1.635e-09
 18.03010    157.5 1.217e+04 1.296e-09
 18.04979    157.9 1.162e+04 1.082e-09
 18.06948    158.3 1.129e+04 9.463e-10
 18.08917    158.9 1.109e+04 8.546e-10
 18.10886    159.7 1.095e+04 7.874e-10
 18.12855    160.6 1.084e+04 7.320e-10
 18.14825    161.6 1.074e+04 6.879e-10
 18.16047    162.6 1.066e+04 6.555e-10
 18.17031    163.0 1.066e+04 6.421e-10
 18.18763    164.0 1.056e+04 6.003e-10
 18.20732    165.0 1.047e+04 5.628e-10
 18.22701    165.9 1.039e+04 5.315e-10
 18.24670    166.7 1.031e+04 5.042e-10
 18.26639    167.5 1.026e+04 4.828e-10
 18.28608    168.2 1.023e+04 4.533e-10
 18.30578    168.7 1.024e+04 4.387e-10
 18.31608    169.5 1.016e+04 4.234e-10
 18.33587    169.9 9.842e+03 3.303e-10
 18.37489    171.5 9.785e+03 3.287e-10
 18.41427    173.0 9.837e+03 3.347e-10
 18.45366    174.1 9.966e+03 3.592e-10
 18.48310    175.2 9.993e+03 3.706e-10
 18.50269    175.8 1.007e+04 3.872e-10
 18.52238    176.3 1.023e+04 4.288e-10
 18.54207    176.7 1.035e+04 4.879e-10
 18.56176    177.0 1.042e+04 5.420e-10
 18.58145    177.1 1.047e+04 5.722e-10
 18.60115    177.0 1.051e+04 5.776e-10
 18.61748    176.9 1.052e+04 5.753e-10
 18.62732    178.0 1.060e+04 5.875e-10
 18.64053    177.7 1.060e+04 5.863e-10
 18.66022    177.2 1.061e+04 5.800e-10
 18.67991    176.6 1.059e+04 5.683e-10
 18.69960    175.8 1.056e+04 5.599e-10
 18.71929    174.9 1.057e+04 5.587e-10
 18.73899    173.8 1.058e+04 5.607e-10
 18.75868    172.7 1.061e+04 5.708e-10
 18.77309    171.5 1.066e+04 5.944e-10
 18.78294    172.9 1.064e+04 5.761e-10
 18.79806    171.7 1.072e+04 6.057e-10
 18.81775    170.5 1.077e+04 6.411e-10
 18.83744    169.3 1.080e+04 6.589e-10
 18.85713    168.0 1.081e+04 6.576e-10
 18.87682    166.7 1.079e+04 6.457e-10
 18.89652    165.5 1.063e+04 6.007e-10
 18.91621    164.3 1.019e+04 5.166e-10
 18.92871    163.3 9.705e+03 4.042e-10
 18.93856    165.3 1.044e+04 5.218e-10
 18.95559    164.4 9.901e+03 4.203e-10
 18.97528    163.6 9.269e+03 3.144e-10
 18.99497    162.8 9.322e+03 2.546e-10
 19.01466    161.5 9.793e+03 2.511e-10
 19.03436    158.0 1.497e+04 2.462e-10
 19.04908    154.7 2.354e+04 2.727e-10
 19.05887    151.1 3.520e+04 3.759e-10
 19.06872    146.7 4.336e+04 7.757e-10
 19.07856    143.0 4.171e+04 1.911e-09
 19.08423    140.4 3.388e+04 5.366e-09
 19.08916    140.7 3.809e+04 3.034e-09
 19.09825    139.1 2.863e+04 1.124e-08
 19.10810    139.4 2.304e+04 3.377e-08
 19.11795    139.5 2.053e+04 6.953e-08
 19.12779    140.0 1.957e+04 1.015e-07
 19.13764    141.0 1.947e+04 1.064e-07
 19.14748    142.5 1.948e+04 1.049e-07
 19.15712    144.1 1.951e+04 9.849e-08
 19.16204    144.1 2.057e+04 6.126e-08
 19.16717    145.6 2.077e+04 5.819e-08
 19.17702    146.6 2.108e+04 5.511e-08
 19.18687    147.4 2.139e+04 5.264e-08
 19.19671    148.0 2.163e+04 5.018e-08
 19.20656    148.4 2.168e+04 4.640e-08
 19.21640    148.8 2.152e+04 4.128e-08
 19.22625    149.3 2.120e+04 3.538e-08
 19.23493    149.9 2.074e+04 2.979e-08
 19.23985    148.9 2.036e+04 2.033e-08
 19.24594    149.3 1.949e+04 1.814e-08
 19.25579    149.7 1.887e+04 1.640e-08
 19.27060    151.1 1.882e+04 1.607e-08
 19.29034    152.4 1.894e+04 1.619e-08
 19.31003    153.6 1.927e+04 1.592e-08
 19.32973    154.8 1.947e+04 1.524e-08
 19.34942    156.2 1.976e+04 1.307e-08
 19.36911    157.2 1.914e+04 1.005e-08
 19.38572    157.9 1.768e+04 7.414e-09
 19.39557    157.7 1.721e+04 6.696e-09
 19.40849    158.7 1.585e+04 4.768e-09
 19.42818    159.7 1.494e+04 3.626e-09
 19.44787    160.5 1.469e+04 3.021e-09
 19.46756    161.1 1.484e+04 2.639e-09
 19.48726    161.2 1.494e+04 2.313e-09
 19.50695    160.9 1.467e+04 2.006e-09
 19.52664    160.4 1.402e+04 1.754e-09
 19.54134    160.0 1.321e+04 1.566e-09
 19.55119    158.5 1.300e+04 1.535e-09
 19.56602    159.0 1.260e+04 1.532e-09
 19.58571    159.7 1.258e+04 1.558e-09
 19.60540    160.5 1.258e+04 1.683e-09
 19.62510    161.4 1.276e+04 1.905e-09
 19.64479    162.4 1.303e+04 2.177e-09
 19.66448    163.5 1.333e+04 2.495e-09
 19.68417    164.7 1.365e+04 2.877e-09
 19.69696    165.8 1.399e+04 3.308e-09
 19.70680    165.8 1.453e+04 3.912e-09
 19.72355    167.1 1.484e+04 4.480e-09
 19.74324    168.5 1.516e+04 4.950e-09
 19.76294    169.9 1.533e+04 5.225e-09
 19.78263    171.4 1.547e+04 5.391e-09
 19.80232    172.9 1.551e+04 5.265e-09
 19.82201    174.4 1.551e+04 4.732e-09
 19.84170    175.9 1.530e+04 3.904e-09
 19.85258    177.2 1.492e+04 2.997e-09
 19.86242    177.3 1.471e+04 2.843e-09
 19.88108    178.3 1.406e+04 1.994e-09
 19.90077    178.9 1.331e+04 1.410e-09
 19.92047    179.2 1.256e+04 1.060e-09
 19.94016    179.6 1.203e+04 8.924e-10
 19.95985    180.3 1.192e+04 8.494e-10
 19.97954    181.4 1.197e+04 8.594e-10
 19.99835    182.5 1.207e+04 8.871e-10
 20.00820    183.2 1.183e+04 8.153e-10
 20.01892    184.4 1.196e+04 8.403e-10
 20.03861    185.5 1.211e+04 8.734e-10
 20.05831    186.6 1.224e+04 9.109e-10
 20.07076    187.6 1.237e+04 9.447e-10
 20.08060    186.5 1.227e+04 9.570e-10
 20.09769    187.6 1.233e+04 1.008e-09
 20.11738    188.8 1.235e+04 1.057e-09
 20.13707    190.0 1.244e+04 1.088e-09
 20.15397    191.3 1.235e+04 1.117e-09
 20.16381    191.8 1.231e+04 1.080e-09
 20.17645    193.0 1.229e+04 1.074e-09
 20.19614    194.3 1.225e+04 1.044e-09
 20.21584    195.7 1.218e+04 9.894e-10
 20.23553    197.0 1.209e+04 9.174e-10
 20.25522    198.2 1.201e+04 8.368e-10
 20.27491    199.3 1.194e+04 7.593e-10
 20.29460    200.4 1.185e+04 6.939e-10
 20.30959    201.4 1.175e+04 6.414e-10
 20.31943    201.8 1.176e+04 7.074e-10
 20.33398    202.7 1.167e+04 6.577e-10
 20.35368    203.5 1.157e+04 6.169e-10
 20.37337    204.1 1.143e+04 5.805e-10
 20.39306    204.7 1.128e+04 5.456e-10
 20.41275    205.3 1.112e+04 5.119e-10
 20.43244    205.8 1.096e+04 4.815e-10
 20.45213    206.2 1.083e+04 4.568e-10
 20.46521    206.6 1.073e+04 4.393e-10
 20.47505    206.5 1.079e+04 4.691e-10
 20.49151    206.8 1.068e+04 4.448e-10
 20.51121    207.0 1.058e+04 4.218e-10
 20.53090    207.2 1.047e+04 4.022e-10
 20.55059    207.5 1.035e+04 3.896e-10
 20.57028    207.9 1.026e+04 3.882e-10
 20.58997    208.4 1.025e+04 3.889e-10
 20.60966    209.0 1.024e+04 3.945e-10
 20.62082    209.6 1.024e+04 4.113e-10
 20.63067    209.1 1.016e+04 3.899e-10
 20.64905    209.7 1.017e+04 4.091e-10
 20.66874    210.3 1.018e+04 4.314e-10
 20.68843    210.9 1.020e+04 4.577e-10
 20.70812    211.6 1.022e+04 4.859e-10
 20.72781    212.4 1.027e+04 5.218e-10
 20.74750    213.1 1.036e+04 5.616e-10
 20.76660    213.6 1.049e+04 6.051e-10
 20.77644    213.0 1.018e+04 4.917e-10
 20.78688    213.3 1.028e+04 5.232e-10
 20.80658    213.3 1.041e+04 5.636e-10
 20.82627    213.2 1.059e+04 6.185e-10
 20.84596    212.9 1.079e+04 6.882e-10
 20.86565    212.5 1.101e+04 7.696e-10
 20.88534    211.8 1.119e+04 8.423e-10
 20.90503    210.5 1.157e+04 9.616e-10
 20.92222    208.6 1.225e+04 1.205e-09
 20.93206    208.5 1.178e+04 9.936e-10
 20.94442    205.9 1.287e+04 1.455e-09
 20.96411    203.1 1.394e+04 2.259e-09
 20.98380    200.5 1.479e+04 3.361e-09
 21.00349    198.2 1.533e+04 4.341e-09
 21.02318    195.8 1.551e+04 4.545e-09
 21.04287    193.4 1.545e+04 4.382e-09
 21.06256    191.0 1.519e+04 3.846e-09
 21.07783    188.6 1.463e+04 2.954e-09
 21.08768    188.7 1.389e+04 2.393e-09
 21.10195    186.3 1.296e+04 1.693e-09
 21.12164    184.2 1.195e+04 1.231e-09
 21.14133    182.9 1.130e+04 1.012e-09
 21.16102    182.4 1.130e+04 9.922e-10
 21.18071    182.1 1.139e+04 1.023e-09
 21.20040    181.4 1.233e+04 1.152e-09
 21.22009    180.4 1.427e+04 1.619e-09
 21.23345    179.4 1.602e+04 2.572e-09
 21.24330    181.6 1.371e+04 1.209e-09
 21.25948    180.5 1.598e+04 1.999e-09
 21.27917    179.7 1.736e+04 3.436e-09
 21.29886    179.0 1.852e+04 6.014e-09
 21.31855    178.8 1.956e+04 1.010e-08
 21.33327    179.2 1.983e+04 1.065e-08
 21.34307    179.1 2.034e+04 1.211e-08
 21.35291    178.6 2.116e+04 1.631e-08
 21.36276    177.6 2.203e+04 2.523e-08
 21.37260    176.4 2.298e+04 4.324e-08
 21.38245    174.6 2.403e+04 8.197e-08
 21.38897    171.8 2.489e+04 1.622e-07
 21.39390    173.5 2.462e+04 8.911e-08
 21.40214    170.4 2.542e+04 1.674e-07
 21.41199    166.4 2.608e+04 2.458e-07
 21.42183    162.4 2.684e+04 2.794e-07
 21.43168    158.0 2.828e+04 2.089e-07
 21.44152    150.1 3.165e+04 8.605e-08
 21.45137    139.1 3.616e+04 1.869e-08
 21.46122    125.9 3.441e+04 3.339e-09
 21.46678    113.6 2.085e+04 1.364e-09
 21.47171    117.0 2.582e+04 1.604e-09
 21.48091    110.9 1.473e+04 1.475e-09
 21.49572    105.7 1.275e+04 1.370e-09
 21.51546    100.9 1.185e+04 1.282e-09
 21.53484     97.7 1.203e+04 1.321e-09
 21.54469     99.7 1.167e+04 1.114e-09
 21.55485     97.0 1.194e+04 1.294e-09
 21.57454     94.9 1.243e+04 1.584e-09
 21.59423     93.4 1.282e+04 1.894e-09
 21.61392     92.3 1.303e+04 2.010e-09
 21.63361     91.4 1.300e+04 1.989e-09
 21.65330     90.6 1.285e+04 1.888e-09
 21.67300     89.8 1.259e+04 1.683e-09
 21.69046     88.9 1.227e+04 1.432e-09
 21.70031     89.8 1.250e+04 1.618e-09
 21.71238     88.9 1.216e+04 1.386e-09
 21.73207     87.9 1.180e+04 1.174e-09
 21.75176     87.1 1.145e+04 1.010e-09
 21.77145     86.4 1.117e+04 9.067e-10
 21.79114     86.0 1.102e+04 8.600e-10
 21.81083     85.8 1.096e+04 8.451e-10
 21.83053     85.7 1.097e+04 8.487e-10
 21.84608     85.7 1.100e+04 8.608e-10
 21.85593     86.2 1.090e+04 8.121e-10
 21.86991     86.3 1.081e+04 7.817e-10
 21.88960     86.4 1.073e+04 7.473e-10
 21.90929     86.5 1.067e+04 7.129e-10
 21.92898     86.5 1.062e+04 6.843e-10
 21.94867     86.5 1.058e+04 6.570e-10
 21.96837     86.4 1.053e+04 6.307e-10
 21.98806     86.4 1.046e+04 6.029e-10
 22.00170     86.4 1.038e+04 5.748e-10
 22.01155     86.8 9.970e+03 4.255e-10
 22.02744     86.7 9.966e+03 4.294e-10
 22.04713     86.7 1.001e+04 4.471e-10
 22.06682     86.6 1.013e+04 4.769e-10
 22.08651     86.4 1.031e+04 5.212e-10
 22.10620     86.2 1.052e+04 5.897e-10
 22.12590     85.8 1.083e+04 6.847e-10
 22.14559     84.6 1.162e+04 9.117e-10
 22.15732     82.7 1.320e+04 1.357e-09
 22.16716     84.9 1.179e+04 9.168e-10
 22.18497     82.1 1.398e+04 1.444e-09
 22.20466     78.0 1.711e+04 2.908e-09
 22.22435     74.5 1.874e+04 5.749e-09
 22.24404     72.4 1.894e+04 8.538e-09
 22.26374     71.3 1.861e+04 9.078e-09
 22.28343     70.8 1.794e+04 7.586e-09
 22.30309     70.3 1.716e+04 5.643e-09
 22.32278     70.5 1.654e+04 4.054e-09
 22.34250     69.5 1.586e+04 2.846e-09
 22.36219     68.4 1.512e+04 1.968e-09
 22.38188     67.6 1.443e+04 1.405e-09
 22.40157     67.2 1.382e+04 1.109e-09
 22.42127     67.1 1.347e+04 9.454e-10
 22.44096     67.1 1.315e+04 8.528e-10
 22.45871     67.0 1.273e+04 7.715e-10
 22.46855     67.9 1.320e+04 9.152e-10
 22.48034     67.9 1.265e+04 7.817e-10
 22.50003     68.2 1.217e+04 6.751e-10
 22.51972     68.5 1.196e+04 5.925e-10
 22.53941     68.8 1.178e+04 5.233e-10
 22.55911     69.2 1.172e+04 4.861e-10
 22.57880     69.4 1.177e+04 4.933e-10
 22.59849     69.3 1.193e+04 5.307e-10
 22.61433     68.9 1.236e+04 6.452e-10
 22.62417     70.0 1.207e+04 5.341e-10
 22.63787     69.1 1.272e+04 7.151e-10
 22.65756     67.8 1.338e+04 1.086e-09
 22.67725     66.8 1.376e+04 1.662e-09
 22.69695     66.8 1.396e+04 2.278e-09
 22.71664     67.3 1.409e+04 2.518e-09
 22.73633     67.9 1.402e+04 2.355e-09
 22.75602     67.9 1.378e+04 1.842e-09
 22.76995     67.7 1.335e+04 1.222e-09
 22.77979     68.6 1.384e+04 1.761e-09
 22.79540     68.3 1.341e+04 1.116e-09
 22.82504     66.6 1.237e+04 5.381e-10
 22.86452     62.9 1.043e+04 1.897e-10
 22.90390     60.7 9.326e+03 1.337e-10
 22.92576     60.6 9.351e+03 1.488e-10
 22.94545     60.5 9.753e+03 2.124e-10
 22.98266     60.7 9.908e+03 2.685e-10
 23.02205     61.3 1.018e+04 3.512e-10
 23.06143     61.9 1.031e+04 3.821e-10
 23.10081     62.5 1.025e+04 3.673e-10
 23.14020     63.2 1.000e+04 3.134e-10
 23.17958     63.9 9.714e+03 2.371e-10
 23.21731     64.5 9.425e+03 1.746e-10
 23.23700     64.1 9.709e+03 2.249e-10
 23.25834     64.8 9.453e+03 1.783e-10
 23.29773     65.8 9.332e+03 1.723e-10
 23.33711     67.0 9.331e+03 1.748e-10
 23.37649     68.1 9.373e+03 1.914e-10
 23.41587     69.1 9.599e+03 2.445e-10
 23.45526     70.0 9.955e+03 3.283e-10
 23.49464     70.8 1.028e+04 4.135e-10
 23.52854     71.4 1.040e+04 4.362e-10
 23.54814     71.4 1.050e+04 4.605e-10
 23.57331     71.7 1.047e+04 4.347e-10
 23.61279     71.6 1.038e+04 3.875e-10
 23.65217     71.2 1.039e+04 3.799e-10
 23.68161     70.6 1.040e+04 3.893e-10
 23.69381     70.1 1.056e+04 4.233e-10
 23.70366     70.0 1.067e+04 4.423e-10
 23.72089     69.2 1.096e+04 5.248e-10
 23.74059     68.5 1.126e+04 6.456e-10
 23.76028     67.9 1.156e+04 8.040e-10
 23.77997     67.5 1.185e+04 9.894e-10
 23.79966     67.3 1.211e+04 1.172e-09
 23.81935     67.2 1.228e+04 1.307e-09
 23.83904     67.0 1.232e+04 1.350e-09
 23.84943     66.8 1.228e+04 1.334e-09
 23.85928     66.6 1.246e+04 1.405e-09
 23.87843     66.2 1.235e+04 1.327e-09
 23.89812     65.7 1.219e+04 1.244e-09
 23.91781     65.3 1.203e+04 1.180e-09
 23.93750     65.2 1.198e+04 1.163e-09
 23.95719     65.1 1.195e+04 1.161e-09
 23.97688     65.1 1.194e+04 1.165e-09
 23.99520     65.1 1.188e+04 1.149e-09
 24.00505     64.6 1.199e+04 1.214e-09
 24.01626     64.8 1.195e+04 1.202e-09
 24.03596     65.0 1.190e+04 1.180e-09
 24.05565     65.2 1.184e+04 1.146e-09
 24.07534     65.5 1.176e+04 1.103e-09
 24.09503     65.7 1.169e+04 1.062e-09
 24.11472     66.0 1.166e+04 1.047e-09
 24.13441     66.3 1.167e+04 1.053e-09
 24.15082     66.5 1.175e+04 1.086e-09
 24.16067     65.8 1.197e+04 1.180e-09
 24.17380     66.1 1.211e+04 1.246e-09
 24.19349     66.4 1.223e+04 1.318e-09
 24.21318     66.8 1.238e+04 1.409e-09
 24.23287     66.9 1.259e+04 1.551e-09
 24.25256     66.7 1.298e+04 1.820e-09
 24.27225     65.7 1.380e+04 2.428e-09
 24.29194     64.0 1.488e+04 3.689e-09
 24.30644     63.7 1.600e+04 5.908e-09
 24.31629     63.0 1.590e+04 5.624e-09
 24.33133     63.2 1.651e+04 7.469e-09
 24.35102     63.3 1.651e+04 7.524e-09
 24.37071     63.7 1.609e+04 6.640e-09
 24.39040     64.4 1.521e+04 4.537e-09
 24.41009     64.3 1.405e+04 2.587e-09
 24.42978     63.4 1.302e+04 1.463e-09
 24.44947     62.5 1.225e+04 1.032e-09
 24.46216     60.7 1.100e+04 5.889e-10
 24.48194     59.5 1.167e+04 7.847e-10
 24.51859     59.4 1.156e+04 7.505e-10
 24.55797     59.1 1.176e+04 8.217e-10
 24.59735     58.5 1.233e+04 1.044e-09
 24.61777     58.5 1.260e+04 1.223e-09
 24.62752     57.0 1.317e+04 1.504e-09
 24.64639     56.2 1.371e+04 1.941e-09
 24.66608     55.5 1.417e+04 2.355e-09
 24.68577     54.6 1.461e+04 2.738e-09
 24.70546     53.6 1.500e+04 3.047e-09
 24.72515     52.5 1.526e+04 3.226e-09
 24.74484     51.4 1.538e+04 3.352e-09
 24.76345     50.8 1.538e+04 3.465e-09
 24.77329     47.8 1.594e+04 4.291e-09
 24.78423     48.1 1.552e+04 4.122e-09
 24.80392     48.9 1.497e+04 3.719e-09
 24.82361     50.0 1.441e+04 3.289e-09
 24.84330     51.4 1.403e+04 2.754e-09
 24.87294     52.5 1.360e+04 2.075e-09
 24.91242     54.6 1.300e+04 1.529e-09
 24.95180     57.0 1.240e+04 1.127e-09
 24.99118     59.5 1.190e+04 8.403e-10
 25.03056     62.2 1.150e+04 6.621e-10
 25.06504     64.9 1.128e+04 5.751e-10
 25.08473     64.1 1.079e+04 4.723e-10
 25.10933     67.2 1.079e+04 4.857e-10
 25.14871     70.2 1.085e+04 5.074e-10
 25.18810     73.2 1.094e+04 5.310e-10
 25.22748     76.0 1.098e+04 5.359e-10
 25.25692     77.9 1.084e+04 4.732e-10
 25.27651     79.0 1.077e+04 4.555e-10
 25.29620     80.5 1.077e+04 4.575e-10
 25.31589     81.8 1.086e+04 4.890e-10
 25.33558     82.9 1.095e+04 5.390e-10
 25.35528     84.1 1.103e+04 5.941e-10
 25.37497     85.2 1.108e+04 6.457e-10
 25.38592     86.4 1.112e+04 6.846e-10
 25.39577     85.6 1.089e+04 3.874e-10
 25.41435     87.0 1.087e+04 3.906e-10
 25.43404     87.7 1.088e+04 3.898e-10
 25.45373     88.9 1.087e+04 3.766e-10
 25.47342     89.4 1.088e+04 3.678e-10
 25.49312     90.3 1.090e+04 3.635e-10
 25.51281     90.7 1.092e+04 3.684e-10
 25.53170     91.3 1.098e+04 3.962e-10
 25.54154     91.2 1.086e+04 3.210e-10
 25.55219     91.6 1.097e+04 3.438e-10
 25.57188     91.7 1.117e+04 4.095e-10
 25.59157     91.6 1.144e+04 5.308e-10
 25.61126     91.5 1.178e+04 7.272e-10
 25.63095     91.3 1.221e+04 1.029e-09
 25.65065     91.2 1.270e+04 1.435e-09
 25.67034     91.2 1.312e+04 1.919e-09
 25.68731     91.4 1.346e+04 2.310e-09
 25.69716     91.0 1.364e+04 2.437e-09
 25.70972     90.9 1.368e+04 2.436e-09
 25.72813     90.9 1.361e+04 2.287e-09
 25.73798     92.0 1.363e+04 2.277e-09
 25.74910     92.0 1.338e+04 1.925e-09
 25.77874     92.2 1.277e+04 1.207e-09
 25.81822     92.0 1.186e+04 6.514e-10
 25.85760     92.0 1.085e+04 3.968e-10
 25.89698     92.9 1.054e+04 3.773e-10
 25.93637     95.0 1.052e+04 3.882e-10
 25.97575     97.5 1.058e+04 4.408e-10
 25.99875    100.1 1.078e+04 5.206e-10
 26.01844    100.0 1.064e+04 4.413e-10
 26.05451    102.6 1.079e+04 5.041e-10
 26.09390    105.3 1.109e+04 5.959e-10
 26.13328    107.6 1.152e+04 7.280e-10
 26.15427    108.5 1.167e+04 7.985e-10
 26.16402    108.4 1.167e+04 8.035e-10
 26.18231    109.2 1.178e+04 8.634e-10
 26.20200    110.4 1.187e+04 9.323e-10
 26.22170    111.7 1.195e+04 9.995e-10
 26.24139    113.0 1.204e+04 1.068e-09
 26.26108    114.1 1.215e+04 1.143e-09
 26.28077    115.2 1.226e+04 1.234e-09
 26.29994    116.1 1.241e+04 1.359e-09
 26.30979    116.0 1.272e+04 1.706e-09
 26.32015    116.8 1.295e+04 1.926e-09
 26.33984    117.6 1.322e+04 2.203e-09
 26.35953    118.4 1.351e+04 2.547e-09
 26.37923    119.3 1.384e+04 2.966e-09
 26.39892    120.1 1.421e+04 3.433e-09
 26.41861    120.8 1.459e+04 3.859e-09
 26.43830    121.2 1.491e+04 4.150e-09
 26.45556    121.1 1.514e+04 4.321e-09
 26.46541    120.7 1.578e+04 4.909e-09
 26.47768    120.2 1.634e+04 5.472e-09
 26.49737    119.2 1.707e+04 6.421e-09
 26.51707    118.0 1.789e+04 8.091e-09
 26.53676    116.8 1.876e+04 1.063e-08
 26.55645    115.5 1.960e+04 1.330e-08
 26.57614    114.0 2.011e+04 1.397e-08
 26.59583    112.2 2.015e+04 1.324e-08
 26.61118    110.1 1.986e+04 1.072e-08
 26.62098    108.1 2.193e+04 1.330e-08
 26.63516    105.5 2.210e+04 1.285e-08
 26.65490    101.4 2.114e+04 9.865e-09
 26.67460     97.8 2.043e+04 8.546e-09
 26.69429     95.2 2.066e+04 8.626e-09
 26.71398     93.4 2.168e+04 9.172e-09
 26.73367     91.2 2.279e+04 1.037e-08
 26.74839     89.1 2.319e+04 1.188e-08
 26.75819     87.6 2.309e+04 1.326e-08
 26.76670     84.9 2.385e+04 1.599e-08
 26.77162     79.9 2.549e+04 3.894e-08
 26.77788     71.9 2.851e+04 7.069e-08
 26.78772     63.4 2.744e+04 1.657e-07
 26.79757     56.8 2.500e+04 3.082e-07
 26.80742     52.5 2.434e+04 3.048e-07
 26.81726     49.9 2.420e+04 2.062e-07
 26.82711     47.4 2.525e+04 8.236e-08
 26.83695     43.6 2.544e+04 2.341e-08
 26.84451     40.0 2.213e+04 8.104e-09
 26.84943     33.7 1.724e+04 3.897e-09
 26.85664     32.2 1.567e+04 2.815e-09
 26.87146     32.9 1.625e+04 2.177e-09
 26.89120     28.4 1.192e+04 8.678e-10
 26.91089     27.1 9.809e+03 5.012e-10
 26.92242     28.1 9.508e+03 4.453e-10
 26.93226     28.4 9.305e+03 3.785e-10
 26.95027     30.1 9.216e+03 3.507e-10
 26.96997     31.2 9.225e+03 3.382e-10
 26.99960     32.5 9.101e+03 3.151e-10
 27.03908     34.9 8.881e+03 2.817e-10
 27.07846     37.3 8.590e+03 2.411e-10
 27.11785     39.4 8.340e+03 2.068e-10
 27.15723     41.5 8.116e+03 1.760e-10
 27.19661     43.5 7.944e+03 1.544e-10
 27.22400     45.4 7.851e+03 1.423e-10
 27.24369     46.1 7.568e+03 1.112e-10
 27.27538     48.0 7.510e+03 1.029e-10
 27.31476     49.9 7.509e+03 1.011e-10
 27.35414     51.8 7.529e+03 1.023e-10
 27.39353     53.6 7.609e+03 1.078e-10
 27.43291     55.2 7.773e+03 1.225e-10
 27.47229     56.8 8.046e+03 1.535e-10
 27.51167     58.4 8.424e+03 2.184e-10
 27.53524     60.6 9.054e+03 3.493e-10
 27.55493     61.6 8.949e+03 3.243e-10
 27.58050     62.6 9.313e+03 4.063e-10
 27.60009     63.6 9.672e+03 5.066e-10
 27.61978     64.6 1.005e+04 6.247e-10
 27.63947     65.3 1.046e+04 7.614e-10
 27.65916     65.9 1.081e+04 8.990e-10
 27.67885     66.4 1.114e+04 1.043e-09
 27.69066     66.5 1.162e+04 1.247e-09
 27.70051     67.6 1.138e+04 1.159e-09
 27.71824     67.4 1.207e+04 1.459e-09
 27.73793     67.1 1.290e+04 1.957e-09
 27.75762     67.0 1.357e+04 2.660e-09
 27.77731     67.3 1.403e+04 3.432e-09
 27.79700     68.0 1.441e+04 4.199e-09
 27.81669     69.0 1.465e+04 4.681e-09
 27.83639     69.9 1.464e+04 4.691e-09
 27.85608     71.3 1.499e+04 5.329e-09
 27.87577     72.5 1.463e+04 4.419e-09
 27.89546     73.5 1.410e+04 3.164e-09
 27.91515     74.1 1.344e+04 2.053e-09
 27.93484     74.2 1.260e+04 1.268e-09
 27.95453     74.1 1.161e+04 7.990e-10
 27.97422     74.1 1.063e+04 5.522e-10
 27.99205     74.3 9.987e+03 4.520e-10
 28.00190     75.6 1.066e+04 6.019e-10
 28.01361     76.0 1.029e+04 5.419e-10
 28.03330     76.3 1.033e+04 5.538e-10
 28.05299     75.9 1.071e+04 6.459e-10
 28.07268     73.9 1.188e+04 1.051e-09
 28.09237     72.0 1.334e+04 2.100e-09
 28.11206     71.3 1.463e+04 4.022e-09
 28.13176     71.1 1.495e+04 4.682e-09
 28.14767     70.8 1.490e+04 4.470e-09
 28.15752     71.5 1.508e+04 4.731e-09
 28.17114     70.8 1.477e+04 3.821e-09
 28.19083     68.8 1.424e+04 2.362e-09
 28.21052     64.4 1.314e+04 1.215e-09
 28.23021     59.2 1.111e+04 6.937e-10
 28.24990     57.2 1.019e+04 6.386e-10
 28.26959     57.3 1.015e+04 6.354e-10
 28.29923     58.2 1.028e+04 6.806e-10
 28.33871     59.3 1.017e+04 6.636e-10
 28.37809     60.9 1.004e+04 6.032e-10
 28.40753     61.7 9.743e+03 5.104e-10
 28.42713     62.2 9.665e+03 4.823e-10
 28.44682     63.2 9.500e+03 4.428e-10
 28.45891     63.9 9.444e+03 4.296e-10
 28.46885     63.9 9.371e+03 4.093e-10
 28.49624     65.8 9.313e+03 3.990e-10
 28.53562     67.7 9.363e+03 4.121e-10
 28.56184     68.6 9.424e+03 4.444e-10
 28.57158     68.7 9.402e+03 4.365e-10
 28.58466     69.5 9.474e+03 4.682e-10
 28.60435     70.4 9.658e+03 5.389e-10
 28.61453     71.3 9.907e+03 6.364e-10
 28.62437     71.7 9.742e+03 5.579e-10
 28.64373     72.6 9.980e+03 6.517e-10
 28.66342     73.4 1.020e+04 7.543e-10
 28.68311     74.3 1.040e+04 8.556e-10
 28.70280     75.2 1.057e+04 9.403e-10
 28.72250     76.0 1.071e+04 9.922e-10
 28.74219     76.8 1.081e+04 1.006e-09
 28.76030     77.6 1.083e+04 9.973e-10
 28.77015     77.8 1.068e+04 9.351e-10
 28.78157     78.5 1.074e+04 9.381e-10
 28.80126     79.3 1.074e+04 9.179e-10
 28.82095     80.1 1.069e+04 8.638e-10
 28.84064     80.9 1.060e+04 7.851e-10
 28.86034     81.6 1.052e+04 6.994e-10
 28.88003     82.1 1.045e+04 6.249e-10
 28.89972     82.6 1.039e+04 5.810e-10
 28.91592     83.1 1.039e+04 5.816e-10
 28.92577     83.6 1.056e+04 7.321e-10
 28.93910     84.0 1.069e+04 7.578e-10
 28.95879     84.1 1.098e+04 8.490e-10
 28.97848     84.0 1.146e+04 1.051e-09
 28.99817     83.7 1.207e+04 1.414e-09
 29.01787     83.6 1.271e+04 1.979e-09
 29.03756     83.7 1.336e+04 2.736e-09
 29.05725     84.1 1.392e+04 3.480e-09
 29.07154     84.3 1.422e+04 3.759e-09
 29.08138     85.0 1.466e+04 4.518e-09
 29.09663     85.1 1.466e+04 4.277e-09
 29.11632     85.0 1.445e+04 3.586e-09
 29.13601     84.6 1.404e+04 2.444e-09
 29.15571     83.0 1.306e+04 1.353e-09
 29.17540     79.3 1.301e+04 1.182e-09
 29.19509     69.7 1.539e+04 1.632e-09
 29.20981     63.6 1.733e+04 2.434e-09
 29.21960     57.5 1.929e+04 4.180e-09
 29.22706     54.2 1.875e+04 7.538e-09
 29.23198     54.5 1.890e+04 6.737e-09
 29.23930     54.4 1.812e+04 1.188e-08
 29.24914     55.4 1.756e+04 1.695e-08
 29.25899     56.9 1.778e+04 1.853e-08
 29.27380     58.6 1.779e+04 1.664e-08
 29.29354     59.9 1.764e+04 1.172e-08
 29.31324     59.3 1.726e+04 4.791e-09
 29.33293     54.4 1.681e+04 1.286e-09
 29.36256     39.7 1.231e+04 5.369e-10
 29.38297     36.4 1.000e+04 4.180e-10
 29.40266     37.9 9.904e+03 3.481e-10
 29.44142     37.7 9.926e+03 3.587e-10
 29.48081     37.3 1.033e+04 5.145e-10
 29.52019     37.6 1.127e+04 8.911e-10
 29.55957     38.7 1.179e+04 1.242e-09
 29.59896     39.9 1.186e+04 1.263e-09
 29.63834     41.2 1.166e+04 1.114e-09
 29.67452     42.4 1.134e+04 9.372e-10
 29.69421     42.5 1.135e+04 9.405e-10
 29.71710     43.8 1.098e+04 8.101e-10
 29.75649     45.5 1.063e+04 7.095e-10
 29.79587     47.8 1.027e+04 5.909e-10
 29.83525     50.4 9.886e+03 4.356e-10
 29.87463     53.1 9.488e+03 2.838e-10
 29.91402     55.5 9.152e+03 1.733e-10
 29.95340     57.5 8.870e+03 1.100e-10
 29.98575     59.4 8.658e+03 8.693e-11
 30.00544     59.6 8.508e+03 6.401e-11
 30.03217     61.9 8.448e+03 6.327e-11
 30.07155     64.2 8.466e+03 6.556e-11
 30.11093     66.3 8.540e+03 7.479e-11
 30.15031     68.3 8.688e+03 9.573e-11
 30.18970     70.1 8.929e+03 1.332e-10
 30.22908     71.7 9.244e+03 1.905e-10
 30.26846     73.1 9.557e+03 2.625e-10
 30.29699     74.4 9.773e+03 3.335e-10
 30.31668     75.1 9.782e+03 3.302e-10
 30.34723     76.1 1.000e+04 3.990e-10
 30.37667     76.8 1.004e+04 4.096e-10
 30.39626     77.1 1.005e+04 4.114e-10
 30.41595     77.7 1.003e+04 4.081e-10
 30.43564     78.4 9.971e+03 3.997e-10
 30.46528     79.4 1.014e+04 4.089e-10
 30.50476     79.7 1.002e+04 3.460e-10
 30.54414     79.6 1.014e+04 3.288e-10
 30.58352     79.3 1.027e+04 3.537e-10
 30.60813     78.3 1.060e+04 4.471e-10
 30.61788     77.8 1.078e+04 5.731e-10
 30.63256     77.7 1.084e+04 6.577e-10
 30.65225     77.3 1.096e+04 7.700e-10
 30.67194     75.7 1.211e+04 1.025e-09
 30.69163     72.0 1.455e+04 1.712e-09
 30.71132     67.5 1.658e+04 3.257e-09
 30.73101     63.5 1.742e+04 5.299e-09
 30.75070     60.4 1.746e+04 6.176e-09
 30.76365     58.4 1.700e+04 5.687e-09
 30.76852     56.5 1.722e+04 5.513e-09
 30.77522     55.7 1.680e+04 5.044e-09
 30.79004     54.9 1.657e+04 4.111e-09
 30.80978     50.8 1.549e+04 2.295e-09
 30.82947     45.9 1.326e+04 1.186e-09
 30.84916     42.7 1.112e+04 7.894e-10
 30.86885     42.2 1.089e+04 7.461e-10
 30.88854     42.4 1.096e+04 7.400e-10
 30.90823     42.7 1.095e+04 7.192e-10
 30.91927     43.1 1.085e+04 6.781e-10
 30.92911     41.5 1.099e+04 7.312e-10
 30.94762     41.8 1.089e+04 6.937e-10
 30.96731     42.0 1.089e+04 6.900e-10
 30.98700     42.2 1.097e+04 7.126e-10
 31.00669     42.4 1.114e+04 7.800e-10
 31.02638     42.6 1.140e+04 8.994e-10
 31.04607     42.9 1.175e+04 1.077e-09
 31.06504     43.1 1.214e+04 1.307e-09
 31.07489     41.6 1.259e+04 1.658e-09
 31.08546     41.8 1.297e+04 1.985e-09
 31.10515     42.1 1.331e+04 2.340e-09
 31.12484     42.3 1.362e+04 2.696e-09
 31.14453     42.5 1.384e+04 3.004e-09
 31.16422     42.8 1.400e+04 3.282e-09
 31.18391     43.2 1.410e+04 3.491e-09
 31.20360     43.4 1.413e+04 3.541e-09
 31.22066     43.7 1.413e+04 3.499e-09
 31.23051     43.0 1.402e+04 3.389e-09
 31.24299     43.0 1.397e+04 3.168e-09
 31.26268     42.9 1.389e+04 2.888e-09
 31.28237     42.4 1.374e+04 2.580e-09
 31.30206     41.9 1.346e+04 2.309e-09
 31.32175     41.5 1.304e+04 2.023e-09
 31.34144     41.3 1.271e+04 1.802e-09
 31.36114     41.0 1.221e+04 1.530e-09
 31.37628     41.2 1.167e+04 1.252e-09
 31.38612     40.8 1.157e+04 1.218e-09
 31.39535     41.1 1.100e+04 9.391e-10
 31.40519     40.9 1.108e+04 9.705e-10
 31.42021     41.2 1.044e+04 7.140e-10
 31.43990     41.2 9.833e+03 5.078e-10
 31.45959     41.0 9.533e+03 4.288e-10
 31.48923     41.1 9.229e+03 3.512e-10
 31.52225     41.6 9.231e+03 3.517e-10
 31.54194     41.4 9.328e+03 3.825e-10
 31.56809     41.4 9.656e+03 4.461e-10
 31.59753     41.2 9.869e+03 4.905e-10
 31.61712     40.7 1.023e+04 5.946e-10
 31.63681     40.3 1.066e+04 7.587e-10
 31.65651     40.0 1.106e+04 9.462e-10
 31.67620     39.9 1.137e+04 1.099e-09
 31.68752     39.7 1.146e+04 1.125e-09
 31.69736     39.8 1.147e+04 1.139e-09
 31.71558     39.4 1.144e+04 1.111e-09
 31.73527     38.8 1.129e+04 1.007e-09
 31.75496     38.0 1.104e+04 8.597e-10
 31.77465     36.7 1.076e+04 7.200e-10
 31.79434     35.1 1.054e+04 6.247e-10
 31.81404     33.3 1.054e+04 6.176e-10
 31.83329     31.5 1.063e+04 6.381e-10
 31.84313     30.8 1.105e+04 8.226e-10
 31.85342     29.3 1.117e+04 8.908e-10
 31.87311     27.9 1.131e+04 9.621e-10
 31.89280     26.5 1.145e+04 1.028e-09
 31.91249     25.2 1.143e+04 1.033e-09
 31.93218     24.4 1.125e+04 9.711e-10
 31.95188     23.9 1.096e+04 8.398e-10
 31.97157     23.2 1.071e+04 6.978e-10
 31.98891     22.2 1.054e+04 5.787e-10
 31.99875     20.7 1.055e+04 5.735e-10
 32.01095     19.3 1.049e+04 5.186e-10
 32.03064     18.0 1.038e+04 5.019e-10
 32.05033     17.0 1.033e+04 5.114e-10
 32.07002     16.2 1.035e+04 5.400e-10
 32.08972     15.5 1.051e+04 5.971e-10
 32.10941     14.7 1.076e+04 6.802e-10
 32.12910     13.9 1.107e+04 7.952e-10
 32.14453     12.7 1.160e+04 9.928e-10
 32.15437     11.9 1.160e+04 1.063e-09
 32.16848     11.2 1.190e+04 1.252e-09
 32.18817     10.4 1.224e+04 1.418e-09
 32.20786      9.1 1.293e+04 1.624e-09
 32.22755      7.2 1.386e+04 1.915e-09
 32.24725      4.8 1.387e+04 2.094e-09
 32.26694      3.4 1.314e+04 1.958e-09
 32.28663      3.4 1.223e+04 1.663e-09
 32.30014      3.7 1.165e+04 1.334e-09
 32.30999      3.7 1.115e+04 1.051e-09
 32.32601      3.9 1.097e+04 8.002e-10
 32.34570      3.5 1.089e+04 5.637e-10
 32.36539      2.0 1.056e+04 4.109e-10
 32.38509     -0.5 1.017e+04 3.418e-10
 32.40478     -1.6 1.017e+04 3.486e-10
 32.42447     -2.9 1.023e+04 4.331e-10
 32.44416     -2.9 1.040e+04 4.914e-10
 32.45576     -2.7 1.052e+04 6.265e-10
 32.46561     -2.4 1.037e+04 5.221e-10
 32.48354     -1.6 1.043e+04 5.676e-10
 32.50323     -0.9 1.061e+04 5.944e-10
 32.52292     -0.4 1.071e+04 6.047e-10
 32.54262     -0.2 1.080e+04 6.160e-10
 32.56231     -0.4 1.096e+04 6.513e-10
 32.58200     -0.5 1.106e+04 7.175e-10
 32.60153     -0.5 1.118e+04 8.334e-10
 32.61138      0.4 1.085e+04 7.139e-10
 32.62138      0.8 1.101e+04 7.877e-10
 32.64107      0.9 1.131e+04 8.952e-10
 32.66076      0.9 1.170e+04 1.041e-09
 32.68046      0.8 1.197e+04 1.191e-09
 32.70015      1.0 1.204e+04 1.320e-09
 32.71984      1.4 1.195e+04 1.355e-09
 32.73953      2.0 1.188e+04 1.308e-09
 32.75715      2.5 1.181e+04 1.182e-09
 32.76700      2.9 1.166e+04 1.149e-09
 32.77891      3.4 1.159e+04 1.032e-09
 32.79860      3.7 1.138e+04 9.050e-10
 32.81829      3.9 1.118e+04 7.729e-10
 32.83799      4.1 1.095e+04 6.576e-10
 32.85768      4.4 1.074e+04 5.631e-10
 32.87737      4.8 1.059e+04 4.926e-10
 32.89706      5.3 1.044e+04 4.351e-10
 32.91277      5.7 1.030e+04 3.887e-10
 32.92262      6.4 1.050e+04 4.519e-10
 32.93644      6.8 1.037e+04 4.121e-10
 32.95613      7.1 1.027e+04 3.931e-10
 32.97583      7.5 1.025e+04 3.930e-10
 32.99552      8.0 1.029e+04 4.051e-10
 33.01521      8.4 1.041e+04 4.377e-10
 33.03490      8.9 1.052e+04 4.796e-10
 33.05459      9.4 1.073e+04 5.394e-10
 33.06839      9.7 1.102e+04 6.268e-10
 33.07824     10.8 1.086e+04 5.830e-10
 33.09397     11.2 1.115e+04 6.758e-10
 33.11366     11.8 1.134e+04 7.935e-10
 33.13336     12.5 1.152e+04 9.222e-10
 33.15305     13.4 1.174e+04 1.042e-09
 33.17274     14.1 1.201e+04 1.143e-09
 33.19243     14.6 1.228e+04 1.249e-09
 33.21212     15.1 1.249e+04 1.318e-09
 33.22401     15.9 1.246e+04 1.290e-09
 33.23385     16.1 1.279e+04 1.624e-09
 33.25150     17.2 1.283e+04 1.604e-09
 33.27120     18.1 1.301e+04 1.559e-09
 33.29089     18.5 1.343e+04 1.576e-09
 33.31058     18.8 1.386e+04 1.641e-09
 33.33027     19.3 1.416e+04 1.797e-09
 33.34996     20.3 1.428e+04 2.007e-09
 33.36965     22.2 1.434e+04 2.222e-09
 33.37963     24.8 1.438e+04 2.402e-09
 33.38947     25.1 1.463e+04 2.318e-09
 33.40904     28.0 1.479e+04 2.402e-09
 33.42873     31.1 1.504e+04 2.478e-09
 33.44842     34.3 1.534e+04 2.543e-09
 33.46811     37.3 1.572e+04 2.625e-09
 33.48780     37.9 2.065e+04 2.667e-09
 33.50252     26.7 5.541e+04 1.756e-09
 33.51232     16.5 6.970e+04 1.605e-09
 33.52216     -8.6 1.052e+05 1.731e-09
 33.53023    -41.3 5.635e+04 5.798e-08
 33.53512    -63.8 3.004e+04 6.370e-07
 33.53934    -67.4 2.123e+04 2.336e-06
 33.54427    -79.1 2.256e+04 2.950e-06
 33.54919    -94.7 2.856e+04 1.598e-06
 33.55411   -113.8 6.616e+04 4.787e-08
 33.55904   -126.1 1.067e+05 4.375e-09
 33.56396   -133.1 1.124e+05 1.968e-09
 33.57137   -140.1 1.089e+05 1.466e-09
 33.58124   -184.3 1.007e+05 3.677e-10
 33.59108   -222.4 2.746e+04 2.528e-10
 33.60590   -227.4 1.365e+04 3.117e-10
 33.62564   -228.0 1.107e+04 3.138e-10
 33.64533   -226.7 1.100e+04 3.055e-10
 33.66502   -225.8 1.093e+04 2.905e-10
 33.68112   -225.5 1.065e+04 2.614e-10
 33.70091   -224.5 1.069e+04 2.643e-10
 33.73414   -217.4 9.471e+03 2.299e-10
 33.77352   -212.7 9.241e+03 2.186e-10
 33.81290   -209.5 9.219e+03 2.157e-10
 33.85229   -206.6 9.198e+03 2.168e-10
 33.89167   -204.2 9.178e+03 2.273e-10
 33.93105   -202.0 9.178e+03 2.396e-10
 33.97043   -199.9 9.160e+03 2.453e-10
 33.99245   -197.7 9.117e+03 2.455e-10
 34.01214   -197.4 9.146e+03 2.558e-10
 34.04920   -195.2 9.014e+03 2.412e-10
 34.08858   -193.0 8.875e+03 2.200e-10
 34.12796   -190.8 8.727e+03 1.963e-10
 34.16735   -188.5 8.572e+03 1.716e-10
 34.20673   -186.3 8.412e+03 1.473e-10
 34.24611   -183.9 8.250e+03 1.242e-10
 34.28400   -181.5 8.099e+03 1.037e-10
 34.30369   -181.3 8.083e+03 1.020e-10
 34.32488   -178.9 7.955e+03 8.537e-11
 34.36426   -176.4 7.859e+03 7.279e-11
 34.40364   -174.0 7.797e+03 6.434e-11
 34.44303   -171.5 7.768e+03 5.981e-11
 34.48241   -169.1 7.762e+03 5.848e-11
 34.52179   -166.7 7.762e+03 5.830e-11
 34.56117   -164.5 7.772e+03 5.838e-11
 34.59523   -162.5 7.946e+03 5.936e-11
 34.61492   -162.4 7.935e+03 5.882e-11
 34.63994   -160.7 8.116e+03 6.921e-11
 34.67932   -159.5 8.308e+03 9.694e-11
 34.71870   -159.2 8.886e+03 1.590e-10
 34.75809   -159.1 9.719e+03 2.986e-10
 34.79747   -159.1 1.062e+04 5.503e-10
 34.83685   -159.7 1.132e+04 8.597e-10
 34.87624   -161.9 1.158e+04 1.016e-09
 34.90647   -164.5 1.153e+04 1.016e-09
 34.92616   -164.9 1.153e+04 9.972e-10
 34.95500   -167.7 1.077e+04 6.844e-10
 34.99438   -170.2 9.859e+03 3.983e-10
 35.03377   -173.0 9.477e+03 3.146e-10
 35.07315   -175.9 9.422e+03 3.054e-10
 35.11253   -178.5 9.766e+03 3.788e-10
 35.15191   -181.1 1.021e+04 5.343e-10
 35.19130   -183.6 1.043e+04 6.118e-10
 35.21771   -185.7 1.044e+04 6.095e-10
 35.23740   -186.3 1.057e+04 7.011e-10
 35.26012   -187.1 1.010e+04 5.410e-10
 35.27971   -187.5 9.898e+03 4.729e-10
 35.30935   -188.5 9.458e+03 3.603e-10
 35.34883   -189.5 9.040e+03 2.810e-10
 35.38821   -190.1 8.812e+03 2.433e-10
 35.42759   -190.3 8.777e+03 2.379e-10
 35.46698   -190.8 8.862e+03 2.580e-10
 35.50636   -191.7 9.891e+03 4.263e-10
 35.52894   -193.1 1.128e+04 8.001e-10
 35.53869   -190.1 1.032e+04 5.541e-10
 35.55539   -190.6 1.086e+04 7.152e-10
 35.57508   -191.3 1.166e+04 1.058e-09
 35.59477   -192.3 1.230e+04 1.349e-09
 35.61447   -194.1 1.313e+04 1.979e-09
 35.63416   -195.6 1.351e+04 2.299e-09
 35.65385   -197.2 1.358e+04 2.374e-09
 35.67354   -198.6 1.343e+04 2.340e-09
 35.68437   -199.8 1.283e+04 1.863e-09
 35.69421   -197.6 1.337e+04 2.310e-09
 35.71292   -198.7 1.270e+04 1.684e-09
 35.73261   -199.8 1.184e+04 1.017e-09
 35.75230   -201.2 1.084e+04 5.416e-10
 35.77200   -202.5 9.815e+03 2.939e-10
 35.79169   -203.3 9.168e+03 2.017e-10
 35.82039   -203.9 8.831e+03 1.610e-10
 35.84008   -201.4 8.988e+03 1.746e-10
 35.86070   -201.9 8.739e+03 1.476e-10
 35.90019   -202.4 8.393e+03 1.147e-10
 35.93957   -202.4 8.325e+03 1.073e-10
 35.97895   -202.0 8.330e+03 1.089e-10
 36.01833   -201.1 8.599e+03 1.394e-10
 36.05772   -200.2 8.920e+03 1.946e-10
 36.09710   -199.2 9.169e+03 2.538e-10
 36.13173   -198.2 9.333e+03 2.947e-10
 36.15142   -197.2 9.390e+03 3.086e-10
 36.16592   -196.4 9.385e+03 3.086e-10
 36.18551   -196.3 9.440e+03 3.164e-10
 36.20521   -196.0 9.506e+03 3.250e-10
 36.22490   -196.0 9.554e+03 3.309e-10
 36.24459   -195.9 9.615e+03 3.406e-10
 36.26428   -196.0 9.663e+03 3.508e-10
 36.28397   -195.9 9.696e+03 3.621e-10
 36.29700   -195.7 9.691e+03 3.695e-10
 36.30684   -195.8 9.710e+03 3.816e-10
 36.32335   -195.3 9.702e+03 3.824e-10
 36.34304   -194.8 9.661e+03 3.795e-10
 36.36274   -194.1 9.625e+03 3.745e-10
 36.38243   -193.6 9.610e+03 3.665e-10
 36.40212   -192.7 9.630e+03 3.618e-10
 36.42181   -192.3 9.676e+03 3.630e-10
 36.44287   -191.6 9.792e+03 3.773e-10
 36.46256   -190.3 9.813e+03 3.432e-10
 36.49083   -189.9 9.881e+03 3.457e-10
 36.53031   -188.9 9.818e+03 3.241e-10
 36.56969   -187.3 9.682e+03 3.021e-10
 36.60907   -185.6 9.590e+03 2.890e-10
 36.64846   -184.0 9.524e+03 2.823e-10
 36.68784   -182.3 9.500e+03 2.806e-10
 36.72722   -180.5 9.487e+03 2.860e-10
 36.75420   -178.5 9.495e+03 2.948e-10
 36.77389   -177.3 9.597e+03 2.953e-10
 36.80599   -175.3 9.587e+03 2.958e-10
 36.84537   -173.2 9.615e+03 2.980e-10
 36.88475   -171.0 9.660e+03 2.972e-10
 36.92413   -169.0 9.672e+03 2.890e-10
 36.96352   -167.0 9.676e+03 2.792e-10
 37.00290   -165.0 9.661e+03 2.722e-10
 37.04228   -163.0 9.674e+03 2.690e-10
 37.06276   -161.1 9.714e+03 2.732e-10
 37.06622   -160.7 9.541e+03 2.342e-10
 37.08513   -159.6 9.615e+03 2.332e-10
 37.12105   -157.7 9.653e+03 2.332e-10
 37.16043   -155.7 9.758e+03 2.471e-10
 37.19981   -153.8 9.843e+03 2.706e-10
 37.23920   -151.7 9.928e+03 2.971e-10
 37.27858   -149.5 1.002e+04 3.207e-10
 37.31796   -147.3 1.013e+04 3.357e-10
 37.35698   -145.0 1.023e+04 3.422e-10
 37.37667   -144.8 1.037e+04 3.986e-10
 37.39673   -142.7 1.039e+04 4.138e-10
 37.43611   -140.4 1.044e+04 4.329e-10
 37.47549   -138.1 1.050e+04 4.476e-10
 37.51488   -135.7 1.059e+04 4.472e-10
 37.55426   -133.4 1.068e+04 4.245e-10
 37.59364   -131.1 1.074e+04 3.830e-10
 37.63302   -128.8 1.078e+04 3.282e-10
 37.66822   -126.7 1.081e+04 2.732e-10
 37.68791   -128.0 1.072e+04 1.582e-10
 37.71179   -126.5 1.070e+04 1.428e-10
 37.75117   -125.3 1.088e+04 1.435e-10
 37.79055   -124.3 1.136e+04 1.503e-10
 37.82994   -123.4 1.202e+04 2.046e-10
 37.86932   -122.2 1.212e+04 3.226e-10
 37.90870   -120.8 1.197e+04 4.387e-10
 37.94808   -119.3 1.186e+04 5.261e-10
 37.97946   -117.8 1.181e+04 5.831e-10
 37.99915   -117.9 1.111e+04 3.805e-10
 38.02685   -116.4 1.111e+04 3.882e-10
 38.06623   -114.8 1.099e+04 3.722e-10
 38.10562   -113.1 1.077e+04 3.297e-10
 38.14500   -111.2 1.055e+04 2.760e-10
 38.18438   -109.2 1.037e+04 2.266e-10
 38.22376   -107.2 1.028e+04 1.939e-10
 38.26315   -105.2 1.030e+04 1.820e-10
 38.29069   -103.3 1.031e+04 1.807e-10
 38.31039   -103.5 1.027e+04 2.102e-10
 38.34191   -102.1 1.054e+04 2.548e-10
 38.38129   -100.7 1.086e+04 3.537e-10
 38.42068    -99.4 1.130e+04 4.903e-10
 38.44622    -98.6 1.151e+04 6.020e-10
 38.45596    -98.8 1.164e+04 6.210e-10
 38.46971    -98.5 1.181e+04 7.149e-10
 38.48940    -97.9 1.200e+04 8.447e-10
 38.50909    -97.3 1.215e+04 9.349e-10
 38.52878    -96.8 1.229e+04 1.015e-09
 38.54848    -96.6 1.242e+04 1.072e-09
 38.56817    -96.6 1.268e+04 1.148e-09
 38.58786    -97.6 1.369e+04 1.412e-09
 38.60174    -99.9 1.532e+04 2.259e-09
 38.61158    -99.7 1.485e+04 3.222e-09
 38.62724   -101.2 1.596e+04 5.298e-09
 38.64693   -101.9 1.680e+04 8.269e-09
 38.66662   -102.0 1.741e+04 1.128e-08
 38.68631   -101.8 1.809e+04 1.279e-08
 38.70103   -101.6 1.851e+04 1.236e-08
 38.71083   -101.6 1.826e+04 1.184e-08
 38.72068   -101.7 1.821e+04 1.046e-08
 38.73052   -102.2 1.877e+04 9.451e-09
 38.74037   -102.8 1.968e+04 8.853e-09
 38.75021   -102.9 2.112e+04 8.484e-09
 38.75731   -102.9 2.183e+04 8.372e-09
 38.76223   -102.3 1.710e+04 3.771e-09
 38.76991   -102.8 1.645e+04 3.032e-09
 38.78472   -103.5 1.540e+04 2.428e-09
 38.80446   -104.2 1.458e+04 1.786e-09
 38.82415   -104.5 1.386e+04 1.639e-09
 38.84385   -104.5 1.354e+04 1.609e-09
 38.86354   -104.5 1.303e+04 1.806e-09
 38.88323   -104.6 1.321e+04 2.248e-09
 38.90292   -104.7 1.388e+04 2.725e-09
 38.91297   -104.9 1.552e+04 3.106e-09
 38.92282   -104.8 1.308e+04 2.354e-09
 38.94230   -104.6 1.343e+04 2.826e-09
 38.96199   -104.0 1.372e+04 3.022e-09
 38.98168   -103.4 1.382e+04 3.034e-09
 39.00138   -102.5 1.371e+04 2.614e-09
 39.02107   -101.7 1.338e+04 1.927e-09
 39.04076   -101.3 1.294e+04 1.350e-09
 39.05875   -101.1 1.231e+04 9.570e-10
 39.06859    -98.6 1.257e+04 1.682e-09
 39.08014    -98.2 1.198e+04 1.214e-09
 39.09983    -97.9 1.140e+04 9.388e-10
 39.11952    -97.2 1.122e+04 8.383e-10
 39.13922    -95.9 1.125e+04 8.241e-10
 39.15891    -94.5 1.149e+04 8.585e-10
 39.17860    -93.1 1.174e+04 9.302e-10
 39.19829    -91.6 1.196e+04 1.007e-09
 39.21436    -90.2 1.214e+04 1.077e-09
 39.22421    -88.2 1.188e+04 1.181e-09
 39.23767    -86.7 1.206e+04 1.206e-09
 39.25736    -85.2 1.212e+04 1.221e-09
 39.27705    -83.8 1.211e+04 1.237e-09
 39.29675    -82.4 1.215e+04 1.254e-09
 39.31644    -81.0 1.229e+04 1.300e-09
 39.33613    -79.5 1.254e+04 1.388e-09
 39.35582    -78.0 1.284e+04 1.506e-09
 39.36998    -76.7 1.315e+04 1.624e-09
 39.37983    -74.7 1.224e+04 1.421e-09
 39.39520    -73.7 1.254e+04 1.517e-09
 39.41489    -73.1 1.287e+04 1.617e-09
 39.43459    -73.0 1.319e+04 1.765e-09
 39.45428    -74.5 1.370e+04 2.148e-09
 39.47397    -77.4 1.486e+04 3.000e-09
 39.49366    -81.6 1.704e+04 4.697e-09
 39.51335    -86.8 1.958e+04 7.348e-09
 39.52560    -92.2 2.164e+04 9.578e-09
 39.53545   -101.3 1.958e+04 7.050e-09
 39.54776   -102.9 2.035e+04 6.717e-09
 39.55756   -105.7 2.025e+04 6.323e-09
 39.56740   -109.7 1.757e+04 4.694e-09
 39.57725   -112.9 1.570e+04 3.531e-09
 39.58710   -115.6 1.442e+04 2.714e-09
 39.59694   -117.2 1.386e+04 2.244e-09
 39.61176   -118.7 1.312e+04 1.812e-09
 39.63150   -119.9 1.199e+04 1.244e-09
 39.65119   -120.1 1.177e+04 1.074e-09
 39.67088   -119.3 1.430e+04 9.910e-10
 39.68122   -118.0 1.822e+04 1.084e-09
 39.69107   -117.1 1.074e+04 7.973e-10
 39.71026   -115.8 1.101e+04 7.905e-10
 39.72996   -114.4 1.237e+04 7.860e-10
 39.74965   -113.1 1.512e+04 7.968e-10
 39.76934   -111.9 1.853e+04 8.337e-10
 39.78903   -110.7 2.165e+04 8.806e-10
 39.80872   -109.6 2.402e+04 9.393e-10
 39.82699   -109.0 2.515e+04 1.067e-09
 39.83684   -108.7 1.099e+04 6.661e-10
 39.84810   -107.7 1.135e+04 6.783e-10
 39.86780   -106.7 1.226e+04 7.043e-10
 39.88632   -105.8 1.454e+04 7.628e-10
 39.89617   -105.6 1.601e+04 7.849e-10
 39.90718   -104.9 1.790e+04 1.093e-09
 39.92687   -104.1 1.873e+04 1.657e-09
 39.94656   -103.0 1.878e+04 2.498e-09
 39.96625   -101.9 1.846e+04 3.583e-09
 39.98261   -100.7 1.781e+04 4.872e-09
 39.99246    -99.2 1.855e+04 1.589e-09
 40.00563    -98.3 1.886e+04 2.547e-09
 40.02533    -97.0 1.834e+04 4.019e-09
 40.04502    -95.6 1.765e+04 5.995e-09
 40.06471    -94.1 1.727e+04 8.180e-09
 40.08440    -92.6 1.740e+04 1.053e-08
 40.10409    -91.2 1.784e+04 1.380e-08
 40.12378    -89.9 1.844e+04 1.770e-08
 40.13818    -89.4 1.864e+04 2.335e-08
 40.14305    -89.9 1.849e+04 2.557e-08
 40.14830    -89.8 1.837e+04 3.296e-08
 40.15814    -89.3 1.841e+04 4.232e-08
 40.16799    -88.6 1.875e+04 5.168e-08
 40.17784    -87.9 1.935e+04 6.052e-08
 40.18768    -87.8 2.016e+04 6.426e-08
 40.19753    -87.8 2.095e+04 6.354e-08
 40.20737    -88.6 2.217e+04 5.698e-08
 40.21594    -89.5 2.500e+04 3.975e-08
 40.22086    -89.4 2.178e+04 5.679e-08
 40.22706    -90.0 2.271e+04 4.572e-08
 40.23691    -90.5 2.400e+04 3.576e-08
 40.24676    -91.0 2.466e+04 2.623e-08
 40.25660    -91.6 2.392e+04 1.887e-08
 40.26645    -92.2 2.231e+04 1.368e-08
 40.27629    -92.6 2.031e+04 1.021e-08
 40.28614    -92.9 1.837e+04 7.970e-09
 40.29375    -93.0 1.684e+04 6.490e-09
 40.29867    -91.3 2.093e+04 1.241e-08
 40.30583    -91.4 1.959e+04 1.002e-08
 40.31568    -91.4 1.829e+04 8.160e-09
 40.32552    -91.3 1.718e+04 6.620e-09
 40.33537    -91.1 1.633e+04 5.514e-09
 40.34521    -91.0 1.565e+04 4.773e-09
 40.35506    -90.6 1.514e+04 4.141e-09
 40.36490    -90.3 1.485e+04 3.888e-09
 40.37972    -89.7 1.460e+04 3.544e-09
 40.39946    -89.1 1.410e+04 2.763e-09
 40.41915    -88.5 1.369e+04 2.091e-09
 40.43884    -88.1 1.326e+04 1.542e-09
 40.44947    -87.8 1.285e+04 1.144e-09
 40.45931    -87.2 1.466e+04 2.915e-09
 40.47823    -87.0 1.462e+04 2.546e-09
 40.49792    -86.9 1.454e+04 2.241e-09
 40.51761    -86.7 1.444e+04 1.996e-09
 40.53730    -86.4 1.428e+04 1.794e-09
 40.55699    -85.8 1.411e+04 1.621e-09
 40.57668    -85.0 1.393e+04 1.481e-09
 40.59524    -84.1 1.372e+04 1.367e-09
 40.60508    -85.2 1.553e+04 3.730e-09
 40.61607    -84.6 1.573e+04 4.105e-09
 40.63576    -83.9 1.580e+04 4.339e-09
 40.65545    -83.0 1.595e+04 4.742e-09
 40.67514    -82.2 1.602e+04 5.077e-09
 40.69483    -81.2 1.605e+04 5.404e-09
 40.71452    -80.1 1.602e+04 5.538e-09
 40.73421    -79.0 1.594e+04 5.553e-09
 40.75086    -77.7 1.575e+04 5.202e-09
 40.76070    -78.6 1.773e+04 9.810e-09
 40.77360    -77.3 1.748e+04 8.620e-09
 40.79329    -76.0 1.720e+04 7.466e-09
 40.81298    -74.8 1.688e+04 6.425e-09
 40.83267    -73.5 1.655e+04 5.531e-09
 40.85236    -72.1 1.624e+04 4.799e-09
 40.87205    -70.8 1.596e+04 4.201e-09
 40.89174    -69.5 1.567e+04 3.690e-09
 40.90648    -68.2 1.536e+04 3.251e-09
 40.91632    -69.4 1.500e+04 3.301e-09
 40.93113    -67.8 1.461e+04 2.918e-09
 40.95082    -66.1 1.437e+04 2.679e-09
 40.97051    -64.7 1.423e+04 2.526e-09
 40.99020    -63.4 1.407e+04 2.383e-09
 41.00989    -62.1 1.382e+04 2.247e-09
 41.02958    -60.5 1.366e+04 2.198e-09
 41.04928    -59.1 1.362e+04 2.202e-09
 41.06209    -58.0 1.365e+04 2.288e-09
 41.07194    -58.2 1.290e+04 2.160e-09
 41.08866    -57.0 1.304e+04 2.322e-09
 41.10835    -55.6 1.327e+04 2.560e-09
 41.12804    -54.3 1.363e+04 2.942e-09
 41.14773    -53.2 1.400e+04 3.363e-09
 41.16742    -51.9 1.435e+04 3.785e-09
 41.18712    -50.5 1.464e+04 4.109e-09
 41.20681    -49.2 1.479e+04 4.250e-09
 41.21771    -48.0 1.485e+04 4.169e-09
 41.22756    -47.9 1.415e+04 3.129e-09
 41.24619    -46.7 1.412e+04 2.837e-09
 41.26588    -45.6 1.397e+04 2.489e-09
 41.28557    -44.5 1.381e+04 2.199e-09
 41.30526    -43.6 1.360e+04 1.888e-09
 41.32495    -42.7 1.334e+04 1.656e-09
 41.34465    -41.8 1.314e+04 1.393e-09
 41.36349    -40.9 1.291e+04 1.189e-09
 41.38327    -40.5 1.134e+04 5.538e-10
 41.41376    -38.7 1.115e+04 4.875e-10
 41.45314    -36.9 1.116e+04 4.873e-10
 41.49253    -35.0 1.136e+04 5.349e-10
 41.53191    -33.1 1.164e+04 6.864e-10
 41.57129    -31.2 1.184e+04 9.404e-10
 41.61067    -29.1 1.193e+04 1.198e-09
 41.65006    -26.9 1.185e+04 1.288e-09
 41.67492    -25.0 1.157e+04 1.155e-09
 41.69461    -24.8 1.064e+04 7.401e-10
 41.72882    -23.2 1.051e+04 6.912e-10
 41.75826    -21.9 1.048e+04 6.443e-10
 41.77786    -21.8 1.046e+04 6.426e-10
 41.79755    -20.8 1.032e+04 6.020e-10
 41.81724    -20.0 1.030e+04 5.864e-10
 41.83034    -19.3 1.024e+04 5.700e-10
 41.84019    -19.0 1.014e+04 5.451e-10
 41.85662    -18.1 1.008e+04 5.311e-10
 41.87631    -17.3 1.001e+04 5.060e-10
 41.89600    -16.6 9.892e+03 4.671e-10
 41.91569    -15.9 9.822e+03 4.273e-10
 41.93539    -15.6 9.772e+03 4.059e-10
 41.96502    -15.3 9.680e+03 3.997e-10
 41.98616    -14.7 9.221e+03 3.019e-10
 42.00585    -14.0 9.110e+03 2.762e-10
 42.04388    -12.7 8.802e+03 2.202e-10
 42.08327    -11.4 8.690e+03 1.801e-10
 42.12265    -10.5 8.643e+03 1.423e-10
 42.16203    -10.1 8.554e+03 1.180e-10
 42.20141     -9.4 8.473e+03 1.265e-10
 42.24080     -7.8 8.451e+03 1.377e-10
 42.27770     -5.8 8.490e+03 1.421e-10
 42.29739     -5.2 8.527e+03 1.454e-10
 42.31956     -3.5 8.605e+03 1.404e-10
 42.35895     -2.1 8.686e+03 1.309e-10
 42.39833     -0.7 8.780e+03 1.340e-10
 42.43771      0.9 8.771e+03 1.636e-10
 42.47709      3.4 8.945e+03 1.915e-10
 42.51648      5.7 9.079e+03 1.979e-10
 42.55586      7.9 9.113e+03 1.817e-10
 42.58894     10.2 9.108e+03 1.652e-10
 42.60863     10.2 9.150e+03 1.668e-10
 42.63462     12.4 9.158e+03 1.531e-10
 42.67401     14.7 9.129e+03 1.437e-10
 42.71028     17.0 9.121e+03 1.404e-10
 42.72997     17.6 9.162e+03 1.425e-10
 42.75277     20.0 9.175e+03 1.337e-10
 42.79215     22.4 9.201e+03 1.279e-10
 42.83154     24.7 9.259e+03 1.311e-10
 42.87092     27.0 9.341e+03 1.429e-10
 42.90017     29.2 9.523e+03 1.676e-10
 42.91987     29.1 9.617e+03 1.771e-10
 42.94969     31.4 9.835e+03 2.120e-10
 42.98907     33.5 1.012e+04 2.696e-10
 43.02845     35.5 1.045e+04 3.635e-10
 43.06783     37.2 1.084e+04 5.038e-10
 43.10722     38.9 1.126e+04 7.018e-10
 43.14660     40.6 1.163e+04 9.113e-10
 43.18598     42.0 1.186e+04 1.005e-09
 43.21141     43.5 1.178e+04 9.357e-10
 43.23110     42.6 1.202e+04 1.065e-09
 43.26475     44.0 1.160e+04 7.785e-10
 43.30413     45.1 1.113e+04 5.513e-10
 43.34351     46.1 1.067e+04 4.257e-10
 43.38289     47.5 1.027e+04 3.678e-10
 43.42228     49.3 1.002e+04 3.289e-10
 43.46166     51.3 9.874e+03 2.949e-10
 43.50104     53.4 9.799e+03 2.679e-10
 43.52265     55.5 9.742e+03 2.519e-10
 43.54234     55.2 9.349e+03 1.967e-10
 43.57981     57.3 9.292e+03 1.778e-10
 43.61919     59.5 9.254e+03 1.661e-10
 43.65857     61.6 9.184e+03 1.638e-10
 43.69796     63.8 9.158e+03 1.678e-10
 43.73734     66.0 9.215e+03 1.770e-10
 43.77672     68.1 9.264e+03 1.866e-10
 43.81419     70.0 9.317e+03 1.977e-10
 43.83389     69.8 8.842e+03 9.815e-11
 43.85549     71.5 8.875e+03 1.109e-10
 43.89487     73.2 8.914e+03 1.318e-10
 43.93425     74.7 8.959e+03 1.569e-10
 43.97364     76.1 9.043e+03 1.831e-10
 44.01302     77.4 9.008e+03 1.905e-10
 44.05240     78.5 8.941e+03 1.840e-10
 44.09178     79.6 8.762e+03 1.731e-10
 44.12543     80.8 8.714e+03 1.730e-10
 44.14512     81.2 9.097e+03 2.166e-10
 44.17055     82.3 9.129e+03 2.353e-10
 44.20993     83.3 9.173e+03 2.692e-10
 44.24931     84.3 9.286e+03 3.221e-10
 44.28870     85.3 9.449e+03 3.828e-10
 44.32808     86.1 9.540e+03 4.046e-10
 44.36746     86.8 9.498e+03 3.928e-10
 44.40684     87.5 9.324e+03 3.414e-10
 44.43667     88.1 9.081e+03 2.779e-10
 44.45636     86.8 8.984e+03 2.556e-10
 44.48561     87.3 9.004e+03 2.577e-10
 44.52499     87.9 9.146e+03 2.725e-10
 44.56438     88.3 9.368e+03 3.074e-10
 44.59219     88.4 9.424e+03 3.243e-10
 44.60194     87.9 9.502e+03 3.384e-10
 44.61341     88.0 9.661e+03 3.850e-10
 44.63310     88.2 9.966e+03 4.714e-10
 44.65279     88.2 1.037e+04 5.976e-10
 44.67248     88.1 1.085e+04 7.700e-10
 44.69217     87.8 1.142e+04 1.024e-09
 44.71187     87.2 1.220e+04 1.445e-09
 44.73156     86.7 1.332e+04 2.247e-09
 44.74771     86.1 1.426e+04 3.232e-09
 44.75751     85.3 1.474e+04 3.561e-09
 44.76592     83.4 1.673e+04 5.002e-09
 44.77576     79.1 2.053e+04 8.846e-09
 44.78561     74.1 2.181e+04 1.741e-08
 44.79546     72.1 2.083e+04 3.711e-08
 44.80530     72.2 2.016e+04 8.331e-08
 44.81515     73.2 2.018e+04 1.555e-07
 44.82499     73.8 2.048e+04 1.840e-07
 44.83034     73.9 2.054e+04 1.733e-07
 44.83527     74.1 2.047e+04 2.183e-07
 44.84468     74.3 2.062e+04 1.548e-07
 44.85453     74.2 2.147e+04 7.478e-08
 44.86438     71.6 2.308e+04 2.994e-08
 44.87422     67.5 2.359e+04 1.308e-08
 44.88904     60.1 1.937e+04 5.846e-09
 44.90333     55.3 1.530e+04 4.461e-09
 44.91317     54.5 1.501e+04 5.055e-09
 44.92847     54.6 1.473e+04 4.762e-09
 44.94816     54.7 1.464e+04 4.551e-09
 44.96785     54.9 1.452e+04 4.268e-09
 44.98754     54.9 1.427e+04 3.868e-09
 45.00724     55.1 1.400e+04 3.400e-09
 45.02693     55.3 1.382e+04 2.956e-09
 45.04662     55.1 1.376e+04 2.555e-09
 45.05895     54.4 1.390e+04 2.490e-09
 45.06879     52.9 1.345e+04 2.578e-09
 45.08600     50.7 1.415e+04 2.992e-09
 45.10569     47.7 1.546e+04 4.304e-09
 45.12538     45.9 1.623e+04 6.377e-09
 45.14507     46.1 1.631e+04 7.811e-09
 45.16477     46.2 1.621e+04 7.746e-09
 45.18446     46.6 1.573e+04 6.872e-09
 45.20415     47.1 1.486e+04 5.045e-09
 45.21457     47.2 1.384e+04 3.234e-09
 45.22441     47.0 1.452e+04 3.427e-09
 45.24353     45.3 1.338e+04 1.986e-09
 45.26322     42.7 1.185e+04 1.165e-09
 45.28291     41.1 1.046e+04 7.933e-10
 45.30261     41.0 1.007e+04 6.734e-10
 45.32230     41.7 1.003e+04 6.674e-10
 45.34199     42.8 1.005e+04 6.758e-10
 45.36034     43.9 1.013e+04 7.078e-10
 45.37018     42.9 1.064e+04 9.291e-10
 45.38137     43.6 1.192e+04 1.327e-09
 45.39609     44.7 1.243e+04 1.540e-09
 45.40589     41.7 1.662e+04 2.363e-09
 45.41573     31.9 2.618e+04 6.793e-09
 45.42558     25.0 2.816e+04 2.521e-08
 45.43542     25.5 2.591e+04 9.689e-08
 45.44278     25.2 2.576e+04 1.614e-07
 45.44538     25.5 2.537e+04 2.071e-07
 45.44787     25.1 2.522e+04 8.997e-08
 45.45512     23.9 2.502e+04 1.189e-07
 45.46496     23.9 2.427e+04 1.098e-07
 45.47481     24.8 2.380e+04 7.131e-08
 45.48465     24.0 2.482e+04 3.032e-08
 45.49947     24.9 2.743e+04 8.776e-09
 45.51596      2.7 3.460e+04 2.865e-10
 45.52580    -16.0 1.260e+04 2.080e-10
 45.53890    -25.7 1.184e+04 1.759e-10
 45.55354    -42.8 1.860e+04 6.092e-10
 45.56338    -42.2 1.889e+04 5.275e-10
 45.57828    -52.2 1.843e+04 5.092e-09
 45.59300    -51.2 1.810e+04 2.316e-08
 45.59859    -49.2 1.907e+04 4.918e-08
 45.60351    -49.0 1.920e+04 5.307e-08
 45.61265    -46.8 2.051e+04 9.729e-08
 45.62249    -45.8 2.129e+04 1.325e-07
 45.63234    -46.0 2.111e+04 1.328e-07
 45.64218    -45.0 2.094e+04 8.525e-08
 45.65203    -44.6 2.339e+04 3.808e-08
 45.66187    -48.7 2.905e+04 1.277e-08
 45.67148    -65.4 2.678e+04 3.208e-09
 45.67640    -72.1 2.123e+04 2.197e-09
 45.68157    -82.0 1.258e+04 1.396e-09
 45.69638    -84.1 1.155e+04 1.235e-09
 45.71612    -86.8 1.108e+04 1.005e-09
 45.73582    -88.5 1.074e+04 8.023e-10
 45.75551    -90.2 1.037e+04 6.154e-10
 45.77520    -91.9 9.985e+03 4.580e-10
 45.79489    -93.5 9.658e+03 3.615e-10
 45.82452    -95.0 9.401e+03 3.028e-10
 45.86400    -97.4 8.976e+03 2.421e-10
 45.90339    -99.6 8.597e+03 2.122e-10
 45.94277   -101.1 8.469e+03 2.075e-10
 45.97316   -102.1 8.399e+03 2.138e-10
 45.99285   -101.4 8.372e+03 2.147e-10
 46.02153   -102.1 8.356e+03 2.218e-10
 46.06092   -102.6 8.342e+03 2.219e-10
 46.10030   -103.1 8.340e+03 2.174e-10
 46.13968   -103.5 8.347e+03 2.140e-10
 46.17907   -103.8 8.405e+03 2.143e-10
 46.21845   -104.0 8.435e+03 2.147e-10
 46.25783   -104.1 8.469e+03 2.143e-10
 46.28440   -104.1 8.578e+03 2.183e-10
 46.30409   -102.5 8.200e+03 1.686e-10
 46.33660   -102.2 8.217e+03 1.663e-10
 46.37598   -102.2 8.411e+03 1.835e-10
 46.41536   -103.2 9.209e+03 2.989e-10
 46.45474   -104.5 1.044e+04 6.056e-10
 46.49413   -105.6 1.182e+04 1.314e-09
 46.52357   -105.7 1.286e+04 2.496e-09
 46.54316   -105.5 1.344e+04 3.466e-09
 46.56285   -105.4 1.375e+04 3.999e-09
 46.58254   -105.4 1.381e+04 4.089e-09
 46.59544   -105.5 1.360e+04 3.657e-09
 46.60529   -104.7 1.412e+04 4.573e-09
 46.62193   -104.6 1.363e+04 3.518e-09
 46.64162   -104.5 1.289e+04 2.302e-09
 46.66131   -105.5 1.206e+04 1.498e-09
 46.68100   -106.4 1.125e+04 1.049e-09
 46.70069   -106.8 1.062e+04 8.118e-10
 46.72038   -106.8 1.026e+04 6.964e-10
 46.74007   -106.5 1.004e+04 6.330e-10
 46.75106   -105.8 9.919e+03 5.948e-10
 46.76090   -105.3 1.008e+04 6.345e-10
 46.77946   -104.7 1.001e+04 6.138e-10
 46.79915   -104.1 9.971e+03 6.009e-10
 46.81884   -103.6 9.934e+03 5.873e-10
 46.83853   -103.1 9.903e+03 5.664e-10
 46.85822   -102.6 9.852e+03 5.317e-10
 46.87791   -102.1 9.790e+03 4.897e-10
 46.89683   -101.8 9.743e+03 4.556e-10
 46.90677   -101.9 1.019e+04 6.421e-10
 46.92734   -101.1 1.014e+04 6.191e-10
 46.96672   -100.4 9.968e+03 5.433e-10
 47.00610    -99.7 9.800e+03 4.738e-10
 47.04548    -98.9 9.697e+03 4.346e-10
 47.08487    -98.1 9.673e+03 4.237e-10
 47.12425    -97.3 9.755e+03 4.330e-10
 47.16363    -96.6 9.869e+03 4.654e-10
 47.19842    -95.9 9.904e+03 4.801e-10
 47.21811    -96.1 9.944e+03 4.844e-10
 47.24240    -95.4 9.878e+03 4.699e-10
 47.28178    -94.6 9.574e+03 3.735e-10
 47.32116    -93.7 9.167e+03 2.511e-10
 47.36055    -93.0 8.803e+03 1.610e-10
 47.39993    -92.4 8.574e+03 1.126e-10
 47.43931    -91.7 8.514e+03 9.701e-11
 47.47869    -91.2 8.516e+03 9.483e-11
 47.50965    -91.1 8.619e+03 1.013e-10
 47.52935    -90.9 8.485e+03 8.671e-11
 47.55746    -91.3 8.859e+03 1.247e-10
 47.59684    -91.5 9.379e+03 2.371e-10
 47.63622    -91.5 9.887e+03 4.022e-10
 47.67561    -91.4 1.025e+04 5.282e-10
 47.71499    -91.4 1.033e+04 5.552e-10
 47.75437    -91.4 1.017e+04 4.784e-10
 47.79376    -91.3 9.747e+03 3.248e-10
 47.82089    -91.6 9.443e+03 2.313e-10
 47.84058    -91.1 9.379e+03 2.313e-10
 47.87252    -91.4 9.315e+03 2.062e-10
 47.91190    -92.1 9.344e+03 2.059e-10
 47.95129    -94.7 1.051e+04 3.824e-10
 47.99067    -97.7 1.209e+04 1.025e-09
 48.03005   -100.5 1.302e+04 1.960e-09
 48.05949   -102.2 1.333e+04 2.498e-09
 48.07908   -103.8 1.327e+04 2.519e-09
 48.09878   -104.7 1.281e+04 2.100e-09
 48.11847   -105.7 1.220e+04 1.413e-09
 48.13193   -106.9 1.158e+04 9.020e-10
 48.14178   -106.3 1.177e+04 1.047e-09
 48.15785   -107.7 1.120e+04 6.874e-10
 48.17754   -108.8 1.075e+04 4.736e-10
 48.19723   -109.7 1.043e+04 3.529e-10
 48.22687   -110.5 1.024e+04 2.913e-10
 48.26635   -110.9 1.005e+04 2.544e-10
 48.30573   -111.0 9.985e+03 2.433e-10
 48.34511   -111.0 1.014e+04 2.683e-10
 48.37750   -110.8 1.047e+04 3.458e-10
 48.39719   -109.6 1.009e+04 2.825e-10
 48.42367   -109.3 1.039e+04 3.552e-10
 48.44337   -108.4 1.089e+04 7.511e-10
 48.46326   -108.0 1.116e+04 8.173e-10
 48.50264   -107.7 1.126e+04 7.852e-10
 48.54203   -107.4 1.099e+04 4.872e-10
 48.58141   -107.6 1.015e+04 2.381e-10
 48.62079   -108.3 9.351e+03 1.378e-10
 48.66017   -108.6 9.076e+03 1.161e-10
 48.69956   -108.5 9.033e+03 1.129e-10
 48.73491   -108.5 9.201e+03 1.211e-10
 48.75460   -106.4 9.587e+03 1.810e-10
 48.77832   -106.4 9.856e+03 2.007e-10
 48.81771   -106.7 1.009e+04 2.674e-10
 48.85709   -107.1 1.028e+04 3.533e-10
 48.89647   -107.5 1.041e+04 4.215e-10
 48.93585   -108.0 1.044e+04 4.419e-10
 48.97524   -108.6 1.041e+04 4.421e-10
 49.01462   -109.1 1.021e+04 4.017e-10
 49.04615   -109.6 9.920e+03 3.370e-10
 49.06574   -108.6 9.928e+03 3.520e-10
 49.09329   -108.9 9.817e+03 3.151e-10
 49.13277   -109.5 9.468e+03 2.513e-10
 49.17215   -110.1 9.230e+03 2.176e-10
 49.21153   -110.5 9.111e+03 2.021e-10
 49.25091   -110.9 9.031e+03 1.879e-10
 49.29030   -111.3 8.922e+03 1.639e-10
 49.32968   -111.5 8.778e+03 1.327e-10
 49.35739   -111.7 8.618e+03 1.046e-10
 49.37708   -110.9 8.720e+03 1.209e-10
 49.40845   -111.0 8.555e+03 1.012e-10
 49.44783   -111.0 8.423e+03 9.129e-11
 49.48721   -110.9 8.341e+03 8.766e-11
 49.52659   -110.5 8.319e+03 8.690e-11
 49.56598   -110.1 8.329e+03 8.709e-11
 49.60536   -110.1 8.402e+03 9.087e-11
 49.64474   -110.4 8.554e+03 1.131e-10
 49.66862   -110.9 8.884e+03 1.695e-10
 49.68831   -110.6 9.075e+03 2.238e-10
 49.72351   -110.9 9.520e+03 3.399e-10
 49.76289   -111.1 9.946e+03 4.826e-10
 49.80227   -111.3 1.020e+04 5.768e-10
 49.84166   -111.6 1.025e+04 5.967e-10
 49.88104   -111.7 1.008e+04 5.239e-10
 49.92042   -111.2 9.627e+03 3.366e-10
 49.95980   -110.6 9.127e+03 1.951e-10
 49.97986   -109.9 8.741e+03 1.234e-10
 49.99955   -110.0 8.505e+03 9.664e-11
 50.03857   -109.0 8.305e+03 8.465e-11
 50.07795   -107.5 8.204e+03 8.073e-11
 50.11733   -105.8 8.122e+03 7.797e-11
 50.15672   -103.9 8.054e+03 7.503e-11
 50.19610   -102.0 8.026e+03 7.267e-11
 50.23548   -100.0 8.028e+03 7.201e-11
 50.27140    -98.0 8.109e+03 7.380e-11
 50.29110    -97.9 8.287e+03 8.969e-11
 50.31425    -95.9 8.410e+03 9.703e-11
 50.35363    -94.0 8.507e+03 1.035e-10
 50.39301    -92.0 8.561e+03 1.068e-10
 50.43240    -89.9 8.574e+03 1.075e-10
 50.47178    -87.8 8.549e+03 1.025e-10
 50.51116    -85.6 8.473e+03 8.861e-11
 50.55054    -83.3 8.354e+03 7.163e-11
 50.58264    -80.9 8.233e+03 5.745e-11
 50.60233    -80.4 8.278e+03 5.946e-11
 50.62931    -77.8 8.261e+03 5.316e-11
 50.66869    -75.4 8.281e+03 5.218e-11
 50.70807    -73.9 8.413e+03 5.433e-11
 50.74746    -73.4 9.083e+03 1.146e-10
 50.78684    -72.1 1.042e+04 3.365e-10
 50.82622    -69.6 1.156e+04 7.528e-10
 50.86560    -67.4 1.248e+04 1.218e-09
 50.89388    -66.2 1.304e+04 1.470e-09
 50.91357    -61.4 1.305e+04 1.379e-09
 50.94437    -60.2 1.317e+04 1.403e-09
 50.97381    -61.8 1.312e+04 1.327e-09
 50.99340    -62.5 1.306e+04 1.180e-09
 51.01309    -63.5 1.276e+04 1.010e-09
 51.03279    -66.1 1.340e+04 8.974e-10
 51.04930    -89.8 5.276e+04 4.678e-10
 51.05910   -116.2 6.701e+04 1.319e-09
 51.06715   -143.9 4.000e+04 3.736e-08
 51.07699   -159.7 3.215e+04 3.419e-07
 51.08684   -185.0 3.227e+04 5.692e-07
 51.09669   -219.1 3.508e+04 3.561e-07
 51.10653   -256.5 3.342e+04 4.931e-08
 51.11638   -274.3 2.542e+04 9.417e-09
 51.12622   -278.3 2.183e+04 5.687e-09
 51.13194   -280.5 2.066e+04 4.474e-09
 51.13686   -284.1 1.991e+04 3.745e-09
 51.14591   -284.8 1.958e+04 3.232e-09
 51.15576   -285.0 1.934e+04 2.956e-09
 51.17058   -285.3 1.868e+04 2.657e-09
 51.19032   -285.0 1.663e+04 2.043e-09
 51.20492   -283.1 1.392e+04 1.553e-09
 51.21477   -288.1 1.415e+04 1.557e-09
 51.22076   -284.4 1.406e+04 1.443e-09
 51.23060   -282.1 1.338e+04 1.163e-09
 51.24939   -278.5 1.313e+04 1.111e-09
 51.26908   -274.9 1.282e+04 1.062e-09
 51.28877   -271.5 1.257e+04 1.012e-09
 51.30846   -268.1 1.234e+04 9.650e-10
 51.32816   -264.8 1.213e+04 9.235e-10
 51.34785   -261.4 1.194e+04 8.920e-10
 51.36054   -258.3 1.179e+04 8.687e-10
 51.37038   -259.6 1.265e+04 1.047e-09
 51.38723   -256.5 1.251e+04 1.021e-09
 51.40692   -253.6 1.237e+04 9.937e-10
 51.42661   -250.7 1.225e+04 9.673e-10
 51.44630   -248.0 1.215e+04 9.441e-10
 51.46600   -245.5 1.207e+04 9.220e-10
 51.48569   -243.2 1.199e+04 8.987e-10
 51.50538   -241.0 1.192e+04 8.762e-10
 51.51616   -238.9 1.186e+04 8.581e-10
 51.52600   -239.7 1.273e+04 1.266e-09
 51.54476   -237.7 1.266e+04 1.285e-09
 51.56445   -235.9 1.260e+04 1.299e-09
 51.58414   -234.1 1.253e+04 1.307e-09
 51.60383   -232.4 1.244e+04 1.313e-09
 51.62353   -230.7 1.234e+04 1.309e-09
 51.64322   -229.1 1.225e+04 1.297e-09
 51.66193   -227.5 1.215e+04 1.277e-09
 51.67178   -227.8 1.273e+04 1.845e-09
 51.68260   -226.2 1.262e+04 1.788e-09
 51.70229   -224.6 1.249e+04 1.707e-09
 51.72198   -223.1 1.234e+04 1.600e-09
 51.74167   -221.7 1.216e+04 1.465e-09
 51.76137   -220.3 1.194e+04 1.311e-09
 51.78106   -218.9 1.170e+04 1.152e-09
 51.80075   -217.5 1.142e+04 9.991e-10
 51.81755   -216.1 1.115e+04 8.629e-10
 51.82739   -216.3 1.141e+04 9.796e-10
 51.84013   -215.1 1.115e+04 8.433e-10
 51.85982   -213.8 1.089e+04 7.288e-10
 51.87951   -212.4 1.065e+04 6.330e-10
 51.89921   -211.0 1.043e+04 5.514e-10
 51.91890   -209.4 1.024e+04 4.792e-10
 51.93859   -207.8 1.010e+04 4.199e-10
 51.95828   -206.3 1.002e+04 3.805e-10
 51.97317   -205.1 9.984e+03 3.561e-10
 51.98301   -205.3 1.004e+04 3.699e-10
 51.99766   -204.1 9.989e+03 3.449e-10
 52.01735   -203.0 9.938e+03 3.247e-10
 52.04699   -201.1 9.963e+03 3.192e-10
 52.08647   -199.1 9.942e+03 3.091e-10
 52.11914   -196.5 9.900e+03 3.094e-10
 52.13883   -196.8 1.002e+04 3.602e-10
 52.16523   -194.0 9.932e+03 3.669e-10
 52.20462   -191.3 9.894e+03 3.747e-10
 52.24400   -188.5 9.852e+03 3.827e-10
 52.28338   -185.8 9.813e+03 3.843e-10
 52.32276   -183.0 9.668e+03 3.761e-10
 52.36215   -180.2 9.542e+03 3.442e-10
 52.40153   -177.4 9.358e+03 3.023e-10
 52.43037   -174.5 9.147e+03 2.565e-10
 52.45006   -174.1 9.053e+03 2.359e-10
 52.48029   -171.3 8.937e+03 2.095e-10
 52.51968   -168.6 8.839e+03 1.831e-10
 52.55906   -166.0 8.774e+03 1.622e-10
 52.59844   -163.6 8.743e+03 1.472e-10
 52.63783   -161.1 8.750e+03 1.396e-10
 52.67721   -158.7 8.762e+03 1.387e-10
 52.71659   -156.2 8.811e+03 1.426e-10
 52.74161   -153.7 8.868e+03 1.492e-10
 52.76130   -153.9 9.088e+03 2.064e-10
 52.79536   -151.4 9.166e+03 2.195e-10
 52.83474   -148.9 9.240e+03 2.285e-10
 52.87412   -146.4 9.311e+03 2.342e-10
 52.91350   -144.0 9.404e+03 2.411e-10
 52.95289   -141.7 9.556e+03 2.609e-10
 52.99227   -139.6 9.788e+03 3.135e-10
 53.03165   -137.7 1.014e+04 4.212e-10
 53.05285   -136.0 1.063e+04 6.059e-10
 53.07254   -136.8 1.071e+04 6.602e-10
 53.11042   -135.5 1.118e+04 8.824e-10
 53.14980   -134.5 1.160e+04 1.107e-09
 53.18918   -133.8 1.192e+04 1.281e-09
 53.22857   -133.2 1.206e+04 1.371e-09
 53.26795   -132.2 1.208e+04 1.390e-09
 53.30733   -131.1 1.200e+04 1.388e-09
 53.34439   -130.0 1.186e+04 1.370e-09
 53.36408   -130.0 1.166e+04 1.182e-09
 53.38610   -128.8 1.175e+04 1.316e-09
 53.42548   -127.4 1.182e+04 1.447e-09
 53.46486   -125.8 1.179e+04 1.485e-09
 53.50424   -124.0 1.168e+04 1.447e-09
 53.53368   -122.4 1.139e+04 1.252e-09
 53.55328   -121.8 1.118e+04 1.113e-09
 53.57297   -120.6 1.083e+04 8.979e-10
 53.59266   -119.7 1.060e+04 7.650e-10
 53.61235   -118.8 1.029e+04 6.304e-10
 53.63204   -117.8 9.985e+03 5.193e-10
 53.65173   -116.8 9.763e+03 4.521e-10
 53.66528   -116.0 9.632e+03 4.137e-10
 53.67512   -115.8 9.617e+03 3.946e-10
 53.69112   -114.8 9.483e+03 3.552e-10
 53.71081   -113.7 9.433e+03 3.383e-10
 53.74044   -112.1 9.453e+03 3.311e-10
 53.77992   -110.1 9.392e+03 3.166e-10
 53.81931   -107.9 9.357e+03 3.116e-10
 53.85869   -105.8 9.394e+03 3.238e-10
 53.89807   -103.8 9.554e+03 3.660e-10
 53.93745   -101.9 9.698e+03 4.173e-10
 53.96677   -100.3 9.702e+03 4.176e-10
 53.98646    -99.9 9.527e+03 3.341e-10
 54.01622    -98.0 9.606e+03 3.662e-10
 54.04471    -96.0 9.653e+03 3.924e-10
 54.06440    -96.0 9.382e+03 3.300e-10
 54.09498    -93.9 9.467e+03 3.560e-10
 54.13437    -91.9 9.514e+03 3.747e-10
 54.17375    -89.9 9.546e+03 3.901e-10
 54.21313    -87.9 9.548e+03 3.956e-10
 54.25252    -85.8 9.441e+03 3.822e-10
 54.27810    -83.4 9.280e+03 3.465e-10
 54.29779    -83.6 9.261e+03 3.264e-10
 54.33128    -81.1 9.170e+03 2.930e-10
 54.37066    -78.6 9.120e+03 2.508e-10
 54.41005    -76.1 9.022e+03 2.158e-10
 54.44943    -73.6 8.914e+03 1.924e-10
 54.48881    -71.0 8.869e+03 1.730e-10
 54.52819    -68.3 8.824e+03 1.540e-10
 54.56758    -65.5 8.790e+03 1.348e-10
 54.58934    -62.7 8.752e+03 1.165e-10
 54.60903    -62.9 8.916e+03 1.378e-10
 54.64634    -60.1 8.909e+03 1.216e-10
 54.68573    -57.2 8.889e+03 1.081e-10
 54.72511    -54.4 8.893e+03 9.736e-11
 54.76449    -51.6 8.919e+03 9.133e-11
 54.80387    -48.7 8.936e+03 9.006e-11
 54.84326    -46.0 9.035e+03 9.296e-11
 54.88089    -43.4 9.151e+03 1.052e-10
 54.90058    -43.7 9.424e+03 1.936e-10
 54.92202    -41.1 9.558e+03 2.358e-10
 54.96140    -38.4 9.698e+03 2.858e-10
 55.00079    -35.7 9.840e+03 3.294e-10
 55.04017    -33.0 9.969e+03 3.599e-10
 55.07955    -30.6 1.006e+04 3.775e-10
 55.11893    -28.2 1.012e+04 3.960e-10
 55.15832    -25.9 1.025e+04 4.049e-10
 55.19212    -23.7 1.036e+04 4.212e-10
 55.21181    -23.8 1.030e+04 3.385e-10
 55.23708    -21.6 1.042e+04 3.646e-10
 55.27647    -19.3 1.045e+04 4.155e-10
 55.31585    -16.7 1.048e+04 4.506e-10
 55.35523    -14.1 1.057e+04 4.157e-10
 55.39461    -11.8 1.066e+04 3.838e-10
 55.43400     -9.5 1.072e+04 3.739e-10
 55.47338     -7.0 1.073e+04 3.651e-10
 55.50336     -4.2 1.070e+04 3.289e-10
 55.52305     -4.2 1.081e+04 3.498e-10
 55.55214     -1.9 1.082e+04 2.986e-10
 55.59153      0.3 1.079e+04 2.643e-10
 55.63091      2.7 1.072e+04 2.320e-10
 55.67029      5.0 1.070e+04 2.004e-10
 55.70968      7.3 1.068e+04 1.691e-10
 55.74906      9.3 1.071e+04 1.432e-10
 55.78844     11.1 1.066e+04 1.293e-10
 55.81460     13.0 1.060e+04 1.224e-10
 55.83429     12.3 1.056e+04 9.246e-11
 55.86721     14.3 1.056e+04 8.519e-11
 55.90659     16.1 1.064e+04 8.121e-11
 55.94597     18.0 1.071e+04 8.234e-11
 55.98535     19.6 1.082e+04 8.983e-11
 56.02474     21.3 1.091e+04 1.123e-10
 56.06412     23.2 1.103e+04 1.531e-10
 56.10350     24.7 1.123e+04 2.235e-10
 56.12583     25.9 1.156e+04 3.996e-10
 56.14552     24.9 1.179e+04 4.970e-10
 56.18227     26.3 1.215e+04 8.653e-10
 56.22165     27.6 1.235e+04 1.074e-09
 56.26103     28.9 1.222e+04 1.009e-09
 56.30042     30.8 1.181e+04 7.079e-10
 56.33980     32.5 1.154e+04 3.399e-10
 56.37918     33.4 1.146e+04 1.563e-10
 56.41738     34.1 1.103e+04 1.231e-10
 56.43707     33.4 1.109e+04 1.069e-10
 56.45795     34.7 1.097e+04 1.181e-10
 56.49733     36.4 1.092e+04 1.470e-10
 56.53671     38.1 1.101e+04 1.934e-10
 56.57609     39.9 1.107e+04 2.530e-10
 56.61548     41.8 1.112e+04 3.100e-10
 56.65486     43.8 1.112e+04 3.520e-10
 56.69424     45.9 1.111e+04 3.817e-10
 56.72862     48.1 1.112e+04 3.925e-10
 56.74831     47.7 1.116e+04 3.776e-10
 56.77301     50.0 1.109e+04 3.482e-10
 56.81239     52.4 1.099e+04 3.027e-10
 56.85177     54.9 1.086e+04 2.463e-10
 56.89116     57.5 1.074e+04 1.915e-10
 56.93054     60.0 1.063e+04 1.479e-10
 56.96992     62.5 1.055e+04 1.181e-10
 57.00930     65.1 1.047e+04 9.903e-11
 57.03985     67.7 1.040e+04 8.738e-11
 57.05954     67.8 1.041e+04 8.381e-11
 57.08807     70.5 1.035e+04 7.784e-11
 57.12745     73.3 1.036e+04 7.596e-11
 57.16683     76.1 1.037e+04 7.643e-11
 57.20622     78.8 1.041e+04 8.099e-11
 57.24560     81.5 1.049e+04 9.365e-11
 57.28498     84.1 1.053e+04 1.169e-10
 57.32437     86.7 1.058e+04 1.482e-10
 57.35109     89.3 1.065e+04 1.831e-10
 57.37078     89.4 1.076e+04 2.325e-10
 57.40313     91.9 1.087e+04 2.716e-10
 57.44251     94.2 1.096e+04 2.919e-10
 57.48190     96.4 1.101e+04 2.990e-10
 57.52128     98.6 1.102e+04 2.948e-10
 57.56066    100.8 1.103e+04 2.863e-10
 57.60004    103.2 1.107e+04 2.804e-10
 57.63943    105.5 1.111e+04 2.785e-10
 57.66233    107.9 1.120e+04 2.760e-10
 57.68202    107.8 1.113e+04 2.421e-10
 57.71819    110.1 1.109e+04 2.242e-10
 57.75757    112.4 1.106e+04 2.160e-10
 57.79696    114.7 1.102e+04 2.109e-10
 57.83634    116.8 1.098e+04 2.094e-10
 57.87572    118.7 1.094e+04 2.071e-10
 57.91511    120.4 1.096e+04 2.097e-10
 57.95387    121.9 1.092e+04 2.105e-10
 57.97356    122.0 1.119e+04 2.972e-10
 57.99387    123.6 1.121e+04 3.167e-10
 58.03325    125.1 1.111e+04 3.184e-10
 58.07264    126.7 1.103e+04 3.218e-10
 58.11202    128.4 1.095e+04 3.341e-10
 58.15140    130.3 1.094e+04 3.549e-10
 58.19078    132.3 1.091e+04 3.739e-10
 58.23017    134.4 1.085e+04 3.673e-10
 58.26511    136.6 1.072e+04 3.523e-10
 58.28480    136.6 1.107e+04 4.810e-10
 58.30893    138.9 1.086e+04 4.222e-10
 58.34831    141.1 1.066e+04 3.717e-10
 58.38770    143.4 1.048e+04 3.340e-10
 58.42708    145.7 1.033e+04 3.092e-10
 58.46646    147.9 1.022e+04 2.928e-10
 58.50585    150.0 1.013e+04 2.793e-10
 58.54523    152.0 1.004e+04 2.631e-10
 58.57635    154.1 9.942e+03 2.420e-10
 58.59604    154.0 1.007e+04 2.669e-10
 58.62399    156.1 9.926e+03 2.313e-10
 58.66338    158.3 9.779e+03 1.919e-10
 58.70276    160.6 9.638e+03 1.538e-10
 58.74214    162.9 9.485e+03 1.235e-10
 58.78152    165.3 9.299e+03 1.078e-10
 58.82091    167.9 9.231e+03 1.065e-10
 58.86029    170.7 9.230e+03 1.069e-10
 58.88758    173.5 9.233e+03 1.099e-10
 58.90727    173.7 9.254e+03 1.278e-10
 58.93906    176.6 9.288e+03 1.367e-10
 58.97844    179.4 9.331e+03 1.485e-10
 59.01782    182.1 9.367e+03 1.605e-10
 59.05720    184.8 9.390e+03 1.705e-10
 59.09659    187.6 9.394e+03 1.770e-10
 59.13597    190.4 9.381e+03 1.794e-10
 59.17535    193.2 9.370e+03 1.793e-10
 59.19882    195.9 9.328e+03 1.782e-10
 59.21851    196.3 9.308e+03 1.833e-10
 59.25412    199.1 9.260e+03 1.839e-10
 59.29350    202.0 9.253e+03 1.848e-10
 59.33288    204.8 9.250e+03 1.874e-10
 59.37226    207.6 9.257e+03 1.941e-10
 59.41165    210.3 9.297e+03 2.087e-10
 59.45103    212.9 9.380e+03 2.333e-10
 59.49037    215.4 9.499e+03 2.676e-10
 59.52975    218.1 9.648e+03 3.087e-10
 59.56918    220.5 9.744e+03 3.323e-10
 59.60856    222.9 9.822e+03 3.531e-10
 59.64794    225.2 9.878e+03 3.721e-10
 59.68733    227.4 9.897e+03 3.901e-10
 59.71183    229.2 9.835e+03 3.922e-10
 59.73152    231.4 9.825e+03 3.803e-10
 59.75615    232.4 9.879e+03 4.018e-10
 59.77574    233.7 9.945e+03 4.263e-10
 59.79543    235.4 1.007e+04 4.796e-10
 59.81125    237.0 1.025e+04 5.516e-10
 59.82110    236.8 1.000e+04 4.918e-10
 59.83482    238.2 1.021e+04 5.752e-10
 59.85451    239.3 1.044e+04 6.641e-10
 59.87420    240.3 1.069e+04 7.692e-10
 59.89389    241.2 1.100e+04 9.089e-10
 59.91358    242.0 1.140e+04 1.105e-09
 59.93327    242.8 1.188e+04 1.377e-09
 59.95296    243.5 1.241e+04 1.736e-09
 59.96687    244.1 1.297e+04 2.172e-09
 59.97672    244.0 1.261e+04 1.898e-09
 59.99235    244.6 1.311e+04 2.309e-09
 60.01204    245.1 1.366e+04 2.766e-09
 60.03173    245.6 1.428e+04 3.275e-09
 60.05142    245.9 1.500e+04 3.831e-09
 60.07111    246.0 1.582e+04 4.481e-09
 60.09080    246.0 1.663e+04 5.320e-09
 60.11049    245.9 1.733e+04 6.382e-09
 60.12249    246.0 1.784e+04 7.678e-09
 60.13234    244.3 1.775e+04 9.828e-09
 60.14988    244.9 1.800e+04 1.163e-08
 60.16957    245.6 1.825e+04 1.313e-08
 60.18926    246.3 1.850e+04 1.391e-08
 60.20895    247.0 1.870e+04 1.439e-08
 60.22864    247.6 1.892e+04 1.450e-08
 60.24833    248.1 1.900e+04 1.420e-08
 60.26803    248.3 1.916e+04 1.339e-08
 60.27811    248.4 1.935e+04 1.233e-08
 60.28795    247.9 1.837e+04 6.550e-09
 60.30741    247.8 1.815e+04 5.566e-09
 60.32710    247.7 1.781e+04 4.868e-09
 60.34679    247.7 1.731e+04 4.413e-09
 60.36648    247.7 1.687e+04 4.110e-09
 60.38617    247.5 1.658e+04 3.915e-09
 60.40586    247.1 1.620e+04 3.896e-09
 60.42388    246.5 1.615e+04 3.970e-09
 60.43373    247.5 1.446e+04 3.181e-09
 60.44525    247.3 1.480e+04 3.393e-09
 60.46494    246.8 1.520e+04 3.644e-09
 60.48463    246.0 1.556e+04 3.916e-09
 60.50432    245.0 1.574e+04 4.072e-09
 60.52401    243.9 1.571e+04 4.067e-09
 60.54370    242.8 1.545e+04 3.902e-09
 60.56340    241.7 1.491e+04 3.401e-09
 60.57950    240.4 1.410e+04 2.654e-09
 60.58935    243.3 1.563e+04 3.435e-09
 60.60278    241.8 1.492e+04 2.689e-09
 60.62247    239.9 1.369e+04 1.841e-09
 60.64216    237.7 1.193e+04 1.150e-09
 60.66185    235.0 1.044e+04 7.598e-10
 60.68154    231.6 9.914e+03 5.925e-10
 60.71118    227.8 1.011e+04 5.711e-10
 60.73531    225.0 1.027e+04 5.408e-10
 60.74506    222.8 1.057e+04 6.854e-10
 60.76031    221.9 1.069e+04 8.585e-10
 60.78000    221.9 1.108e+04 1.036e-09
 60.79969    222.0 1.141e+04 1.126e-09
 60.81938    222.3 1.161e+04 1.152e-09
 60.83907    222.7 1.161e+04 1.119e-09
 60.86871    223.5 1.169e+04 1.099e-09
 60.90819    224.8 1.107e+04 7.593e-10
 60.94757    226.3 1.034e+04 4.921e-10
 60.98695    228.0 9.711e+03 3.317e-10
 61.02634    229.9 9.235e+03 2.373e-10
 61.04655    232.1 8.909e+03 1.829e-10
 61.06624    231.5 9.026e+03 1.795e-10
 61.10510    233.9 8.714e+03 1.583e-10
 61.14449    236.8 8.643e+03 1.558e-10
 61.18387    240.1 8.625e+03 1.554e-10
 61.22325    243.6 8.625e+03 1.555e-10
 61.26263    247.0 8.643e+03 1.571e-10
 61.30202    250.3 8.705e+03 1.643e-10
 61.33810    253.5 8.864e+03 1.824e-10
 61.35779    253.8 1.011e+04 2.785e-10
 61.38078    257.5 1.055e+04 3.319e-10
 61.41022    259.0 1.043e+04 3.252e-10
 61.42981    260.4 1.037e+04 3.278e-10
 61.44951    261.5 1.036e+04 3.362e-10
 61.46920    262.7 1.043e+04 3.582e-10
 61.48889    263.9 1.058e+04 3.929e-10
 61.50336    265.0 1.071e+04 4.332e-10
 61.51321    264.6 1.162e+04 7.077e-10
 61.52827    265.9 1.196e+04 8.307e-10
 61.54796    267.1 1.236e+04 9.783e-10
 61.56765    268.4 1.263e+04 1.153e-09
 61.58735    269.4 1.301e+04 1.339e-09
 61.60704    269.6 1.268e+04 1.522e-09
 61.62673    269.5 1.337e+04 1.771e-09
 61.64145    269.0 1.298e+04 1.885e-09
 61.65124    268.1 1.413e+04 1.827e-09
 61.65889    265.7 1.778e+04 1.738e-09
 61.66381    257.1 3.437e+04 4.883e-09
 61.67094    253.3 3.196e+04 9.982e-09
 61.68078    250.6 2.903e+04 1.939e-08
 61.69063    249.1 2.671e+04 3.138e-08
 61.70047    249.1 2.508e+04 4.214e-08
 61.71032    249.5 2.374e+04 4.789e-08
 61.72016    250.2 2.311e+04 4.671e-08
 61.73001    251.1 2.288e+04 4.168e-08
 61.73669    251.6 2.290e+04 3.341e-08
 61.74162    250.5 2.301e+04 2.389e-08
 61.74970    250.2 2.302e+04 1.466e-08
 61.75955    250.0 2.293e+04 9.550e-09
 61.76939    249.9 2.263e+04 7.050e-09
 61.78421    251.0 2.291e+04 7.081e-09
 61.80395    249.2 2.246e+04 3.315e-09
 61.81460    244.8 2.059e+04 1.144e-09
 61.82445    239.7 1.299e+04 4.385e-10
 61.84333    238.1 1.153e+04 3.489e-10
 61.86302    238.3 1.138e+04 3.171e-10
 61.89266    237.6 1.035e+04 3.116e-10
 61.93214    236.7 8.863e+03 3.354e-10
 61.96057    237.4 8.846e+03 3.378e-10
 61.98026    237.2 8.856e+03 3.475e-10
 62.01090    238.4 9.005e+03 3.597e-10
 62.05029    239.3 9.165e+03 3.824e-10
 62.08967    239.3 9.305e+03 4.019e-10
 62.11609    240.0 9.454e+03 4.450e-10
 62.12584    239.2 9.333e+03 4.058e-10
 62.13870    239.5 9.388e+03 4.204e-10
 62.15839    240.2 9.568e+03 4.751e-10
 62.17809    240.3 9.819e+03 5.516e-10
 62.19778    240.2 1.008e+04 6.322e-10
 62.21747    239.8 1.033e+04 7.144e-10
 62.23716    239.0 1.059e+04 7.995e-10
 62.25685    237.8 1.086e+04 8.890e-10
 62.27161    236.2 1.114e+04 9.863e-10
 62.28146    235.1 1.090e+04 8.975e-10
 62.29623    233.2 1.132e+04 1.066e-09
 62.31592    231.0 1.172e+04 1.263e-09
 62.33562    228.8 1.208e+04 1.491e-09
 62.35531    226.9 1.240e+04 1.702e-09
 62.37500    225.1 1.257e+04 1.837e-09
 62.39469    223.3 1.259e+04 1.834e-09
 62.41438    221.6 1.256e+04 1.771e-09
 62.42723    220.0 1.243e+04 1.627e-09
 62.43708    219.8 1.210e+04 1.378e-09
 62.45376    218.0 1.196e+04 1.252e-09
 62.47346    216.1 1.193e+04 1.238e-09
 62.49315    214.4 1.197e+04 1.263e-09
 62.51284    212.9 1.205e+04 1.343e-09
 62.53253    211.8 1.208e+04 1.406e-09
 62.54534    210.8 1.206e+04 1.406e-09
 62.55519    210.9 1.185e+04 1.259e-09
 62.57191    210.2 1.183e+04 1.245e-09
 62.58285    209.5 1.173e+04 1.176e-09
 62.59269    209.0 1.141e+04 9.727e-10
 62.61130    208.0 1.119e+04 8.159e-10
 62.63099    206.7 1.090e+04 6.463e-10
 62.65068    205.0 1.059e+04 5.386e-10
 62.67037    203.2 1.050e+04 5.275e-10
 62.69006    201.3 1.052e+04 5.385e-10
 62.70975    199.2 1.067e+04 6.141e-10
 62.72862    196.9 1.111e+04 8.211e-10
 62.73847    196.0 1.152e+04 1.015e-09
 62.74913    193.8 1.221e+04 1.499e-09
 62.76883    191.5 1.288e+04 2.115e-09
 62.78852    188.5 1.352e+04 2.747e-09
 62.80821    184.5 1.417e+04 3.249e-09
 62.82790    179.4 1.476e+04 3.425e-09
 62.84759    173.4 1.496e+04 3.350e-09
 62.86728    167.3 1.509e+04 3.021e-09
 62.88424    162.1 1.488e+04 2.446e-09
 62.89409    161.8 1.474e+04 2.310e-09
 62.90667    158.4 1.405e+04 1.676e-09
 62.92636    155.8 1.329e+04 1.218e-09
 62.94605    154.5 1.241e+04 8.743e-10
 62.96574    153.6 1.161e+04 7.448e-10
 62.98543    153.0 1.144e+04 7.500e-10
 63.00512    152.8 1.137e+04 7.746e-10
 63.02481    152.9 1.131e+04 8.303e-10
 63.03986    153.2 1.134e+04 9.058e-10
 63.04970    154.1 1.117e+04 8.036e-10
 63.06420    154.5 1.122e+04 8.657e-10
 63.08389    154.8 1.138e+04 9.568e-10
 63.10358    154.8 1.164e+04 1.090e-09
 63.12327    154.8 1.197e+04 1.277e-09
 63.14296    154.8 1.234e+04 1.524e-09
 63.16265    154.8 1.267e+04 1.797e-09
 63.18234    154.9 1.292e+04 2.048e-09
 63.19548    155.1 1.305e+04 2.183e-09
 63.20532    155.6 1.300e+04 2.121e-09
 63.22173    155.8 1.305e+04 2.149e-09
 63.24142    155.9 1.298e+04 2.037e-09
 63.26111    155.9 1.272e+04 1.728e-09
 63.28080    155.8 1.227e+04 1.320e-09
 63.30049    155.3 1.165e+04 9.272e-10
 63.32018    154.4 1.089e+04 6.245e-10
 63.33987    153.7 1.010e+04 4.388e-10
 63.35110    153.1 9.619e+03 3.665e-10
 63.36094    153.4 9.670e+03 3.773e-10
 63.37926    154.1 9.520e+03 3.474e-10
 63.39895    154.5 9.522e+03 3.486e-10
 63.42858    155.7 9.504e+03 3.474e-10
 63.46806    156.8 9.647e+03 3.848e-10
 63.49697    156.4 9.984e+03 4.895e-10
 63.50671    156.5 1.013e+04 5.432e-10
 63.51710    156.7 1.044e+04 6.661e-10
 63.53679    157.0 1.073e+04 7.938e-10
 63.55648    157.3 1.097e+04 8.917e-10
 63.57617    157.4 1.106e+04 9.078e-10
 63.59586    157.4 1.106e+04 9.021e-10
 63.61555    157.4 1.100e+04 8.661e-10
 63.63524    157.3 1.086e+04 7.877e-10
 63.65249    157.2 1.066e+04 6.921e-10
 63.66233    157.6 1.072e+04 6.973e-10
 63.67463    157.2 1.048e+04 6.037e-10
 63.69432    156.7 1.028e+04 5.425e-10
 63.71401    156.1 1.017e+04 5.309e-10
 63.73370    155.7 1.016e+04 5.308e-10
 63.75339    155.3 1.016e+04 5.339e-10
 63.77308    154.9 1.020e+04 5.512e-10
 63.79278    154.4 1.032e+04 5.913e-10
 63.80810    153.7 1.051e+04 6.596e-10
 63.81795    154.2 1.063e+04 7.021e-10
 63.83216    153.3 1.094e+04 8.272e-10
 63.85185    152.3 1.132e+04 1.013e-09
 63.87154    151.4 1.174e+04 1.246e-09
 63.89123    150.4 1.208e+04 1.421e-09
 63.91092    149.2 1.213e+04 1.433e-09
 63.93061    147.9 1.209e+04 1.383e-09
 63.95031    146.7 1.187e+04 1.176e-09
 63.96372    145.2 1.145e+04 8.792e-10
 63.97357    145.6 1.144e+04 8.626e-10
 63.98969    143.3 1.118e+04 7.103e-10
 64.00938    140.8 1.119e+04 7.113e-10
 64.02907    138.1 1.135e+04 7.788e-10
 64.04876    135.0 1.199e+04 1.089e-09
 64.06845    131.7 1.346e+04 1.937e-09
 64.08815    128.8 1.515e+04 3.710e-09
 64.10784    126.5 1.655e+04 6.447e-09
 64.11934    124.5 1.744e+04 8.365e-09
 64.12919    125.4 1.689e+04 6.871e-09
 64.14722    123.0 1.708e+04 6.933e-09
 64.16691    120.6 1.699e+04 6.482e-09
 64.18660    118.4 1.652e+04 5.066e-09
 64.20629    116.1 1.567e+04 3.521e-09
 64.22599    113.7 1.470e+04 2.425e-09
 64.24568    111.6 1.403e+04 2.003e-09
 64.26511    110.3 1.396e+04 2.018e-09
 64.27496    111.6 1.441e+04 2.554e-09
 64.28506    110.7 1.450e+04 2.717e-09
 64.30475    110.0 1.488e+04 3.204e-09
 64.32444    109.1 1.548e+04 4.022e-09
 64.34413    108.4 1.605e+04 4.909e-09
 64.35885    108.0 1.639e+04 5.311e-09
 64.36865    107.8 1.662e+04 5.588e-09
 64.37850    106.9 1.704e+04 6.285e-09
 64.38834    106.4 1.728e+04 6.648e-09
 64.40316    104.6 1.748e+04 6.974e-09
 64.42073    102.9 1.770e+04 7.659e-09
 64.43058    103.7 1.782e+04 8.310e-09
 64.44259    102.0 1.764e+04 7.618e-09
 64.46228    100.4 1.708e+04 6.154e-09
 64.48197     99.0 1.620e+04 4.424e-09
 64.50166     97.5 1.509e+04 2.871e-09
 64.52136     96.0 1.388e+04 1.723e-09
 64.54105     94.5 1.267e+04 1.001e-09
 64.56074     93.0 1.165e+04 6.018e-10
 64.57635     91.7 1.098e+04 4.050e-10
 64.58620     92.0 1.053e+04 3.410e-10
 64.60012     91.8 1.033e+04 2.844e-10
 64.61981     91.9 1.025e+04 2.712e-10
 64.63950     92.2 1.016e+04 2.600e-10
 64.65919     92.6 1.017e+04 2.606e-10
 64.67889     93.3 1.020e+04 2.648e-10
 64.69858     93.8 1.028e+04 2.760e-10
 64.71827     94.5 1.039e+04 2.991e-10
 64.73197     95.0 1.056e+04 3.462e-10
 64.74182     95.8 1.029e+04 2.858e-10
 64.75765     96.3 1.039e+04 3.153e-10
 64.77734     96.8 1.057e+04 3.753e-10
 64.79703     97.2 1.090e+04 4.791e-10
 64.81673     97.6 1.130e+04 6.293e-10
 64.83642     97.9 1.175e+04 8.326e-10
 64.85611     98.3 1.224e+04 1.091e-09
 64.87580     98.6 1.274e+04 1.405e-09
 64.88759     98.9 1.327e+04 1.769e-09
 64.89743    100.0 1.246e+04 1.223e-09
 64.91518    100.4 1.300e+04 1.574e-09
 64.93487    100.7 1.354e+04 1.984e-09
 64.95456    101.1 1.405e+04 2.419e-09
 64.97426    101.5 1.450e+04 2.790e-09
 64.99395    101.8 1.476e+04 2.927e-09
 65.01364    102.1 1.478e+04 2.943e-09
 65.03333    102.5 1.476e+04 2.840e-09
 65.05302    104.4 1.473e+04 2.975e-09
 65.07271    104.8 1.463e+04 2.783e-09
 65.09240    105.2 1.444e+04 2.459e-09
 65.11210    105.5 1.420e+04 2.114e-09
 65.13179    105.9 1.400e+04 1.750e-09
 65.15148    106.5 1.399e+04 1.523e-09
 65.17117    106.9 1.380e+04 1.255e-09
 65.20080    107.6 1.347e+04 9.923e-10
 65.24028    108.7 1.266e+04 7.057e-10
 65.27967    110.1 1.188e+04 5.239e-10
 65.31905    111.6 1.116e+04 4.052e-10
 65.34479    113.0 1.052e+04 3.363e-10
 65.36449    115.2 1.270e+04 7.777e-10
 65.37914    116.3 1.249e+04 6.785e-10
 65.38889    116.0 1.230e+04 5.968e-10
 65.40747    116.5 1.222e+04 5.608e-10
 65.42716    116.9 1.211e+04 5.027e-10
 65.44685    117.4 1.199e+04 4.657e-10
 65.47648    119.1 1.281e+04 7.289e-10
 65.51596    119.4 1.231e+04 6.818e-10
 65.55535    119.7 1.190e+04 7.287e-10
 65.59473    120.2 1.168e+04 8.927e-10
 65.63411    121.1 1.185e+04 1.072e-09
 65.65603    122.0 1.192e+04 1.103e-09
 65.66578    121.9 1.252e+04 1.415e-09
 65.68314    122.5 1.251e+04 1.395e-09
 65.70284    122.9 1.249e+04 1.361e-09
 65.72253    123.5 1.229e+04 1.231e-09
 65.75216    124.6 1.215e+04 1.106e-09
 65.79164    126.2 1.124e+04 7.377e-10
 65.83102    127.9 1.034e+04 4.654e-10
 65.87041    129.7 9.541e+03 3.074e-10
 65.90979    132.0 9.335e+03 2.742e-10
 65.94758    134.7 9.334e+03 2.752e-10
 65.96727    135.8 9.318e+03 2.653e-10
 65.98856    138.8 9.378e+03 2.771e-10
 66.02794    141.7 9.614e+03 3.190e-10
 66.06732    144.1 9.886e+03 3.836e-10
 66.09676    144.7 9.973e+03 4.204e-10
 66.11285    145.6 1.003e+04 4.610e-10
 66.12269    146.2 1.007e+04 4.573e-10
 66.13605    147.8 1.019e+04 5.307e-10
 66.15574    149.5 1.040e+04 6.282e-10
 66.17543    151.0 1.063e+04 7.264e-10
 66.19512    152.3 1.083e+04 8.142e-10
 66.21481    153.5 1.099e+04 8.904e-10
 66.23450    154.7 1.110e+04 9.552e-10
 66.25419    155.9 1.118e+04 1.007e-09
 66.26846    157.1 1.124e+04 1.043e-09
 66.27831    158.0 1.145e+04 1.145e-09
 66.29358    159.3 1.155e+04 1.210e-09
 66.31327    160.5 1.161e+04 1.258e-09
 66.33296    161.8 1.166e+04 1.283e-09
 66.35265    163.1 1.167e+04 1.287e-09
 66.37234    164.4 1.167e+04 1.281e-09
 66.39203    165.8 1.168e+04 1.264e-09
 66.41172    167.1 1.170e+04 1.251e-09
 66.42408    168.5 1.178e+04 1.240e-09
 66.43393    169.6 1.205e+04 1.547e-09
 66.45111    170.9 1.213e+04 1.572e-09
 66.47080    172.3 1.226e+04 1.638e-09
 66.49049    173.6 1.249e+04 1.758e-09
 66.51018    174.9 1.280e+04 1.936e-09
 66.52987    176.1 1.315e+04 2.167e-09
 66.54956    177.4 1.353e+04 2.435e-09
 66.56925    178.6 1.394e+04 2.709e-09
 66.57970    179.8 1.440e+04 2.951e-09
 66.58955    181.4 1.463e+04 4.215e-09
 66.60864    182.6 1.516e+04 4.822e-09
 66.62833    183.4 1.567e+04 5.180e-09
 66.64802    184.1 1.609e+04 5.143e-09
 66.66771    184.9 1.621e+04 5.100e-09
 66.68740    185.5 1.647e+04 4.690e-09
 66.70709    185.8 1.648e+04 4.007e-09
 66.72547    186.0 1.614e+04 3.274e-09
 66.73532    188.2 1.703e+04 5.983e-09
 66.74648    188.4 1.695e+04 4.980e-09
 66.76617    188.5 1.666e+04 3.986e-09
 66.78586    188.4 1.614e+04 3.192e-09
 66.80555    188.3 1.554e+04 2.773e-09
 66.82524    188.6 1.526e+04 2.717e-09
 66.84493    189.1 1.541e+04 2.791e-09
 66.86462    190.0 1.571e+04 2.945e-09
 66.88109    191.2 1.628e+04 3.247e-09
 66.89094    193.2 1.619e+04 3.283e-09
 66.90401    194.1 1.705e+04 3.771e-09
 66.92370    195.0 1.808e+04 4.428e-09
 66.94339    195.4 1.946e+04 5.271e-09
 66.96308    195.7 2.067e+04 6.358e-09
 66.98277    195.3 2.161e+04 8.642e-09
 66.99749    195.1 2.188e+04 1.048e-08
 67.00729    194.8 2.192e+04 1.246e-08
 67.01714    194.3 2.189e+04 1.485e-08
 67.02698    193.8 2.132e+04 1.844e-08
 67.03661    193.4 2.068e+04 2.306e-08
 67.04154    195.5 2.300e+04 2.810e-08
 67.04667    195.1 2.177e+04 3.662e-08
 67.05652    195.1 2.091e+04 4.506e-08
 67.06636    195.2 2.060e+04 4.884e-08
 67.07621    195.3 2.061e+04 4.828e-08
 67.08605    195.4 2.074e+04 4.505e-08
 67.09590    195.2 2.130e+04 3.473e-08
 67.10575    194.8 2.206e+04 2.375e-08
 67.11442    194.3 2.334e+04 1.413e-08
 67.11934    195.5 2.307e+04 2.105e-08
 67.12544    194.8 2.409e+04 1.263e-08
 67.14025    189.5 2.708e+04 2.516e-09
 67.15999    181.3 2.347e+04 5.851e-10
 67.17969    173.8 1.154e+04 5.589e-10
 67.19233    172.3 1.052e+04 5.022e-10
 67.20217    172.8 1.090e+04 5.176e-10
 67.21907    172.5 1.038e+04 4.752e-10
 67.23876    172.3 1.020e+04 4.319e-10
 67.25845    172.2 1.009e+04 4.003e-10
 67.27814    172.2 9.892e+03 3.616e-10
 67.29783    172.3 9.842e+03 3.353e-10
 67.32747    173.3 9.820e+03 3.232e-10
 67.36695    174.8 9.686e+03 2.960e-10
 67.40633    176.4 9.540e+03 2.900e-10
 67.44571    177.8 9.561e+03 2.981e-10
 67.48407    178.9 9.711e+03 3.401e-10
 67.50376    179.6 1.034e+04 4.891e-10
 67.52448    180.9 1.048e+04 5.436e-10
 67.56386    182.2 1.081e+04 6.503e-10
 67.60325    183.7 1.126e+04 8.210e-10
 67.64263    185.3 1.169e+04 9.742e-10
 67.68201    187.0 1.196e+04 1.003e-09
 67.71145    187.4 1.195e+04 9.710e-10
 67.73104    187.9 1.188e+04 8.970e-10
 67.75074    188.4 1.170e+04 7.929e-10
 67.77043    188.8 1.142e+04 6.833e-10
 67.79012    189.1 1.109e+04 5.845e-10
 67.80496    189.3 1.076e+04 5.048e-10
 67.81480    189.3 1.101e+04 5.721e-10
 67.82950    189.3 1.075e+04 5.259e-10
 67.84919    189.2 1.055e+04 4.977e-10
 67.86888    189.2 1.048e+04 4.933e-10
 67.88857    189.2 1.048e+04 4.951e-10
 67.90827    189.3 1.049e+04 5.036e-10
 67.92796    189.5 1.054e+04 5.181e-10
 67.94765    189.7 1.064e+04 5.363e-10
 67.96058    190.0 1.076e+04 5.562e-10
 67.97042    189.6 1.130e+04 7.330e-10
 67.98703    189.8 1.141e+04 7.562e-10
 68.00672    189.9 1.155e+04 7.879e-10
 68.02641    189.9 1.176e+04 8.448e-10
 68.04611    189.9 1.207e+04 9.485e-10
 68.06580    189.8 1.246e+04 1.123e-09
 68.08549    189.8 1.289e+04 1.378e-09
 68.10518    190.1 1.329e+04 1.695e-09
 68.11619    190.6 1.366e+04 2.044e-09
 68.12604    190.7 1.395e+04 2.059e-09
 68.14456    191.4 1.431e+04 2.269e-09
 68.16425    192.3 1.465e+04 2.395e-09
 68.18394    193.1 1.498e+04 2.425e-09
 68.20271    193.9 1.521e+04 2.333e-09
 68.21256    191.5 1.519e+04 1.792e-09
 68.22333    191.8 1.457e+04 1.449e-09
 68.24302    192.1 1.370e+04 1.188e-09
 68.26197    192.4 1.287e+04 1.019e-09
 68.27181    192.1 1.256e+04 1.000e-09
 68.28240    193.0 1.221e+04 9.170e-10
 68.30209    194.1 1.200e+04 8.567e-10
 68.32178    195.4 1.185e+04 8.111e-10
 68.34148    196.8 1.173e+04 7.765e-10
 68.36117    198.3 1.165e+04 7.492e-10
 68.38086    199.9 1.159e+04 7.248e-10
 68.40055    201.5 1.155e+04 7.021e-10
 68.41759    203.0 1.153e+04 6.793e-10
 68.42743    203.5 1.147e+04 6.466e-10
 68.43993    205.1 1.144e+04 6.186e-10
 68.45962    206.6 1.141e+04 5.915e-10
 68.47931    208.2 1.137e+04 5.658e-10
 68.49901    209.7 1.132e+04 5.408e-10
 68.51870    211.2 1.127e+04 5.168e-10
 68.53839    212.8 1.120e+04 4.946e-10
 68.55808    214.3 1.112e+04 4.742e-10
 68.57320    215.9 1.105e+04 4.560e-10
 68.58305    216.6 1.107e+04 4.352e-10
 68.59746    218.3 1.101e+04 4.219e-10
 68.61715    219.9 1.098e+04 4.129e-10
 68.63685    221.5 1.096e+04 4.064e-10
 68.65654    223.0 1.094e+04 4.002e-10
 68.67623    224.5 1.092e+04 3.931e-10
 68.69592    226.1 1.089e+04 3.866e-10
 68.71561    227.6 1.087e+04 3.803e-10
 68.72882    229.2 1.087e+04 3.778e-10
 68.73867    229.9 1.098e+04 3.750e-10
 68.75499    231.5 1.099e+04 3.787e-10
 68.77469    233.1 1.102e+04 3.874e-10
 68.79438    234.8 1.107e+04 3.974e-10
 68.81407    236.4 1.114e+04 4.093e-10
 68.83376    237.9 1.122e+04 4.253e-10
 68.85345    239.4 1.131e+04 4.465e-10
 68.87314    240.9 1.139e+04 4.716e-10
 68.88444    242.5 1.149e+04 4.987e-10
 68.89429    243.7 1.176e+04 5.358e-10
 68.91252    245.3 1.186e+04 5.758e-10
 68.93222    246.9 1.197e+04 6.160e-10
 68.95191    248.6 1.211e+04 6.512e-10
 68.97160    250.2 1.228e+04 6.766e-10
 68.99129    251.9 1.248e+04 6.913e-10
 69.01098    253.4 1.270e+04 6.959e-10
 69.03021    254.8 1.289e+04 6.920e-10
 69.04006    256.8 1.314e+04 7.980e-10
 69.05036    258.3 1.317e+04 7.932e-10
 69.07006    259.7 1.327e+04 7.698e-10
 69.08975    261.2 1.334e+04 7.290e-10
 69.10944    262.7 1.339e+04 6.806e-10
 69.12913    264.2 1.340e+04 6.388e-10
 69.14882    265.7 1.350e+04 6.212e-10
 69.16851    267.2 1.359e+04 6.322e-10
 69.18583    268.7 1.395e+04 6.769e-10
 69.19568    271.6 1.363e+04 5.976e-10
 69.20789    273.2 1.394e+04 6.306e-10
 69.22759    274.8 1.455e+04 7.198e-10
 69.24728    276.3 1.532e+04 8.850e-10
 69.26697    277.8 1.617e+04 1.159e-09
 69.28666    279.3 1.711e+04 1.601e-09
 69.30635    281.0 1.797e+04 2.173e-09
 69.32604    282.6 1.842e+04 2.569e-09
 69.34076    284.0 1.836e+04 2.596e-09
 69.34628    285.2 1.833e+04 2.712e-09
 69.35120    286.9 1.846e+04 2.393e-09
 69.36040    287.7 1.840e+04 2.544e-09
 69.37025    288.0 1.868e+04 2.610e-09
 69.38010    286.9 2.195e+04 2.691e-09
 69.38994    280.2 3.933e+04 3.337e-09
 69.39979    270.1 4.657e+04 1.141e-08
 69.40963    263.0 3.913e+04 4.889e-08
 69.41916    259.8 3.126e+04 1.432e-07
 69.42408    266.2 3.956e+04 5.269e-08
 69.42932    262.4 3.231e+04 1.374e-07
 69.43917    257.8 3.264e+04 1.482e-07
 69.44902    252.3 3.586e+04 1.145e-07
 69.45886    240.2 5.180e+04 3.910e-08
 69.46871    199.7 7.621e+04 1.576e-08
 69.47855    150.3 6.382e+04 2.602e-08
 69.48840    122.4 3.657e+04 6.378e-08
 69.49697    108.9 3.101e+04 4.093e-08
 69.50189    108.1 3.296e+04 3.702e-08
 69.50809     90.5 5.738e+04 6.811e-09
 69.51794     57.1 7.039e+04 1.934e-09
 69.52778     35.6 6.578e+04 1.428e-09
 69.54260     -1.0 2.208e+04 2.249e-09
 69.56234    -11.4 1.967e+04 1.796e-09
 69.58203    -24.4 1.994e+04 9.120e-10
 69.60172    -42.3 1.674e+04 3.894e-10
 69.62141    -56.1 1.457e+04 2.980e-10
 69.64110    -64.6 1.501e+04 3.055e-10
 69.65269    -73.4 1.749e+04 4.483e-10
 69.66253    -74.8 1.659e+04 4.021e-10
 69.68049    -82.7 1.979e+04 6.803e-10
 69.70018    -89.5 2.158e+04 1.253e-09
 69.71987    -94.6 2.105e+04 2.020e-09
 69.73956    -98.2 1.990e+04 2.541e-09
 69.75925   -100.1 1.904e+04 2.717e-09
 69.77894   -101.0 1.871e+04 2.666e-09
 69.79846   -102.1 1.971e+04 2.417e-09
 69.80831   -104.6 1.992e+04 3.035e-09
 69.81833   -106.3 2.232e+04 2.790e-09
 69.83802   -110.0 2.513e+04 2.219e-09
 69.85771   -114.6 2.450e+04 1.655e-09
 69.87740   -117.9 1.962e+04 1.448e-09
 69.89709   -118.9 1.711e+04 1.454e-09
 69.91678   -118.6 1.636e+04 1.657e-09
 69.93647   -117.2 1.685e+04 1.918e-09
 69.95408   -116.3 1.758e+04 2.052e-09
 69.96392   -118.2 1.786e+04 2.216e-09
 69.97586   -117.9 1.847e+04 2.318e-09
 69.99555   -117.9 1.883e+04 2.458e-09
 70.01524   -117.9 1.896e+04 2.773e-09
 70.03493   -117.6 1.897e+04 3.391e-09
 70.05462   -116.8 1.909e+04 4.294e-09
 70.07431   -115.5 1.937e+04 5.336e-09
 70.09400   -114.2 1.967e+04 6.293e-09
 70.10970   -112.9 1.995e+04 6.999e-09
 70.11954   -114.1 2.017e+04 7.219e-09
 70.13339   -112.9 2.030e+04 7.492e-09
 70.15308   -112.0 2.034e+04 7.538e-09
 70.17277   -111.2 2.036e+04 7.542e-09
 70.19246   -110.6 2.044e+04 7.718e-09
 70.21215   -110.2 2.059e+04 8.071e-09
 70.23184   -109.8 2.085e+04 8.572e-09
 70.25154   -109.7 2.121e+04 9.222e-09
 70.26532   -109.7 2.162e+04 1.006e-08
 70.27516   -111.8 2.225e+04 1.156e-08
 70.29092   -111.3 2.255e+04 1.271e-08
 70.30564   -110.5 2.281e+04 1.387e-08
 70.31543   -110.5 2.302e+04 1.528e-08
 70.32528   -110.3 2.308e+04 1.809e-08
 70.33513   -110.2 2.314e+04 2.054e-08
 70.34303   -109.9 2.305e+04 2.577e-08
 70.34795   -110.6 2.288e+04 2.615e-08
 70.35482   -110.4 2.307e+04 2.755e-08
 70.36466   -110.4 2.305e+04 2.766e-08
 70.37451   -110.1 2.278e+04 2.616e-08
 70.38435   -109.6 2.250e+04 2.343e-08
 70.39420   -109.5 2.228e+04 2.047e-08
 70.40405   -109.7 2.201e+04 1.764e-08
 70.41389   -109.9 2.163e+04 1.541e-08
 70.42089   -109.6 2.118e+04 1.356e-08
 70.43078   -111.6 2.037e+04 1.120e-08
 70.44845   -111.9 1.893e+04 7.732e-09
 70.46814   -112.3 1.739e+04 5.200e-09
 70.48783   -112.0 1.600e+04 3.556e-09
 70.50752   -111.0 1.496e+04 2.490e-09
 70.52721   -110.0 1.423e+04 1.775e-09
 70.54691   -109.3 1.366e+04 1.265e-09
 70.56660   -108.8 1.311e+04 8.846e-10
 70.57655   -108.4 1.255e+04 6.149e-10
 70.58640   -110.2 1.242e+04 4.975e-10
 70.60598   -110.3 1.180e+04 3.686e-10
 70.62567   -110.6 1.121e+04 3.090e-10
 70.64536   -111.0 1.085e+04 2.941e-10
 70.66505   -111.4 1.050e+04 3.434e-10
 70.68475   -111.3 1.051e+04 4.299e-10
 70.70444   -110.6 1.067e+04 5.679e-10
 70.72233   -109.6 1.106e+04 7.477e-10
 70.73217   -110.2 1.115e+04 7.894e-10
 70.74382   -108.9 1.153e+04 9.650e-10
 70.76351   -107.5 1.183e+04 1.120e-09
 70.78320   -106.1 1.208e+04 1.247e-09
 70.80289   -104.8 1.229e+04 1.344e-09
 70.82258   -103.4 1.248e+04 1.413e-09
 70.84228   -102.0 1.268e+04 1.448e-09
 70.86197   -100.8 1.291e+04 1.456e-09
 70.87794    -99.6 1.310e+04 1.458e-09
 70.88779   -100.0 1.319e+04 1.510e-09
 70.90135    -98.7 1.335e+04 1.513e-09
 70.92104    -97.4 1.347e+04 1.513e-09
 70.94073    -96.2 1.356e+04 1.504e-09
 70.96042    -94.9 1.365e+04 1.477e-09
 70.98012    -93.5 1.371e+04 1.484e-09
 70.99981    -92.1 1.383e+04 1.527e-09
 71.01950    -90.8 1.401e+04 1.596e-09
 71.03356    -89.5 1.421e+04 1.707e-09
 71.04054    -89.4 1.416e+04 1.731e-09
 71.04617    -89.5 1.460e+04 2.184e-09
 71.05888    -88.2 1.482e+04 2.259e-09
 71.07857    -86.9 1.499e+04 2.362e-09
 71.09826    -85.5 1.516e+04 2.495e-09
 71.11795    -84.3 1.534e+04 2.660e-09
 71.13765    -83.0 1.555e+04 2.911e-09
 71.15734    -81.7 1.584e+04 3.269e-09
 71.17703    -80.5 1.620e+04 3.748e-09
 71.18918    -79.3 1.660e+04 4.385e-09
 71.19903    -78.9 1.671e+04 4.492e-09
 71.21641    -77.6 1.716e+04 5.325e-09
 71.23610    -76.5 1.758e+04 6.284e-09
 71.25579    -75.7 1.790e+04 7.209e-09
 71.27549    -75.0 1.840e+04 7.891e-09
 71.29518    -74.3 1.887e+04 8.642e-09
 71.31487    -73.7 1.903e+04 9.443e-09
 71.33456    -73.0 1.920e+04 9.870e-09
 71.34480    -72.6 1.941e+04 9.624e-09
 71.35465    -72.8 2.016e+04 1.049e-08
 71.37394    -72.4 2.029e+04 9.584e-09
 71.39363    -71.9 2.021e+04 7.971e-09
 71.41332    -71.8 1.981e+04 6.299e-09
 71.43302    -72.0 1.900e+04 4.929e-09
 71.45271    -72.4 1.779e+04 3.999e-09
 71.47240    -72.4 1.659e+04 3.590e-09
 71.49057    -72.0 1.603e+04 3.449e-09
 71.50042    -72.9 1.540e+04 3.026e-09
 71.51178    -72.1 1.509e+04 3.049e-09
 71.53147    -71.2 1.510e+04 3.179e-09
 71.55116    -70.3 1.517e+04 3.291e-09
 71.57086    -69.3 1.523e+04 3.338e-09
 71.59055    -68.5 1.525e+04 3.356e-09
 71.61024    -67.7 1.524e+04 3.353e-09
 71.62993    -66.8 1.515e+04 3.300e-09
 71.64619    -65.8 1.504e+04 3.211e-09
 71.65604    -66.1 1.458e+04 2.804e-09
 71.66931    -65.1 1.450e+04 2.735e-09
 71.68900    -64.1 1.438e+04 2.621e-09
 71.70869    -63.1 1.428e+04 2.513e-09
 71.72839    -62.2 1.419e+04 2.415e-09
 71.74808    -61.3 1.419e+04 2.368e-09
 71.76777    -60.7 1.425e+04 2.359e-09
 71.78746    -60.2 1.444e+04 2.461e-09
 71.80181    -59.7 1.462e+04 2.684e-09
 71.81165    -59.5 1.397e+04 2.063e-09
 71.82684    -58.9 1.422e+04 2.198e-09
 71.84653    -58.7 1.483e+04 2.472e-09
 71.86623    -59.3 1.598e+04 3.048e-09
 71.88592    -60.9 1.739e+04 4.175e-09
 71.90561    -63.0 1.855e+04 6.006e-09
 71.92530    -64.6 1.929e+04 8.624e-09
 71.94499    -65.7 1.931e+04 1.171e-08
 71.95743    -65.9 1.905e+04 1.345e-08
 71.96727    -65.4 1.900e+04 1.329e-08
 71.97940    -64.5 1.939e+04 1.427e-08
 71.98920    -64.1 1.934e+04 1.360e-08
 71.99904    -63.3 1.967e+04 1.165e-08
 72.00889    -63.1 2.053e+04 9.017e-09
 72.01874    -63.3 2.158e+04 6.360e-09
 72.02858    -64.3 2.252e+04 4.384e-09
 72.03514    -66.4 2.269e+04 2.787e-09
 72.04006    -67.4 2.221e+04 2.230e-09
 72.04827    -69.8 2.016e+04 1.513e-09
 72.06309    -72.9 1.736e+04 1.002e-09
 72.08283    -75.4 1.422e+04 7.277e-10
 72.10252    -76.6 1.175e+04 5.421e-10
 72.11305    -76.7 1.078e+04 4.417e-10
 72.12289    -77.2 1.048e+04 4.292e-10
 72.14190    -76.5 1.034e+04 4.157e-10
 72.16160    -75.9 1.026e+04 4.195e-10
 72.18129    -75.1 1.028e+04 4.365e-10
 72.20098    -74.2 1.032e+04 4.481e-10
 72.22067    -73.3 1.033e+04 4.545e-10
 72.24036    -72.3 1.033e+04 4.560e-10
 72.25882    -71.4 1.031e+04 4.493e-10
 72.26866    -71.6 1.047e+04 5.272e-10
 72.27974    -70.5 1.044e+04 5.190e-10
 72.29944    -69.5 1.042e+04 5.035e-10
 72.31913    -68.3 1.044e+04 4.950e-10
 72.33882    -67.4 1.047e+04 4.929e-10
 72.35851    -66.5 1.057e+04 5.022e-10
 72.37820    -65.7 1.076e+04 5.284e-10
 72.39789    -65.1 1.105e+04 6.135e-10
 72.41444    -64.6 1.142e+04 7.554e-10
 72.42428    -64.6 1.130e+04 6.985e-10
 72.43727    -64.0 1.166e+04 8.748e-10
 72.45697    -63.3 1.211e+04 1.124e-09
 72.47666    -62.7 1.262e+04 1.441e-09
 72.49635    -62.3 1.311e+04 1.810e-09
 72.51604    -61.9 1.352e+04 2.202e-09
 72.53573    -61.6 1.387e+04 2.590e-09
 72.55542    -61.3 1.413e+04 2.920e-09
 72.57006    -61.0 1.425e+04 3.089e-09
 72.57990    -60.5 1.404e+04 2.775e-09
 72.59481    -60.2 1.410e+04 2.869e-09
 72.61450    -59.9 1.405e+04 2.859e-09
 72.63419    -59.5 1.384e+04 2.689e-09
 72.65388    -59.1 1.361e+04 2.448e-09
 72.67357    -58.7 1.330e+04 2.190e-09
 72.69326    -58.1 1.287e+04 1.840e-09
 72.71295    -57.6 1.238e+04 1.467e-09
 72.72567    -57.0 1.185e+04 1.123e-09
 72.73552    -56.6 1.214e+04 1.289e-09
 72.75234    -55.9 1.165e+04 9.958e-10
 72.77203    -55.3 1.117e+04 7.542e-10
 72.79172    -54.6 1.075e+04 5.665e-10
 72.81141    -54.0 1.047e+04 4.336e-10
 72.83110    -53.6 1.032e+04 3.579e-10
 72.85079    -53.3 1.030e+04 3.335e-10
 72.87048    -52.8 1.031e+04 3.254e-10
 72.88129    -52.5 1.033e+04 3.247e-10
 72.89114    -51.8 1.040e+04 3.693e-10
 72.90987    -51.6 1.060e+04 3.940e-10
 72.92956    -51.6 1.087e+04 4.689e-10
 72.94925    -51.6 1.119e+04 5.927e-10
 72.96894    -51.8 1.162e+04 7.715e-10
 72.98863    -52.0 1.208e+04 1.052e-09
 73.00832    -52.0 1.251e+04 1.366e-09
 73.02707    -52.0 1.281e+04 1.651e-09
 73.03691    -52.3 1.333e+04 2.128e-09
 73.04771    -52.0 1.340e+04 2.298e-09
 73.06740    -51.6 1.334e+04 2.302e-09
 73.08709    -51.4 1.315e+04 2.078e-09
 73.10678    -51.4 1.289e+04 1.760e-09
 73.12647    -51.8 1.261e+04 1.507e-09
 73.14616    -52.1 1.236e+04 1.352e-09
 73.16585    -52.2 1.219e+04 1.273e-09
 73.18268    -52.0 1.208e+04 1.228e-09
 73.19253    -51.8 1.237e+04 1.402e-09
 73.20524    -51.4 1.230e+04 1.349e-09
 73.22493    -51.3 1.244e+04 1.324e-09
 73.24462    -52.6 1.394e+04 1.452e-09
 73.26431    -56.2 1.664e+04 2.370e-09
 73.28400    -59.7 1.815e+04 5.163e-09
 73.30369    -60.7 1.873e+04 1.074e-08
 73.32338    -60.3 1.920e+04 1.694e-08
 73.33830    -60.1 1.944e+04 1.899e-08
 73.34810    -60.3 1.997e+04 2.296e-08
 73.35775    -60.3 1.961e+04 2.064e-08
 73.36759    -60.1 1.924e+04 1.715e-08
 73.38241    -60.5 1.841e+04 1.118e-08
 73.40215    -61.7 1.712e+04 6.112e-09
 73.42184    -64.0 1.529e+04 3.062e-09
 73.44153    -66.4 1.355e+04 1.846e-09
 73.46122    -67.2 1.265e+04 1.485e-09
 73.48092    -67.4 1.234e+04 1.396e-09
 73.49392    -67.0 1.228e+04 1.383e-09
 73.50377    -67.7 1.254e+04 1.529e-09
 73.52030    -67.7 1.275e+04 1.629e-09
 73.53999    -68.1 1.307e+04 1.783e-09
 73.55968    -68.6 1.343e+04 2.018e-09
 73.57937    -69.3 1.375e+04 2.333e-09
 73.59906    -69.8 1.396e+04 2.676e-09
 73.61876    -70.0 1.408e+04 2.954e-09
 73.63845    -69.9 1.410e+04 3.067e-09
 73.64954    -69.7 1.403e+04 3.048e-09
 73.65939    -70.5 1.425e+04 3.268e-09
 73.67783    -70.3 1.390e+04 2.683e-09
 73.69752    -70.3 1.351e+04 2.147e-09
 73.71721    -70.4 1.314e+04 1.680e-09
 73.73690    -70.8 1.280e+04 1.342e-09
 73.75659    -71.1 1.248e+04 1.109e-09
 73.77629    -71.5 1.220e+04 9.578e-10
 73.79531    -71.7 1.198e+04 8.743e-10
 73.80516    -72.5 1.189e+04 8.339e-10
 73.82561    -72.2 1.174e+04 7.953e-10
 73.86509    -71.5 1.129e+04 6.735e-10
 73.90447    -70.5 1.096e+04 5.752e-10
 73.94128    -69.5 1.074e+04 4.996e-10
 73.96097    -70.6 1.042e+04 3.848e-10
 73.98324    -69.2 1.044e+04 3.463e-10
 74.02262    -68.0 1.049e+04 3.169e-10
 74.06201    -67.6 1.054e+04 3.044e-10
 74.10139    -67.6 1.065e+04 3.129e-10
 74.14077    -67.6 1.069e+04 3.536e-10
 74.17021    -67.5 1.069e+04 3.818e-10
 74.18980    -67.5 1.067e+04 3.878e-10
 74.20950    -67.7 1.069e+04 4.154e-10
 74.22919    -67.8 1.086e+04 4.711e-10
 74.24888    -68.0 1.110e+04 5.435e-10
 74.26217    -68.4 1.143e+04 6.491e-10
 74.27201    -69.2 1.174e+04 7.840e-10
 74.28826    -69.8 1.217e+04 1.023e-09
 74.30795    -70.4 1.254e+04 1.308e-09
 74.32764    -70.8 1.284e+04 1.592e-09
 74.34733    -71.1 1.305e+04 1.808e-09
 74.36703    -71.5 1.314e+04 1.901e-09
 74.38672    -72.1 1.315e+04 1.913e-09
 74.40641    -72.8 1.299e+04 1.766e-09
 74.41779    -73.8 1.274e+04 1.611e-09
 74.42763    -73.8 1.282e+04 1.627e-09
 74.44579    -74.6 1.271e+04 1.573e-09
 74.46548    -75.2 1.268e+04 1.566e-09
 74.49512    -76.0 1.264e+04 1.574e-09
 74.52465    -76.2 1.271e+04 1.701e-09
 74.54425    -76.6 1.262e+04 1.715e-09
 74.56356    -77.4 1.254e+04 1.761e-09
 74.57340    -77.0 1.260e+04 1.729e-09
 74.58363    -79.7 1.391e+04 1.964e-09
 74.60332    -83.9 1.649e+04 2.935e-09
 74.62301    -88.3 1.814e+04 4.828e-09
 74.64270    -92.5 1.859e+04 6.728e-09
 74.66240    -96.5 1.845e+04 7.428e-09
 74.68209   -100.5 1.741e+04 6.298e-09
 74.70178   -104.6 1.591e+04 4.424e-09
 74.71918   -108.0 1.450e+04 3.095e-09
 74.72902   -108.5 1.457e+04 3.145e-09
 74.74116   -110.7 1.319e+04 2.212e-09
 74.76085   -111.7 1.218e+04 1.551e-09
 74.78054   -112.1 1.141e+04 1.078e-09
 74.80024   -112.4 1.077e+04 7.299e-10
 74.81993   -112.8 1.020e+04 4.847e-10
 74.83962   -113.3 9.776e+03 3.438e-10
 74.85931   -113.6 9.556e+03 2.844e-10
 74.87489   -113.7 9.460e+03 2.582e-10
 74.89468   -114.1 9.502e+03 2.612e-10
 74.92842   -115.2 9.412e+03 2.424e-10
 74.96781   -116.4 9.428e+03 2.417e-10
 75.00719   -118.1 1.006e+04 3.314e-10
 75.03051   -119.4 1.045e+04 4.572e-10
 75.04026   -119.5 1.054e+04 4.891e-10
 75.05622   -121.1 1.094e+04 6.884e-10
 75.07591   -122.3 1.128e+04 9.622e-10
 75.09561   -123.0 1.149e+04 1.110e-09
 75.11530   -123.7 1.155e+04 1.147e-09
 75.13499   -124.3 1.150e+04 1.143e-09
 75.15468   -124.5 1.122e+04 9.592e-10
 75.17437   -124.7 1.086e+04 6.828e-10
 75.18603   -125.2 1.047e+04 4.585e-10
 75.19588   -124.8 1.057e+04 5.092e-10
 75.21375   -125.3 1.020e+04 3.570e-10
 75.24339   -125.7 9.959e+03 2.866e-10
 75.28287   -125.7 9.750e+03 2.307e-10
 75.32225   -124.6 9.545e+03 1.932e-10
 75.36163   -123.0 9.495e+03 1.847e-10
 75.40102   -121.5 9.493e+03 1.843e-10
 75.44040   -120.2 9.758e+03 2.066e-10
 75.47777   -119.5 1.028e+04 2.805e-10
 75.49747   -118.6 1.042e+04 3.024e-10
 75.50922   -118.4 1.073e+04 3.706e-10
 75.52882   -119.7 1.141e+04 5.606e-10
 75.55845   -120.9 1.205e+04 9.680e-10
 75.59793   -121.3 1.260e+04 1.357e-09
 75.63731   -122.8 1.286e+04 1.546e-09
 75.67670   -124.8 1.287e+04 1.517e-09
 75.71608   -126.3 1.223e+04 1.047e-09
 75.75546   -127.1 1.126e+04 5.617e-10
 75.78901   -127.3 1.033e+04 2.714e-10
 75.80870   -127.9 1.043e+04 2.803e-10
 75.83423   -127.8 9.787e+03 1.439e-10
 75.87361   -126.6 9.453e+03 8.751e-11
 75.91299   -125.0 9.287e+03 6.480e-11
 75.95237   -123.5 9.218e+03 5.905e-11
 75.99176   -121.8 9.201e+03 5.825e-11
 76.03114   -120.1 9.218e+03 5.974e-11
 76.07052   -118.5 9.276e+03 6.809e-11
 76.10025   -116.8 9.333e+03 8.002e-11
 76.11994   -116.4 9.295e+03 6.976e-11
 76.14929   -114.6 9.333e+03 7.494e-11
 76.18867   -112.8 9.372e+03 7.918e-11
 76.22805   -111.1 9.408e+03 8.322e-11
 76.26744   -109.4 9.438e+03 8.790e-11
 76.30682   -107.6 9.461e+03 9.325e-11
 76.34620   -105.9 9.480e+03 9.761e-11
 76.38558   -104.2 9.490e+03 9.898e-11
 76.41148   -102.5 9.493e+03 9.712e-11
 76.43118   -102.1 9.457e+03 8.880e-11
 76.46435   -100.3 9.481e+03 9.001e-11
 76.50373    -98.7 9.498e+03 8.960e-11
 76.54311    -97.1 9.519e+03 8.861e-11
 76.58250    -95.5 9.599e+03 8.869e-11
 76.62188    -94.0 9.676e+03 9.342e-11
 76.66126    -92.6 9.765e+03 1.032e-10
 76.69388    -91.2 9.844e+03 1.177e-10
 76.71358    -90.7 9.743e+03 9.256e-11
 76.72272    -89.4 9.791e+03 1.062e-10
 76.74241    -89.1 9.764e+03 1.073e-10
 76.77941    -87.9 9.807e+03 1.191e-10
 76.81879    -86.7 9.861e+03 1.330e-10
 76.85818    -85.6 9.910e+03 1.471e-10
 76.89756    -84.4 9.951e+03 1.595e-10
 76.93694    -83.3 9.984e+03 1.690e-10
 76.97632    -82.1 1.000e+04 1.760e-10
 77.01427    -80.9 1.001e+04 1.816e-10
 77.03396    -80.3 9.823e+03 1.303e-10
 77.05509    -79.0 9.828e+03 1.402e-10
 77.09447    -77.5 9.829e+03 1.520e-10
 77.13385    -75.8 9.838e+03 1.644e-10
 77.17324    -74.1 9.867e+03 1.769e-10
 77.21262    -72.3 9.909e+03 1.863e-10
 77.25200    -70.6 9.929e+03 1.915e-10
 77.29139    -68.8 9.933e+03 1.930e-10
 77.32550    -67.1 9.925e+03 1.921e-10
 77.34520    -66.2 9.885e+03 1.832e-10
 77.37015    -64.5 9.898e+03 1.833e-10
 77.40953    -62.8 9.923e+03 1.829e-10
 77.44892    -61.1 9.959e+03 1.841e-10
 77.48830    -59.7 1.001e+04 1.876e-10
 77.52768    -58.3 1.003e+04 1.927e-10
 77.56706    -57.1 1.005e+04 2.085e-10
 77.60645    -55.9 1.008e+04 2.420e-10
 77.63674    -54.4 1.014e+04 2.856e-10
 77.65643    -53.5 1.018e+04 2.730e-10
 77.68521    -52.0 1.022e+04 2.954e-10
 77.72460    -50.2 1.027e+04 2.872e-10
 77.76398    -48.5 1.014e+04 2.447e-10
 77.80336    -46.8 1.013e+04 2.200e-10
 77.84274    -45.8 1.017e+04 2.173e-10
 77.88213    -46.1 1.085e+04 2.367e-10
 77.92151    -48.5 1.249e+04 6.541e-10
 77.94788    -49.1 1.310e+04 1.465e-09
 77.96757    -47.0 1.295e+04 1.256e-09
 77.99033    -48.1 1.393e+04 2.878e-09
 78.00992    -48.0 1.430e+04 3.578e-09
 78.02962    -48.1 1.433e+04 3.732e-09
 78.04931    -48.3 1.404e+04 3.255e-09
 78.06900    -48.8 1.351e+04 2.321e-09
 78.08869    -49.9 1.292e+04 1.549e-09
 78.10340    -51.1 1.236e+04 1.070e-09
 78.11325    -49.7 1.265e+04 1.355e-09
 78.12807    -50.8 1.218e+04 9.709e-10
 78.14776    -51.6 1.177e+04 7.469e-10
 78.16746    -52.3 1.143e+04 6.160e-10
 78.18715    -52.7 1.114e+04 5.331e-10
 78.20684    -53.2 1.086e+04 4.739e-10
 78.22653    -53.7 1.058e+04 4.292e-10
 78.24622    -54.1 1.035e+04 3.979e-10
 78.25902    -54.3 1.026e+04 3.805e-10
 78.26887    -53.4 1.040e+04 4.242e-10
 78.28560    -53.5 1.037e+04 4.220e-10
 78.30529    -54.0 1.072e+04 4.336e-10
 78.32499    -55.8 1.136e+04 5.013e-10
 78.34468    -57.9 1.190e+04 6.851e-10
 78.36437    -59.6 1.214e+04 1.003e-09
 78.38406    -60.3 1.226e+04 1.365e-09
 78.40375    -60.5 1.235e+04 1.572e-09
 78.41464    -60.7 1.235e+04 1.594e-09
 78.42448    -60.5 1.265e+04 1.834e-09
 78.44313    -60.7 1.238e+04 1.573e-09
 78.46283    -61.2 1.191e+04 1.026e-09
 78.48252    -62.3 1.124e+04 5.552e-10
 78.50221    -63.5 1.045e+04 3.018e-10
 78.52190    -63.9 9.921e+03 2.191e-10
 78.55066    -63.6 9.610e+03 1.743e-10
 78.57045    -62.9 9.828e+03 2.108e-10
 78.59101    -62.5 9.216e+03 1.381e-10
 78.63040    -61.3 8.830e+03 1.070e-10
 78.66978    -59.9 8.724e+03 9.657e-11
 78.70916    -58.4 8.637e+03 9.911e-11
 78.74854    -56.8 8.636e+03 1.086e-10
 78.78793    -55.1 8.685e+03 1.211e-10
 78.82731    -53.3 8.739e+03 1.306e-10
 78.86200    -51.5 8.771e+03 1.342e-10
 78.88169    -50.6 8.733e+03 1.363e-10
 78.90608    -48.8 8.760e+03 1.370e-10
 78.94546    -47.1 8.788e+03 1.368e-10
 78.98484    -45.6 8.882e+03 1.383e-10
 79.02422    -44.5 9.178e+03 1.688e-10
 79.06361    -43.6 9.618e+03 2.524e-10
 79.10299    -43.0 1.023e+04 3.978e-10
 79.14237    -42.7 1.084e+04 5.938e-10
 79.17181    -42.1 1.118e+04 7.396e-10
 79.18289    -42.5 1.150e+04 8.436e-10
 79.19283    -40.6 1.127e+04 7.462e-10
 79.21119    -42.1 1.190e+04 1.048e-09
 79.23079    -43.0 1.239e+04 1.354e-09
 79.25048    -43.7 1.284e+04 1.787e-09
 79.27017    -44.3 1.318e+04 2.201e-09
 79.28986    -44.7 1.339e+04 2.428e-09
 79.30955    -45.2 1.346e+04 2.449e-09
 79.32866    -45.9 1.354e+04 2.153e-09
 79.33850    -45.1 1.387e+04 2.644e-09
 79.34894    -46.4 1.389e+04 2.068e-09
 79.36863    -48.7 1.357e+04 1.591e-09
 79.38832    -51.2 1.299e+04 1.404e-09
 79.40801    -52.7 1.270e+04 1.351e-09
 79.42770    -53.2 1.249e+04 1.343e-09
 79.44739    -53.3 1.219e+04 1.255e-09
 79.46708    -53.2 1.187e+04 1.005e-09
 79.48428    -53.2 1.156e+04 7.192e-10
 79.49412    -52.9 1.151e+04 6.878e-10
 79.50647    -53.5 1.123e+04 4.577e-10
 79.52616    -54.4 1.091e+04 3.235e-10
 79.53714    -54.8 1.054e+04 2.644e-10
 79.54699    -54.0 1.073e+04 2.809e-10
 79.57548    -54.4 1.028e+04 2.295e-10
 79.61496    -53.7 9.974e+03 1.797e-10
 79.65435    -52.7 9.822e+03 1.559e-10
 79.69373    -51.7 9.736e+03 1.467e-10
 79.73311    -50.6 9.669e+03 1.398e-10
 79.77249    -49.4 9.631e+03 1.376e-10
 79.79571    -48.1 9.622e+03 1.414e-10
 79.81540    -47.9 9.615e+03 1.394e-10
 79.85126    -46.7 9.683e+03 1.482e-10
 79.89064    -45.4 9.750e+03 1.549e-10
 79.93003    -44.3 9.821e+03 1.629e-10
 79.96941    -43.2 9.888e+03 1.767e-10
 80.00879    -42.1 9.944e+03 1.949e-10
 80.04817    -40.9 1.004e+04 2.098e-10
 80.08725    -39.9 1.017e+04 2.270e-10
 80.10695    -40.0 1.016e+04 2.195e-10
 80.12694    -39.3 1.029e+04 2.306e-10
 80.16632    -39.1 1.049e+04 2.646e-10
 80.20570    -39.0 1.076e+04 3.493e-10
 80.24509    -39.0 1.105e+04 4.619e-10
 80.28447    -39.0 1.132e+04 5.635e-10
 80.32385    -39.4 1.159e+04 6.263e-10
 80.35329    -39.9 1.169e+04 6.520e-10
 80.37289    -40.6 1.179e+04 6.897e-10
 80.39258    -41.3 1.190e+04 7.359e-10
 80.40814    -41.9 1.202e+04 7.871e-10
 80.41799    -42.3 1.184e+04 7.219e-10
 80.43196    -42.8 1.190e+04 7.389e-10
 80.45165    -43.4 1.194e+04 7.422e-10
 80.47134    -44.1 1.201e+04 7.396e-10
 80.49103    -45.4 1.247e+04 7.809e-10
 80.51072    -47.5 1.310e+04 9.357e-10
 80.53042    -50.1 1.375e+04 1.323e-09
 80.55011    -52.2 1.407e+04 2.041e-09
 80.56376    -53.4 1.423e+04 2.915e-09
 80.57361    -54.1 1.461e+04 3.760e-09
 80.58949    -54.3 1.475e+04 4.162e-09
 80.60918    -54.7 1.487e+04 4.076e-09
 80.62887    -55.7 1.501e+04 3.049e-09
 80.64856    -58.0 1.493e+04 1.950e-09
 80.66826    -61.2 1.424e+04 1.202e-09
 80.68795    -64.3 1.294e+04 8.445e-10
 80.70764    -66.2 1.191e+04 7.106e-10
 80.71938    -66.9 1.152e+04 6.557e-10
 80.72922    -67.8 1.148e+04 6.374e-10
 80.74702    -68.0 1.144e+04 5.734e-10
 80.76671    -68.4 1.135e+04 4.900e-10
 80.78640    -69.0 1.120e+04 4.125e-10
 80.80609    -69.7 1.103e+04 3.578e-10
 80.82579    -70.4 1.091e+04 3.311e-10
 80.84548    -71.0 1.087e+04 3.254e-10
 80.86515    -71.7 1.093e+04 3.338e-10
 80.88484    -73.7 1.112e+04 3.916e-10
 80.90455    -74.2 1.126e+04 4.638e-10
 80.92424    -74.7 1.138e+04 5.281e-10
 80.94393    -75.2 1.148e+04 5.676e-10
 80.96363    -75.9 1.158e+04 5.863e-10
 80.98332    -77.1 1.174e+04 6.077e-10
 81.00301    -78.8 1.214e+04 6.804e-10
 81.02077    -81.0 1.287e+04 9.521e-10
 81.03062    -83.9 1.395e+04 1.749e-09
 81.04239    -85.5 1.510e+04 3.219e-09
 81.06208    -86.3 1.612e+04 5.410e-09
 81.08177    -86.8 1.684e+04 7.544e-09
 81.10147    -87.2 1.711e+04 8.346e-09
 81.12116    -87.9 1.712e+04 8.298e-09
 81.14085    -88.7 1.676e+04 6.134e-09
 81.16054    -90.7 1.598e+04 3.544e-09
 81.17639    -94.1 1.480e+04 1.987e-09
 81.18623    -96.7 1.566e+04 2.892e-09
 81.19992   -100.2 1.414e+04 1.926e-09
 81.21961   -102.5 1.333e+04 1.609e-09
 81.23930   -103.6 1.307e+04 1.509e-09
 81.25900   -104.4 1.298e+04 1.454e-09
 81.27869   -105.1 1.292e+04 1.384e-09
 81.29838   -105.8 1.283e+04 1.277e-09
 81.31807   -106.7 1.267e+04 1.140e-09
 81.33201   -107.6 1.242e+04 9.953e-10
 81.34185   -109.5 1.244e+04 1.185e-09
 81.35745   -110.0 1.217e+04 1.155e-09
 81.37714   -110.1 1.203e+04 1.153e-09
 81.39684   -110.0 1.191e+04 1.148e-09
 81.41653   -109.5 1.177e+04 1.119e-09
 81.43622   -108.9 1.163e+04 1.033e-09
 81.45591   -108.3 1.141e+04 8.908e-10
 81.47560   -107.6 1.116e+04 7.449e-10
 81.48763   -106.9 1.092e+04 6.054e-10
 81.49747   -107.5 1.080e+04 5.391e-10
 81.51498   -106.8 1.056e+04 4.275e-10
 81.54462   -106.2 1.040e+04 3.652e-10
 81.58410   -104.9 1.013e+04 3.014e-10
 81.62348   -103.0 9.778e+03 2.405e-10
 81.64344   -101.0 9.473e+03 1.960e-10
 81.66313   -101.8 9.210e+03 1.591e-10
 81.70225    -99.5 9.029e+03 1.347e-10
 81.74163    -97.3 8.874e+03 1.140e-10
 81.78101    -94.9 8.723e+03 9.604e-11
 81.82039    -92.5 8.583e+03 8.092e-11
 81.85978    -90.1 8.456e+03 6.797e-11
 81.89916    -87.7 8.347e+03 5.757e-11
 81.93498    -85.3 8.259e+03 5.056e-11
 81.95468    -85.8 8.282e+03 5.043e-11
 81.97793    -83.3 8.243e+03 4.900e-11
 82.01731    -80.9 8.237e+03 4.900e-11
 82.05669    -78.7 8.243e+03 5.317e-11
 82.09607    -76.4 8.259e+03 6.215e-11
 82.13546    -74.1 8.284e+03 7.309e-11
 82.17484    -71.8 8.320e+03 8.434e-11
 82.21422    -69.4 8.368e+03 9.510e-11
 82.24622    -67.1 8.430e+03 1.051e-10
 82.26591    -67.7 8.607e+03 1.236e-10
 82.29299    -65.7 8.745e+03 1.396e-10
 82.33237    -64.1 8.967e+03 1.645e-10
 82.36110    -62.9 9.297e+03 2.094e-10
 82.38079    -62.5 9.289e+03 2.105e-10
 82.41113    -61.4 9.709e+03 2.945e-10
 82.45052    -60.5 1.011e+04 4.040e-10
 82.47996    -60.4 1.048e+04 5.456e-10
 82.49955    -59.9 1.066e+04 6.307e-10
 82.51924    -59.4 1.077e+04 6.862e-10
 82.53893    -59.0 1.080e+04 7.022e-10
 82.55726    -58.3 1.069e+04 6.875e-10
 82.56711    -59.0 1.091e+04 7.219e-10
 82.57832    -58.1 1.070e+04 5.782e-10
 82.59801    -57.5 1.060e+04 4.612e-10
 82.61770    -57.5 1.060e+04 3.855e-10
 82.64733    -57.8 1.048e+04 3.273e-10
 82.68681    -56.8 1.006e+04 2.700e-10
 82.72620    -55.2 9.817e+03 2.508e-10
 82.76558    -53.2 9.753e+03 2.558e-10
 82.80496    -51.0 9.750e+03 2.662e-10
 82.84434    -48.7 9.735e+03 2.549e-10
 82.86870    -46.6 9.865e+03 2.342e-10
 82.88839    -50.2 1.058e+04 3.459e-10
 82.92311    -48.5 1.062e+04 3.679e-10
 82.96249    -46.7 1.054e+04 4.146e-10
 83.00187    -44.9 1.043e+04 4.606e-10
 83.04126    -43.2 1.047e+04 4.913e-10
 83.08064    -41.7 1.079e+04 5.069e-10
 83.12002    -40.8 1.138e+04 4.734e-10
 83.15941    -40.5 1.149e+04 4.429e-10
 83.17993    -40.2 1.100e+04 4.001e-10
 83.19962    -44.0 1.083e+04 7.185e-10
 83.22823    -42.4 1.068e+04 6.987e-10
 83.24782    -41.6 1.064e+04 6.814e-10
 83.26751    -40.8 1.061e+04 6.741e-10
 83.28720    -40.1 1.053e+04 6.667e-10
 83.30690    -39.1 1.051e+04 6.721e-10
 83.32551    -38.5 1.044e+04 6.529e-10
 83.33536    -39.5 1.046e+04 6.947e-10
 83.34628    -38.5 1.043e+04 6.693e-10
 83.36597    -37.8 1.025e+04 6.354e-10
 83.39560    -36.3 1.015e+04 6.120e-10
 83.43508    -34.6 9.854e+03 4.971e-10
 83.47148    -33.8 9.676e+03 4.015e-10
 83.49117    -37.1 9.002e+03 2.678e-10
 83.51385    -36.7 8.765e+03 2.418e-10
 83.55323    -35.8 8.697e+03 2.368e-10
 83.59262    -34.5 8.843e+03 2.725e-10
 83.63200    -33.1 8.904e+03 2.817e-10
 83.67138    -31.9 8.840e+03 2.631e-10
 83.71076    -30.7 8.628e+03 2.251e-10
 83.75015    -29.7 8.387e+03 1.910e-10
 83.78271    -28.3 8.211e+03 1.754e-10
 83.80241    -28.3 8.084e+03 1.569e-10
 83.82891    -26.5 8.004e+03 1.584e-10
 83.86829    -24.3 7.945e+03 1.556e-10
 83.90768    -21.6 7.893e+03 1.457e-10
 83.94706    -18.7 7.822e+03 1.391e-10
 83.98644    -16.1 8.165e+03 1.605e-10
 84.01588    -22.2 8.069e+03 1.889e-10
 84.03547    -33.4 1.786e+04 7.570e-10
 84.05019    -44.6 2.462e+04 3.940e-09
 84.05999    -51.4 2.633e+04 1.542e-08
 84.06984    -56.7 2.655e+04 5.692e-08
 84.07968    -62.0 2.605e+04 1.229e-07
 84.08953    -68.1 2.581e+04 1.438e-07
 84.09858    -75.4 2.425e+04 8.675e-08
 84.10350    -77.5 2.301e+04 6.971e-08
 84.10922    -82.6 2.000e+04 2.589e-08
 84.11907    -85.4 1.834e+04 1.272e-08
 84.12891    -87.3 1.789e+04 7.410e-09
 84.13876    -90.2 1.667e+04 4.095e-09
 84.15357    -93.9 1.450e+04 2.241e-09
 84.17331    -96.9 1.269e+04 1.341e-09
 84.19301    -99.3 1.096e+04 8.582e-10
 84.21270    -99.9 1.050e+04 7.717e-10
 84.23239    -99.8 1.048e+04 7.690e-10
 84.24938    -99.3 1.062e+04 8.087e-10
 84.25922    -98.9 1.013e+04 6.479e-10
 84.27177    -98.4 1.021e+04 6.603e-10
 84.29146    -97.9 1.022e+04 6.622e-10
 84.31115    -97.2 1.021e+04 6.376e-10
 84.33085    -96.4 1.009e+04 5.801e-10
 84.35054    -95.7 9.945e+03 5.223e-10
 84.37023    -95.0 9.801e+03 4.755e-10
 84.38992    -94.4 9.699e+03 4.448e-10
 84.40499    -93.8 9.641e+03 4.312e-10
 84.41484    -93.8 9.637e+03 4.206e-10
 84.42930    -93.2 9.642e+03 4.257e-10
 84.45894    -92.6 9.668e+03 4.366e-10
 84.49842    -91.5 9.703e+03 4.561e-10
 84.53780    -90.5 9.825e+03 4.910e-10
 84.57718    -89.6 9.864e+03 5.058e-10
 84.61656    -88.8 9.933e+03 5.297e-10
 84.65595    -88.0 1.012e+04 5.815e-10
 84.69533    -87.4 1.035e+04 6.595e-10
 84.71643    -86.8 1.051e+04 7.330e-10
 84.73612    -86.0 1.016e+04 5.890e-10
 84.77410    -85.3 1.021e+04 6.056e-10
 84.81348    -84.6 1.014e+04 5.893e-10
 84.85286    -84.0 9.931e+03 5.179e-10
 84.88230    -83.1 9.691e+03 4.433e-10
 84.90189    -83.0 9.671e+03 4.321e-10
 84.93153    -83.0 9.702e+03 4.238e-10
 84.97101    -82.9 9.754e+03 4.253e-10
 85.00045    -82.9 9.835e+03 4.508e-10
 85.01762    -83.1 9.899e+03 4.648e-10
 85.02747    -83.3 9.908e+03 4.664e-10
 85.03973    -83.5 1.003e+04 4.966e-10
 85.05942    -83.8 1.016e+04 5.313e-10
 85.08906    -84.5 1.028e+04 5.685e-10
 85.12854    -85.4 1.051e+04 6.570e-10
 85.16792    -86.2 1.061e+04 6.969e-10
 85.19461    -86.9 1.038e+04 6.592e-10
 85.20436    -86.8 1.044e+04 6.577e-10
 85.21696    -87.0 1.038e+04 6.382e-10
 85.23665    -87.7 1.031e+04 6.081e-10
 85.25634    -88.4 1.038e+04 6.056e-10
 85.27603    -94.3 1.315e+04 6.315e-10
 85.29572   -103.5 1.799e+04 1.888e-09
 85.31541   -109.4 1.868e+04 6.426e-09
 85.32886   -111.6 1.866e+04 1.303e-08
 85.33870   -110.7 1.836e+04 9.271e-09
 85.35479   -112.0 1.849e+04 1.354e-08
 85.37449   -113.2 1.842e+04 1.408e-08
 85.39418   -114.2 1.760e+04 1.019e-08
 85.40662   -115.2 1.650e+04 4.895e-09
 85.41149   -115.3 1.657e+04 5.841e-09
 85.41869   -116.0 1.629e+04 4.368e-09
 85.43351   -118.0 1.544e+04 2.503e-09
 85.45325   -121.8 1.368e+04 9.263e-10
 85.47294   -125.3 1.150e+04 4.348e-10
 85.48448   -126.6 1.038e+04 3.352e-10
 85.49432   -125.5 1.073e+04 4.103e-10
 85.51233   -125.9 1.041e+04 3.698e-10
 85.53202   -126.0 1.033e+04 3.641e-10
 85.55171   -126.1 1.020e+04 4.082e-10
 85.57140   -126.3 1.031e+04 4.787e-10
 85.60103   -127.2 1.066e+04 6.160e-10
 85.63035   -128.1 1.154e+04 8.765e-10
 85.65004   -128.9 1.167e+04 1.002e-09
 85.66995   -130.9 1.244e+04 1.444e-09
 85.68955   -132.9 1.296e+04 1.767e-09
 85.70924   -135.2 1.326e+04 2.027e-09
 85.72893   -137.8 1.330e+04 2.099e-09
 85.74862   -139.8 1.306e+04 2.071e-09
 85.76831   -141.4 1.249e+04 1.748e-09
 85.78587   -142.7 1.194e+04 1.357e-09
 85.79571   -141.6 1.169e+04 1.238e-09
 85.80770   -142.7 1.130e+04 1.002e-09
 85.82739   -143.6 1.099e+04 8.215e-10
 85.84708   -144.3 1.075e+04 6.939e-10
 85.86677   -144.9 1.055e+04 6.095e-10
 85.88646   -145.2 1.040e+04 5.576e-10
 85.90615   -145.4 1.033e+04 5.317e-10
 85.92584   -145.7 1.032e+04 5.259e-10
 85.94149   -146.0 1.032e+04 5.260e-10
 85.95133   -145.3 1.028e+04 5.104e-10
 85.96523   -145.7 1.032e+04 5.181e-10
 85.98492   -146.1 1.045e+04 5.793e-10
 86.00461   -146.3 1.063e+04 6.823e-10
 86.02430   -146.4 1.085e+04 8.056e-10
 86.04399   -146.4 1.107e+04 9.267e-10
 86.06368   -146.5 1.124e+04 1.013e-09
 86.08337   -146.7 1.129e+04 1.035e-09
 86.09711   -146.9 1.129e+04 1.033e-09
 86.10695   -146.5 1.125e+04 1.015e-09
 86.12276   -146.5 1.127e+04 1.021e-09
 86.14245   -146.6 1.127e+04 1.021e-09
 86.16214   -146.8 1.131e+04 1.029e-09
 86.18183   -147.4 1.159e+04 1.116e-09
 86.20152   -148.4 1.215e+04 1.309e-09
 86.22121   -149.6 1.286e+04 1.646e-09
 86.24091   -150.8 1.358e+04 2.125e-09
 86.25272   -151.9 1.413e+04 2.636e-09
 86.26257   -151.9 1.463e+04 3.528e-09
 86.28029   -152.8 1.494e+04 4.020e-09
 86.29998   -153.4 1.501e+04 4.140e-09
 86.31967   -153.5 1.498e+04 4.060e-09
 86.33936   -153.5 1.480e+04 3.419e-09
 86.35905   -153.4 1.455e+04 2.626e-09
 86.37874   -153.7 1.425e+04 1.912e-09
 86.39844   -154.2 1.389e+04 1.376e-09
 86.41813   -154.5 1.349e+04 1.176e-09
 86.43782   -155.2 1.298e+04 8.900e-10
 86.45751   -156.0 1.253e+04 7.662e-10
 86.47720   -156.5 1.232e+04 7.406e-10
 86.49689   -157.1 1.224e+04 7.487e-10
 86.51658   -157.6 1.217e+04 8.747e-10
 86.53628   -158.2 1.231e+04 1.046e-09
 86.55412   -158.8 1.245e+04 1.189e-09
 86.56396   -159.0 1.282e+04 1.469e-09
 86.57566   -159.9 1.295e+04 1.588e-09
 86.59535   -160.9 1.298e+04 1.611e-09
 86.61504   -161.8 1.294e+04 1.585e-09
 86.63473   -162.7 1.276e+04 1.397e-09
 86.65442   -163.4 1.249e+04 1.145e-09
 86.67411   -164.1 1.219e+04 9.061e-10
 86.69381   -164.6 1.189e+04 7.003e-10
 86.70973   -165.1 1.161e+04 5.260e-10
 86.71958   -166.1 1.158e+04 4.808e-10
 86.73319   -166.4 1.130e+04 3.628e-10
 86.75288   -166.4 1.114e+04 3.082e-10
 86.78251   -166.5 1.103e+04 2.625e-10
 86.82200   -166.7 1.065e+04 1.718e-10
 86.85570   -165.9 1.028e+04 1.136e-10
 86.87539   -168.0 1.030e+04 1.098e-10
 86.90076   -167.2 1.032e+04 1.002e-10
 86.94014   -167.4 1.042e+04 9.934e-11
 86.97953   -169.0 1.168e+04 1.239e-10
 87.01891   -170.8 1.274e+04 3.709e-10
 87.05829   -171.7 1.325e+04 1.040e-09
 87.08773   -172.6 1.367e+04 2.049e-09
 87.10732   -172.4 1.390e+04 2.532e-09
 87.12702   -172.1 1.414e+04 2.904e-09
 87.14671   -171.9 1.422e+04 3.070e-09
 87.16640   -171.8 1.421e+04 3.116e-09
 87.17659   -171.5 1.397e+04 2.949e-09
 87.18643   -172.5 1.374e+04 2.731e-09
 87.20578   -172.0 1.329e+04 2.206e-09
 87.22547   -171.5 1.280e+04 1.709e-09
 87.24516   -170.9 1.229e+04 1.286e-09
 87.26486   -170.1 1.182e+04 9.542e-10
 87.28455   -169.3 1.139e+04 7.024e-10
 87.30424   -168.3 1.105e+04 5.108e-10
 87.32236   -167.4 1.084e+04 3.852e-10
 87.33221   -167.8 1.075e+04 3.803e-10
 87.34362   -167.1 1.070e+04 3.183e-10
 87.37326   -166.5 1.063e+04 2.702e-10
 87.41274   -164.7 1.036e+04 1.911e-10
 87.45212   -162.6 1.015e+04 1.369e-10
 87.47818   -160.6 1.013e+04 1.100e-10
 87.49787   -161.3 1.032e+04 1.785e-10
 87.53088   -159.4 1.030e+04 1.661e-10
 87.57027   -157.3 1.024e+04 1.587e-10
 87.60965   -155.2 1.025e+04 1.546e-10
 87.64903   -153.0 1.033e+04 1.521e-10
 87.68841   -150.8 1.035e+04 1.604e-10
 87.72780   -148.6 1.041e+04 1.801e-10
 87.76718   -146.4 1.045e+04 2.181e-10
 87.78941   -144.2 1.055e+04 2.647e-10
 87.80910   -144.0 1.061e+04 2.758e-10
 87.84594   -142.0 1.084e+04 3.491e-10
 87.88533   -140.5 1.110e+04 4.401e-10
 87.92471   -140.0 1.144e+04 5.600e-10
 87.96409   -140.2 1.202e+04 7.891e-10
 87.99353   -141.3 1.291e+04 1.407e-09
 88.01313   -142.1 1.347e+04 1.914e-09
 88.02812   -143.0 1.426e+04 2.807e-09
 88.03797   -144.0 1.550e+04 4.109e-09
 88.05251   -144.6 1.616e+04 5.656e-09
 88.07220   -145.0 1.636e+04 6.410e-09
 88.09061   -145.2 1.632e+04 6.521e-09
 88.10045   -145.9 1.713e+04 8.136e-09
 88.11158   -145.4 1.629e+04 6.488e-09
 88.13127   -144.8 1.535e+04 4.507e-09
 88.15097   -144.5 1.450e+04 3.062e-09
 88.17066   -144.4 1.370e+04 2.126e-09
 88.19035   -144.3 1.303e+04 1.540e-09
 88.21004   -143.9 1.250e+04 1.172e-09
 88.22973   -143.3 1.211e+04 9.420e-10
 88.24623   -142.7 1.184e+04 7.937e-10
 88.25607   -143.1 1.189e+04 7.939e-10
 88.26911   -142.5 1.170e+04 6.875e-10
 88.28880   -141.9 1.163e+04 6.534e-10
 88.31844   -141.5 1.166e+04 6.553e-10
 88.35792   -140.0 1.166e+04 6.533e-10
 88.38736   -139.0 1.174e+04 6.723e-10
 88.40185   -138.4 1.178e+04 7.077e-10
 88.41179   -139.4 1.186e+04 7.022e-10
 88.43669   -138.3 1.182e+04 7.308e-10
 88.47607   -137.3 1.181e+04 7.386e-10
 88.51545   -136.7 1.173e+04 7.359e-10
 88.55483   -136.0 1.164e+04 7.247e-10
 88.59422   -135.5 1.158e+04 7.086e-10
 88.63360   -135.0 1.159e+04 7.025e-10
 88.67298   -134.7 1.166e+04 6.942e-10
 88.70242   -134.4 1.187e+04 7.593e-10
 88.71308   -134.8 1.196e+04 8.407e-10
 88.72293   -133.4 1.181e+04 7.275e-10
 88.74171   -135.0 1.265e+04 9.686e-10
 88.76140   -137.7 1.424e+04 1.654e-09
 88.78109   -140.4 1.569e+04 3.152e-09
 88.80078   -142.4 1.675e+04 5.624e-09
 88.82047   -143.7 1.735e+04 8.094e-09
 88.84016   -145.1 1.747e+04 9.070e-09
 88.85886   -146.5 1.734e+04 9.022e-09
 88.86870   -146.3 1.854e+04 1.225e-08
 88.87955   -147.9 1.794e+04 1.047e-08
 88.89426   -149.1 1.693e+04 7.134e-09
 88.90406   -150.2 1.645e+04 5.849e-09
 88.91391   -151.3 1.588e+04 4.878e-09
 88.92375   -152.4 1.537e+04 4.220e-09
 88.93857   -153.6 1.487e+04 3.682e-09
 88.95831   -155.2 1.370e+04 2.719e-09
 88.97800   -155.7 1.303e+04 2.304e-09
 88.99769   -155.9 1.273e+04 2.114e-09
 89.01447   -155.8 1.246e+04 1.952e-09
 89.02432   -156.3 1.232e+04 1.804e-09
 89.03708   -155.8 1.200e+04 1.607e-09
 89.05677   -155.2 1.177e+04 1.453e-09
 89.07646   -154.5 1.159e+04 1.325e-09
 89.09615   -153.7 1.142e+04 1.216e-09
 89.11584   -152.5 1.126e+04 1.132e-09
 89.13553   -150.9 1.121e+04 1.096e-09
 89.15522   -149.8 1.124e+04 1.098e-09
 89.17009   -150.2 1.172e+04 1.149e-09
 89.17994   -154.7 1.392e+04 1.330e-09
 89.19461   -160.7 1.882e+04 3.365e-09
 89.21430   -165.1 2.101e+04 1.078e-08
 89.22902   -165.8 2.218e+04 2.087e-08
 89.23881   -166.8 2.256e+04 3.168e-08
 89.24780   -167.7 2.299e+04 4.157e-08
 89.25273   -169.7 2.274e+04 3.607e-08
 89.25851   -171.4 2.275e+04 3.672e-08
 89.26835   -173.2 2.245e+04 3.419e-08
 89.27820   -175.5 2.205e+04 2.499e-08
 89.28804   -178.7 2.144e+04 1.612e-08
 89.29789   -182.9 2.025e+04 9.773e-09
 89.30773   -187.1 1.851e+04 5.973e-09
 89.31758   -190.6 1.676e+04 3.990e-09
 89.32561   -192.9 1.554e+04 3.094e-09
 89.33054   -192.8 1.490e+04 2.863e-09
 89.33727   -194.1 1.440e+04 2.473e-09
 89.35209   -195.4 1.408e+04 2.172e-09
 89.37183   -198.4 1.405e+04 2.062e-09
 89.39152   -201.6 1.470e+04 2.141e-09
 89.41121   -204.5 1.541e+04 2.708e-09
 89.43090   -206.9 1.583e+04 3.629e-09
 89.44488   -208.7 1.620e+04 4.745e-09
 89.44975   -208.2 1.578e+04 4.037e-09
 89.45542   -208.8 1.598e+04 4.455e-09
 89.46526   -209.9 1.620e+04 5.125e-09
 89.47511   -210.6 1.644e+04 5.405e-09
 89.48123   -211.7 1.664e+04 5.619e-09
 89.49113   -211.9 1.637e+04 5.548e-09
 89.50967   -213.5 1.645e+04 5.349e-09
 89.52936   -215.8 1.616e+04 4.119e-09
 89.54905   -218.7 1.534e+04 2.710e-09
 89.56874   -221.9 1.372e+04 1.548e-09
 89.58843   -224.6 1.167e+04 9.232e-10
 89.60812   -226.3 1.073e+04 6.525e-10
 89.62710   -227.1 1.059e+04 5.589e-10
 89.63695   -226.5 1.068e+04 6.159e-10
 89.64751   -227.0 1.062e+04 5.674e-10
 89.66720   -227.4 1.059e+04 5.300e-10
 89.68689   -227.8 1.048e+04 4.853e-10
 89.70658   -228.2 1.029e+04 4.408e-10
 89.72627   -228.4 1.008e+04 4.044e-10
 89.74596   -228.4 9.873e+03 3.742e-10
 89.76566   -228.2 9.731e+03 3.594e-10
 89.78272   -227.6 9.679e+03 3.563e-10
 89.79257   -227.1 9.654e+03 3.520e-10
 89.81498   -227.0 9.684e+03 3.565e-10
 89.85446   -226.3 9.706e+03 3.724e-10
 89.89384   -225.2 9.720e+03 3.942e-10
 89.92869   -224.0 9.728e+03 4.005e-10
 89.94838   -223.3 9.599e+03 3.771e-10
 89.97261   -222.1 9.622e+03 3.792e-10
 90.01199   -221.0 9.655e+03 3.797e-10
 90.05138   -220.3 9.767e+03 3.813e-10
 90.09076   -219.9 9.919e+03 3.980e-10
 90.12020   -219.3 9.914e+03 3.981e-10
 90.13979   -219.5 1.002e+04 4.284e-10
 90.15948   -219.7 1.009e+04 4.603e-10
 90.17917   -220.1 1.014e+04 4.886e-10
 90.19886   -220.5 1.014e+04 5.124e-10
 90.21856   -220.6 1.013e+04 5.157e-10
 90.23825   -220.5 1.006e+04 5.018e-10
 90.24958   -220.3 9.931e+03 4.569e-10
 90.25942   -219.6 9.930e+03 4.479e-10
 90.28757   -219.6 9.860e+03 4.173e-10
 90.32705   -219.6 9.722e+03 3.652e-10
 90.36644   -219.1 9.562e+03 3.118e-10
 90.40582   -218.2 9.454e+03 2.746e-10
 90.44520   -217.2 9.441e+03 2.626e-10
 90.48458   -216.5 9.453e+03 2.619e-10
 90.52397   -216.3 9.589e+03 2.698e-10
 90.55116   -217.0 1.049e+04 4.134e-10
 90.57085   -216.6 1.031e+04 3.841e-10
 90.60273   -218.7 1.229e+04 9.752e-10
 90.63217   -219.7 1.338e+04 1.898e-09
 90.65177   -220.7 1.411e+04 2.751e-09
 90.67146   -221.9 1.458e+04 3.488e-09
 90.69115   -223.3 1.469e+04 3.755e-09
 90.70659   -224.3 1.468e+04 3.785e-09
 90.71643   -224.0 1.501e+04 4.359e-09
 90.73053   -224.5 1.462e+04 4.073e-09
 90.75022   -224.7 1.406e+04 3.258e-09
 90.76991   -224.8 1.343e+04 2.451e-09
 90.78961   -224.7 1.282e+04 1.829e-09
 90.80930   -224.7 1.224e+04 1.385e-09
 90.82899   -224.4 1.168e+04 1.059e-09
 90.84868   -223.4 1.115e+04 8.172e-10
 90.86173   -222.2 1.072e+04 6.398e-10
 90.86541   -222.1 1.085e+04 6.826e-10
 90.87205   -221.9 1.093e+04 7.596e-10
 90.88806   -220.4 1.060e+04 5.961e-10
 90.90775   -218.9 1.039e+04 4.812e-10
 90.92744   -217.8 1.029e+04 4.180e-10
 90.95708   -216.9 1.021e+04 3.768e-10
 90.99656   -215.0 9.975e+03 3.120e-10
 91.03594   -212.4 9.655e+03 2.465e-10
 91.07532   -209.7 9.368e+03 1.932e-10
 91.11471   -207.1 9.166e+03 1.529e-10
 91.15395   -204.5 9.044e+03 1.234e-10
 91.19333   -201.6 8.962e+03 1.026e-10
 91.23286   -199.1 8.929e+03 8.764e-11
 91.27224   -196.7 8.927e+03 7.836e-11
 91.31162   -194.3 8.950e+03 7.379e-11
 91.35100   -191.9 8.964e+03 7.261e-11
 91.39039   -189.5 8.969e+03 7.250e-11
 91.42977   -187.3 9.059e+03 7.284e-11
 91.46518   -185.2 9.255e+03 8.124e-11
 91.48487   -185.0 9.240e+03 8.103e-11
 91.50853   -183.0 9.324e+03 9.924e-11
 91.54792   -181.0 9.373e+03 1.234e-10
 91.58730   -179.0 9.416e+03 1.498e-10
 91.62668   -177.0 9.458e+03 1.734e-10
 91.66607   -174.9 9.504e+03 1.888e-10
 91.70545   -172.9 9.544e+03 1.934e-10
 91.74483   -170.9 9.551e+03 1.940e-10
 91.77642   -168.9 9.521e+03 1.916e-10
 91.79611   -168.9 9.538e+03 1.930e-10
 91.82360   -166.8 9.556e+03 1.839e-10
 91.86298   -164.8 9.566e+03 1.649e-10
 91.90236   -162.8 9.600e+03 1.408e-10
 91.94174   -160.9 9.661e+03 1.199e-10
 91.98113   -159.1 9.743e+03 1.077e-10
 92.02051   -157.4 9.779e+03 1.049e-10
 92.05989   -155.9 9.867e+03 1.051e-10
 92.08766   -154.6 1.007e+04 1.198e-10
 92.10735   -154.7 1.009e+04 1.455e-10
 92.13866   -153.5 1.016e+04 1.650e-10
 92.17804   -152.5 1.015e+04 1.755e-10
 92.21742   -151.6 1.013e+04 1.770e-10
 92.25681   -150.5 9.902e+03 1.609e-10
 92.29619   -149.3 9.687e+03 1.233e-10
 92.33557   -148.0 9.549e+03 9.237e-11
 92.37495   -146.8 9.540e+03 7.871e-11
 92.39889   -145.8 9.554e+03 7.650e-11
 92.41858   -145.6 9.486e+03 6.826e-11
 92.45372   -145.1 9.560e+03 6.957e-11
 92.49310   -145.0 9.811e+03 1.182e-10
 92.53248   -144.5 1.000e+04 2.625e-10
 92.57187   -143.8 1.023e+04 4.695e-10
 92.61125   -143.4 1.042e+04 6.314e-10
 92.65063   -143.1 1.046e+04 6.744e-10
 92.69002   -142.7 1.036e+04 6.619e-10
 92.71013   -141.6 9.972e+03 5.138e-10
 92.72982   -140.5 9.844e+03 4.278e-10
 92.76878   -139.0 9.550e+03 3.175e-10
 92.80816   -137.4 9.334e+03 2.390e-10
 92.84755   -135.6 9.207e+03 2.008e-10
 92.88693   -133.7 9.154e+03 1.907e-10
 92.92631   -131.7 9.144e+03 1.896e-10
 92.96569   -129.7 9.155e+03 1.954e-10
 93.00168   -127.8 9.164e+03 2.020e-10
 93.02137   -127.0 9.320e+03 2.216e-10
 93.04446   -125.2 9.329e+03 2.297e-10
 93.08384   -123.5 9.306e+03 2.294e-10
 93.12322   -121.9 9.188e+03 2.101e-10
 93.16261   -120.4 9.060e+03 1.815e-10
 93.20199   -119.0 8.970e+03 1.605e-10
 93.24137   -117.9 8.947e+03 1.537e-10
 93.28076   -116.8 8.953e+03 1.517e-10
 93.31291   -115.7 8.995e+03 1.631e-10
 93.33260   -115.4 8.961e+03 1.440e-10
 93.35952   -114.3 8.971e+03 1.505e-10
 93.39890   -113.1 9.048e+03 1.773e-10
 93.43829   -111.8 9.148e+03 2.185e-10
 93.47767   -110.3 9.238e+03 2.600e-10
 93.51705   -108.9 9.275e+03 2.820e-10
 93.55643   -107.5 9.273e+03 2.856e-10
 93.59582   -105.8 9.126e+03 2.661e-10
 93.62415   -103.9 8.921e+03 2.040e-10
 93.64384   -103.9 8.915e+03 1.856e-10
 93.67458   -101.8 8.727e+03 1.313e-10
 93.69553    -99.7 8.588e+03 8.936e-11
 93.71522    -99.7 8.712e+03 1.020e-10
 93.75335    -97.7 8.642e+03 7.405e-11
 93.79273    -95.7 8.566e+03 5.770e-11
 93.83211    -93.5 8.488e+03 5.019e-11
 93.87150    -91.3 8.459e+03 4.825e-11
 93.91088    -89.0 8.460e+03 4.807e-11
 93.93539    -87.3 8.605e+03 5.047e-11
 93.95508    -87.1 8.637e+03 4.391e-11
 93.98964    -85.6 8.818e+03 6.584e-11
 94.02903    -83.8 8.921e+03 1.130e-10
 94.06841    -81.8 9.092e+03 1.774e-10
 94.10779    -79.7 9.276e+03 2.347e-10
 94.14717    -77.7 9.354e+03 2.565e-10
 94.18656    -75.7 9.340e+03 2.575e-10
 94.22594    -73.4 9.198e+03 2.212e-10
 94.24662    -71.0 9.049e+03 1.659e-10
 94.26631    -70.8 9.030e+03 1.482e-10
 94.30471    -68.5 8.990e+03 1.219e-10
 94.34409    -66.3 8.976e+03 1.053e-10
 94.38347    -64.1 8.986e+03 9.723e-11
 94.42285    -61.8 9.002e+03 9.441e-11
 94.46224    -59.5 9.013e+03 9.352e-11
 94.50162    -57.1 9.003e+03 9.305e-11
 94.53817    -54.8 8.957e+03 9.225e-11
 94.55786    -54.7 9.180e+03 1.064e-10
 94.58038    -52.3 9.153e+03 1.031e-10
 94.61977    -50.0 9.117e+03 9.744e-11
 94.65915    -47.7 9.091e+03 9.039e-11
 94.69853    -45.6 9.081e+03 8.471e-11
 94.73791    -43.5 9.119e+03 8.226e-11
 94.77730    -41.6 9.404e+03 8.046e-11
 94.81668    -40.0 9.767e+03 9.149e-11
 94.84941    -38.4 9.945e+03 1.147e-10
 94.86910    -37.7 9.878e+03 1.020e-10
 94.89545    -35.9 9.845e+03 1.179e-10
 94.93483    -34.1 9.873e+03 1.390e-10
 94.97421    -32.4 9.910e+03 1.737e-10
 95.01359    -30.9 1.002e+04 2.298e-10
 95.05298    -29.4 1.018e+04 3.203e-10
 95.09236    -27.2 1.032e+04 4.166e-10
 95.13174    -24.7 1.038e+04 4.657e-10
 95.16064    -22.3 1.012e+04 3.150e-10
 95.18033    -21.9 1.009e+04 2.774e-10
 95.21051    -19.5 9.926e+03 1.704e-10
 95.24989    -18.3 9.764e+03 9.916e-11
 95.28927    -17.1 9.323e+03 8.098e-11
 95.32865    -15.1 9.101e+03 7.748e-11
 95.36804    -12.8 9.028e+03 8.194e-11
 95.40742    -10.3 8.975e+03 8.612e-11
 95.44680     -7.6 8.972e+03 8.525e-11
 95.47188     -5.3 8.968e+03 7.630e-11
 95.49157     -5.2 8.944e+03 7.169e-11
 95.52557     -3.1 8.923e+03 7.675e-11
 95.56495     -1.1 8.904e+03 8.919e-11
 95.60433      1.2 8.836e+03 1.107e-10
 95.64372      3.7 8.889e+03 1.296e-10
 95.68310      6.0 9.027e+03 1.381e-10
 95.72248      8.0 9.097e+03 1.414e-10
 95.76186      9.9 9.144e+03 1.435e-10
 95.78312     11.7 9.208e+03 1.464e-10
 95.80281     11.8 9.292e+03 1.526e-10
 95.84063     13.5 9.325e+03 1.399e-10
 95.88001     15.2 9.321e+03 1.250e-10
 95.91940     17.0 9.254e+03 1.054e-10
 95.95878     18.8 9.214e+03 8.543e-11
 95.99816     20.4 9.148e+03 7.544e-11
 96.03754     21.9 9.191e+03 7.821e-11
 96.07466     22.9 9.425e+03 9.676e-11
 96.09435     23.6 9.371e+03 8.775e-11
 96.11631     24.3 9.811e+03 1.560e-10
 96.15569     25.4 1.043e+04 3.593e-10
 96.19507     26.7 1.100e+04 6.806e-10
 96.23446     27.7 1.142e+04 8.078e-10
 96.27384     28.0 1.144e+04 7.517e-10
 96.31322     27.7 1.132e+04 6.523e-10
 96.35260     27.3 1.103e+04 6.066e-10
 96.38590     27.5 1.065e+04 5.818e-10
 96.40559     28.6 1.144e+04 1.069e-09
 96.43137     28.6 1.083e+04 6.891e-10
 96.47075     28.6 1.027e+04 4.334e-10
 96.51014     28.8 9.762e+03 2.653e-10
 96.54952     29.2 9.346e+03 1.569e-10
 96.58890     29.8 9.009e+03 9.052e-11
 96.62828     30.6 8.625e+03 6.196e-11
 96.66767     31.8 8.319e+03 4.965e-11
 96.69714     33.4 8.177e+03 4.206e-11
 96.71683     33.6 8.056e+03 5.703e-11
 96.74643     35.2 8.059e+03 4.770e-11
 96.78581     36.9 8.067e+03 4.569e-11
 96.82520     38.6 8.073e+03 4.636e-11
 96.86458     40.4 8.090e+03 4.948e-11
 96.90396     42.1 8.130e+03 5.650e-11
 96.94334     43.9 8.210e+03 6.789e-11
 96.98273     45.5 8.333e+03 8.456e-11
 97.00837     47.0 8.493e+03 1.082e-10
 97.02806     47.0 8.433e+03 1.104e-10
 97.06149     48.3 8.592e+03 1.357e-10
 97.10088     49.4 8.858e+03 1.753e-10
 97.14026     49.9 9.244e+03 2.367e-10
 97.17964     49.8 9.696e+03 3.229e-10
 97.21902     49.4 1.022e+04 4.466e-10
 97.25841     48.8 1.067e+04 6.037e-10
 97.29779     48.2 1.086e+04 6.737e-10
 97.31961     47.5 1.080e+04 6.518e-10
 97.33930     46.7 1.059e+04 5.408e-10
 97.37655     45.8 1.042e+04 4.714e-10
 97.41594     45.3 1.017e+04 3.994e-10
 97.45532     45.2 9.923e+03 3.470e-10
 97.49470     45.7 9.592e+03 2.716e-10
 97.53409     46.9 9.298e+03 1.776e-10
 97.57347     47.9 9.144e+03 1.010e-10
 97.61116     48.2 8.989e+03 6.416e-11
 97.63085     47.3 8.962e+03 6.140e-11
 97.65223     47.9 8.894e+03 6.084e-11
 97.69162     48.9 8.876e+03 6.912e-11
 97.73100     50.1 8.929e+03 9.528e-11
 97.77038     51.7 9.030e+03 1.298e-10
 97.80976     53.2 9.162e+03 1.496e-10
 97.84915     54.4 9.199e+03 1.495e-10
 97.88853     55.5 9.229e+03 1.434e-10
 97.92239     56.3 9.246e+03 1.322e-10
 97.94208     55.9 9.358e+03 1.648e-10
 97.96729     56.7 9.383e+03 1.563e-10
 98.00668     57.6 9.406e+03 1.572e-10
 98.04606     58.4 9.541e+03 1.664e-10
 98.08544     58.8 9.857e+03 2.051e-10
 98.12483     59.0 1.031e+04 3.251e-10
 98.16421     59.9 1.071e+04 5.688e-10
 98.20359     61.3 1.112e+04 8.593e-10
 98.23363     63.1 1.146e+04 1.094e-09
 98.25332     61.6 1.186e+04 1.304e-09
 98.28236     63.3 1.164e+04 1.077e-09
 98.32174     65.0 1.127e+04 7.626e-10
 98.36112     66.6 1.092e+04 5.316e-10
 98.40050     68.2 1.068e+04 4.189e-10
 98.43989     69.8 1.045e+04 3.791e-10
 98.47927     71.5 1.045e+04 3.744e-10
 98.51865     73.1 1.077e+04 3.983e-10
 98.54487     74.7 1.129e+04 5.139e-10
 98.55461     71.8 1.251e+04 1.284e-09
 98.56769     73.2 1.263e+04 1.573e-09
 98.58738     74.5 1.281e+04 1.888e-09
 98.60707     75.8 1.294e+04 2.165e-09
 98.62676     77.0 1.306e+04 2.310e-09
 98.64645     78.1 1.307e+04 2.352e-09
 98.66614     79.0 1.305e+04 2.299e-09
 98.68583     79.9 1.296e+04 2.202e-09
 98.70029     81.0 1.280e+04 2.050e-09
 98.71014     80.1 1.288e+04 2.063e-09
 98.72522     81.2 1.249e+04 1.670e-09
 98.74491     82.3 1.205e+04 1.305e-09
 98.76460     83.2 1.167e+04 1.027e-09
 98.78429     83.9 1.135e+04 8.273e-10
 98.80398     84.6 1.108e+04 6.868e-10
 98.82367     85.4 1.084e+04 5.909e-10
 98.84336     86.1 1.062e+04 5.273e-10
 98.85591     86.9 1.045e+04 4.826e-10
 98.86575     85.6 1.023e+04 4.234e-10
 98.88275     86.2 1.013e+04 3.966e-10
 98.91238     87.4 9.971e+03 3.478e-10
 98.95186     89.8 9.774e+03 3.018e-10
 98.99124     92.2 9.624e+03 2.586e-10
 99.03063     94.3 9.457e+03 2.196e-10
 99.07001     96.1 9.272e+03 1.972e-10
 99.10939     97.9 9.312e+03 1.961e-10
 99.14765     99.6 9.322e+03 2.030e-10
 99.16734     97.1 9.284e+03 2.340e-10
 99.18816     99.0 9.470e+03 2.884e-10
 99.22754    100.9 9.661e+03 3.468e-10
 99.26692    102.8 9.845e+03 4.053e-10
 99.30631    104.7 9.845e+03 3.993e-10
 99.34306    106.5 9.810e+03 3.756e-10
 99.36275    106.5 9.840e+03 3.824e-10
 99.38507    108.3 9.700e+03 3.399e-10
 99.42445    110.0 9.459e+03 2.967e-10
 99.45889    111.7 9.228e+03 2.661e-10
 99.47858    110.6 8.996e+03 2.260e-10
 99.50322    112.5 8.982e+03 2.277e-10
 99.54260    114.5 8.994e+03 2.319e-10
 99.58198    116.5 9.027e+03 2.420e-10
 99.62137    118.5 9.068e+03 2.581e-10
 99.66075    120.6 9.145e+03 2.793e-10
 99.70013    122.6 9.184e+03 3.074e-10
 99.73952    124.7 9.483e+03 3.661e-10
 99.77012    127.0 9.930e+03 4.484e-10
 99.78972    126.4 9.691e+03 4.159e-10
 99.80824    127.1 9.721e+03 4.471e-10
 99.82793    127.6 9.869e+03 5.060e-10
 99.84762    127.5 1.074e+04 6.001e-10
 99.86731    127.0 1.230e+04 7.911e-10
 99.88701    126.2 1.394e+04 1.158e-09
 99.90670    125.4 1.506e+04 1.744e-09
 99.92555    124.7 1.565e+04 2.463e-09
 99.93539    123.4 1.606e+04 3.132e-09
 99.94608    122.8 1.604e+04 3.692e-09
 99.96577    122.4 1.573e+04 3.933e-09
 99.98546    121.9 1.546e+04 3.812e-09
100.00515    121.3 1.500e+04 3.541e-09
