# Columns:
#   distance along LOS (in CHIMPs)
#   peculiar velocity  (in km/s)
#   temperature (K)
#   HI number density
# pos=(129.467,255.572,171.609), angles=(1.86502,1.80841)
  0.01517     90.9 1.126e+04 6.087e-10
  0.04074     91.7 1.099e+04 4.826e-10
  0.05514     92.0 1.092e+04 4.461e-10
  0.06574     92.4 1.069e+04 3.550e-10
  0.09333     93.4 1.058e+04 3.109e-10
  0.13274     94.4 1.052e+04 2.742e-10
  0.15374     94.7 1.024e+04 2.331e-10
  0.17518     95.8 1.025e+04 2.354e-10
  0.19618     97.3 1.007e+04 1.905e-10
  0.21932     98.3 1.022e+04 2.245e-10
  0.26132     98.9 1.052e+04 2.886e-10
  0.30331     99.5 1.095e+04 4.061e-10
  0.32653    101.1 1.108e+04 4.681e-10
  0.34753    102.5 1.100e+04 4.599e-10
  0.38730    103.1 1.125e+04 5.363e-10
  0.42930    103.7 1.131e+04 5.375e-10
  0.45687    104.2 1.128e+04 5.048e-10
  0.47787    105.4 1.132e+04 5.498e-10
  0.49513    105.9 1.129e+04 4.989e-10
  0.51613    106.7 1.117e+04 4.644e-10
  0.55529    107.2 1.115e+04 4.332e-10
  0.58722    107.7 1.117e+04 4.345e-10
  0.60821    108.6 1.126e+04 4.864e-10
  0.63928    108.8 1.136e+04 5.197e-10
  0.66583    108.9 1.157e+04 6.074e-10
  0.68683    109.2 1.142e+04 5.308e-10
  0.71756    109.4 1.158e+04 5.911e-10
  0.73856    109.7 1.144e+04 5.457e-10
  0.76527    109.5 1.146e+04 5.701e-10
  0.80727    109.2 1.151e+04 5.852e-10
  0.83653    109.5 1.139e+04 5.737e-10
  0.85617    109.8 1.112e+04 4.783e-10
  0.86881    110.0 1.103e+04 4.964e-10
  0.88057    110.1 1.105e+04 5.090e-10
  0.90157    110.2 1.109e+04 5.275e-10
  0.92168    110.4 1.118e+04 5.675e-10
  0.93218    110.5 1.112e+04 5.489e-10
  0.93388    110.6 1.127e+04 6.155e-10
  0.94438    110.8 1.121e+04 6.040e-10
  0.96456    110.8 1.144e+04 7.137e-10
  0.98556    110.8 1.174e+04 8.750e-10
  0.99905    110.7 1.210e+04 1.088e-09
  1.00955    110.9 1.224e+04 1.188e-09
  1.01753    110.6 1.274e+04 1.550e-09
  1.02803    110.5 1.278e+04 1.586e-09
  1.04855    110.2 1.334e+04 2.134e-09
  1.06423    109.9 1.382e+04 2.674e-09
  1.07472    109.9 1.408e+04 3.033e-09
  1.09055    109.3 1.438e+04 3.217e-09
  1.10288    108.5 1.437e+04 3.147e-09
  1.11337    108.1 1.448e+04 3.213e-09
  1.12940    107.3 1.426e+04 2.828e-09
  1.13990    107.2 1.424e+04 2.847e-09
  1.15354    106.6 1.371e+04 2.082e-09
  1.17454    106.0 1.308e+04 1.396e-09
  1.18822    105.1 1.245e+04 9.359e-10
  1.19775    104.8 1.236e+04 8.534e-10
  1.20507    104.5 1.221e+04 7.808e-10
  1.21654    103.3 1.161e+04 5.236e-10
  1.23754    102.0 1.112e+04 4.027e-10
  1.25854    101.9 1.106e+04 3.963e-10
  1.27024    101.9 1.106e+04 3.964e-10
  1.28084    101.7 1.090e+04 3.718e-10
  1.31123    102.1 1.057e+04 3.266e-10
  1.34862    102.7 1.028e+04 2.729e-10
  1.36961    103.0 1.041e+04 3.049e-10
  1.39028    103.9 1.014e+04 2.525e-10
  1.41128    104.2 1.017e+04 2.609e-10
  1.43722    105.1 9.989e+03 2.117e-10
  1.47921    105.9 9.883e+03 1.635e-10
  1.51931    106.7 9.841e+03 1.253e-10
  1.53973    106.9 9.978e+03 1.719e-10
  1.54162    106.8 1.011e+04 2.247e-10
  1.56320    107.4 1.011e+04 2.061e-10
  1.60520    108.3 1.013e+04 1.945e-10
  1.64720    109.3 1.015e+04 1.898e-10
  1.67197    110.5 1.017e+04 1.899e-10
  1.69297    110.3 1.040e+04 2.773e-10
  1.71101    111.5 1.044e+04 2.798e-10
  1.73201    111.3 1.071e+04 3.915e-10
  1.77319    112.3 1.087e+04 4.329e-10
  1.80231    113.2 1.115e+04 5.245e-10
  1.82331    113.0 1.124e+04 5.866e-10
  1.85718    113.7 1.162e+04 7.337e-10
  1.88170    113.8 1.191e+04 8.923e-10
  1.90270    113.2 1.200e+04 9.622e-10
  1.93266    112.9 1.215e+04 1.103e-09
  1.95366    112.4 1.211e+04 1.093e-09
  1.98317    112.0 1.226e+04 1.251e-09
  2.02517    111.2 1.225e+04 1.250e-09
  2.05240    110.4 1.210e+04 1.149e-09
  2.06924    109.7 1.213e+04 1.152e-09
  2.08400    109.8 1.222e+04 1.220e-09
  2.10916    109.0 1.178e+04 8.864e-10
  2.15115    108.2 1.121e+04 5.403e-10
  2.19315    107.1 1.060e+04 3.380e-10
  2.21435    106.4 1.023e+04 2.988e-10
  2.22329    106.4 1.036e+04 3.443e-10
  2.24409    105.7 1.002e+04 2.679e-10
  2.27714    105.5 9.980e+03 2.751e-10
  2.31914    105.3 9.990e+03 3.095e-10
  2.34469    105.1 1.001e+04 3.365e-10
  2.36569    105.2 1.001e+04 3.488e-10
  2.39379    105.1 9.958e+03 3.379e-10
  2.41479    104.5 9.995e+03 3.517e-10
  2.44513    104.7 9.780e+03 3.163e-10
  2.47503    105.2 9.497e+03 2.459e-10
  2.49603    105.7 9.376e+03 2.254e-10
  2.52912    106.3 9.136e+03 1.569e-10
  2.56449    106.6 8.937e+03 1.097e-10
  2.58549    106.2 8.938e+03 1.187e-10
  2.60538    106.6 8.823e+03 1.068e-10
  2.62638    107.4 8.805e+03 1.067e-10
  2.65511    108.2 8.812e+03 1.099e-10
  2.69711    108.8 8.884e+03 1.279e-10
  2.73519    109.5 9.086e+03 1.686e-10
  2.75280    108.9 9.409e+03 2.296e-10
  2.75672    110.0 9.455e+03 2.601e-10
  2.78110    110.7 9.807e+03 3.707e-10
  2.82310    110.8 1.013e+04 4.700e-10
  2.86509    110.6 1.028e+04 4.797e-10
  2.88707    110.0 1.029e+04 4.548e-10
  2.90686    111.4 1.068e+04 6.187e-10
  2.92688    110.2 1.097e+04 7.180e-10
  2.94909    108.9 1.083e+04 5.986e-10
  2.99108    107.0 1.063e+04 5.310e-10
  3.01741    105.0 1.063e+04 5.475e-10
  3.03841    106.4 1.104e+04 7.159e-10
  3.07508    104.3 1.107e+04 7.729e-10
  3.09758    102.5 1.108e+04 8.172e-10
  3.11857    100.7 1.109e+04 8.107e-10
  3.14775     99.3 1.084e+04 6.982e-10
  3.16875    100.5 1.084e+04 6.844e-10
  3.20107     99.1 1.029e+04 4.467e-10
  3.24306     97.7 9.723e+03 2.900e-10
  3.26827     96.3 9.351e+03 2.343e-10
  3.28231     94.5 9.197e+03 2.169e-10
  3.29910     95.3 9.053e+03 1.905e-10
  3.32705     94.8 9.041e+03 1.952e-10
  3.36905     94.3 9.070e+03 2.057e-10
  3.40844     93.7 9.115e+03 2.172e-10
  3.42944     94.7 9.015e+03 1.919e-10
  3.43897     93.8 9.052e+03 1.986e-10
  3.45997     92.2 8.965e+03 1.787e-10
  3.49504     91.1 8.935e+03 1.758e-10
  3.53704     90.0 8.850e+03 1.683e-10
  3.55979     88.8 8.722e+03 1.539e-10
  3.58078     89.4 8.708e+03 1.526e-10
  3.60967     87.8 8.717e+03 1.532e-10
  3.63066     86.6 8.725e+03 1.613e-10
  3.66303     84.7 8.873e+03 1.924e-10
  3.69013     82.6 9.226e+03 2.753e-10
  3.71113     82.6 9.510e+03 3.644e-10
  3.73642     81.4 9.731e+03 4.337e-10
  3.75511     80.5 9.948e+03 5.026e-10
  3.76561     80.5 1.006e+04 5.557e-10
  3.77832     79.3 1.040e+04 6.724e-10
  3.79067     78.1 1.064e+04 7.518e-10
  3.80116     77.9 1.064e+04 7.429e-10
  3.82028     76.5 1.070e+04 7.496e-10
  3.84128     74.9 1.059e+04 6.634e-10
  3.86231     72.9 1.057e+04 6.081e-10
  3.87601     70.5 1.062e+04 5.800e-10
  3.88651     70.6 1.056e+04 5.809e-10
  3.89595     68.3 1.063e+04 5.926e-10
  3.90645     67.4 1.063e+04 5.823e-10
  3.92531     65.3 1.070e+04 6.407e-10
  3.94631     63.4 1.075e+04 6.717e-10
  3.96112     61.7 1.075e+04 6.651e-10
  3.96568     61.0 1.080e+04 6.874e-10
  3.97186     61.3 1.096e+04 7.712e-10
  3.98830     59.9 1.095e+04 7.482e-10
  4.00930     58.4 1.086e+04 6.855e-10
  4.02630     56.9 1.069e+04 5.967e-10
  4.03679     56.2 1.068e+04 6.021e-10
  4.04671     54.7 1.038e+04 5.083e-10
  4.05721     55.6 1.050e+04 5.540e-10
  4.08107     54.0 1.012e+04 4.077e-10
  4.10216     52.5 1.002e+04 4.091e-10
  4.12175     51.1 9.470e+03 2.767e-10
  4.14275     51.9 9.351e+03 2.566e-10
  4.16698     51.0 8.947e+03 1.813e-10
  4.20898     50.6 8.774e+03 1.344e-10
  4.23251     50.4 8.668e+03 1.155e-10
  4.25351     49.2 8.695e+03 1.214e-10
  4.29245     49.6 8.670e+03 1.201e-10
  4.31345     50.4 8.724e+03 1.346e-10
  4.33497     51.0 8.748e+03 1.350e-10
  4.36285     51.9 8.814e+03 1.368e-10
  4.38385     50.7 8.840e+03 1.406e-10
  4.41896     51.7 8.860e+03 1.398e-10
  4.46096     52.7 8.883e+03 1.408e-10
  4.48415     53.6 8.930e+03 1.474e-10
  4.49538     54.1 9.079e+03 1.863e-10
  4.51419     53.2 9.004e+03 1.866e-10
  4.54495     54.3 8.992e+03 1.784e-10
  4.58695     55.1 9.045e+03 1.790e-10
  4.62354     55.8 9.125e+03 1.901e-10
  4.64454     55.0 9.121e+03 1.888e-10
  4.65484     55.6 9.216e+03 2.082e-10
  4.67584     55.9 9.070e+03 1.751e-10
  4.71294     56.6 9.176e+03 1.970e-10
  4.75388     57.1 9.316e+03 2.240e-10
  4.77488     56.2 9.417e+03 2.566e-10
  4.79693     56.8 9.538e+03 2.849e-10
  4.82554     57.4 9.624e+03 3.050e-10
  4.84654     58.4 9.502e+03 2.802e-10
  4.88092     59.3 9.639e+03 3.128e-10
  4.90523     60.1 9.753e+03 3.353e-10
  4.92623     59.2 9.770e+03 3.372e-10
  4.96492     60.0 9.822e+03 3.413e-10
  4.99623     60.7 9.916e+03 3.580e-10
  5.01723     61.9 9.892e+03 3.500e-10
  5.03557     62.5 1.006e+04 3.992e-10
  5.05657     61.6 9.986e+03 3.834e-10
  5.09091     62.5 1.012e+04 4.319e-10
  5.13290     63.4 1.008e+04 4.169e-10
  5.16592     64.3 9.948e+03 3.608e-10
  5.17895     63.8 9.707e+03 2.806e-10
  5.18793     64.7 9.912e+03 3.534e-10
  5.21689     65.6 9.689e+03 2.610e-10
  5.25889     66.3 9.467e+03 1.784e-10
  5.29626     67.0 9.333e+03 1.217e-10
  5.31726     66.4 9.335e+03 1.140e-10
  5.33763     66.8 9.344e+03 9.848e-11
  5.35863     67.8 9.342e+03 1.041e-10
  5.38488     68.3 9.406e+03 1.031e-10
  5.42661     68.7 9.556e+03 1.199e-10
  5.44760     67.9 9.861e+03 1.911e-10
  5.46887     68.8 1.005e+04 2.564e-10
  5.50832     69.8 1.014e+04 3.032e-10
  5.52932     70.7 1.010e+04 2.817e-10
  5.55287     71.5 1.012e+04 2.979e-10
  5.57795     72.2 1.009e+04 2.928e-10
  5.59895     71.4 1.028e+04 3.355e-10
  5.63686     71.9 1.022e+04 3.190e-10
  5.67886     72.4 1.014e+04 3.039e-10
  5.70829     74.0 1.034e+04 3.548e-10
  5.72929     73.1 1.049e+04 3.898e-10
  5.76285     73.4 1.042e+04 3.615e-10
  5.78527     73.2 1.034e+04 3.150e-10
  5.79567     73.6 1.038e+04 3.510e-10
  5.81515     73.3 1.037e+04 3.400e-10
  5.83615     72.2 1.064e+04 3.520e-10
  5.84894     70.8 1.111e+04 4.076e-10
  5.85944     68.0 1.176e+04 6.434e-10
  5.87052     67.0 1.186e+04 8.277e-10
  5.88102     67.0 1.216e+04 1.071e-09
  5.89914     66.7 1.203e+04 1.221e-09
  5.91411     66.5 1.187e+04 1.241e-09
  5.92461     65.6 1.198e+04 1.319e-09
  5.94114     65.4 1.188e+04 1.262e-09
  5.96888     66.2 1.174e+04 1.213e-09
  5.98998     63.7 1.125e+04 8.775e-10
  6.01483     63.4 1.075e+04 6.220e-10
  6.04131     63.7 1.057e+04 5.376e-10
  6.05004     63.4 1.037e+04 4.582e-10
  6.05496     62.5 1.006e+04 3.349e-10
  6.06713     61.8 9.730e+03 2.683e-10
  6.09872     62.0 9.703e+03 2.687e-10
  6.12032     61.6 9.516e+03 2.731e-10
  6.14132     59.1 9.672e+03 2.702e-10
  6.17222     58.7 9.938e+03 3.519e-10
  6.18530     58.2 1.032e+04 5.155e-10
  6.19580     57.0 1.055e+04 6.401e-10
  6.21191     57.1 1.083e+04 8.635e-10
  6.22241     56.8 1.080e+04 8.444e-10
  6.23511     57.2 1.105e+04 1.006e-09
  6.25047     57.7 1.131e+04 1.115e-09
  6.26097     56.6 1.108e+04 9.445e-10
  6.27711     56.4 1.104e+04 8.251e-10
  6.29726     55.9 1.082e+04 6.839e-10
  6.30776     55.2 1.074e+04 6.641e-10
  6.31565     54.4 1.050e+04 5.663e-10
  6.32614     52.7 1.011e+04 4.594e-10
  6.34010     51.9 1.005e+04 4.420e-10
  6.36110     50.9 1.019e+04 4.669e-10
  6.38082     49.7 1.042e+04 5.202e-10
  6.39132     47.5 1.067e+04 5.826e-10
  6.39311     46.1 1.107e+04 7.800e-10
  6.40361     45.0 1.133e+04 9.702e-10
  6.42410     44.3 1.161e+04 1.214e-09
  6.44510     43.7 1.179e+04 1.358e-09
  6.45649     43.0 1.188e+04 1.367e-09
  6.46699     41.4 1.196e+04 1.331e-09
  6.47846     40.2 1.199e+04 1.165e-09
  6.48896     38.9 1.197e+04 1.047e-09
  6.50809     37.0 1.183e+04 8.594e-10
  6.52166     35.0 1.162e+04 7.488e-10
  6.53216     32.4 1.140e+04 6.997e-10
  6.55009     31.0 1.126e+04 6.964e-10
  6.56380     30.2 1.114e+04 7.028e-10
  6.57430     29.2 1.110e+04 7.351e-10
  6.58683     28.9 1.106e+04 7.467e-10
  6.59733     27.3 1.101e+04 7.177e-10
  6.61308     26.7 1.106e+04 7.192e-10
  6.63408     25.8 1.120e+04 7.367e-10
  6.64915     24.6 1.139e+04 7.993e-10
  6.65658     23.5 1.152e+04 8.747e-10
  6.66251     21.8 1.139e+04 8.669e-10
  6.67608     21.0 1.148e+04 1.013e-09
  6.69707     20.8 1.153e+04 1.184e-09
  6.71718     20.9 1.153e+04 1.320e-09
  6.72768     20.4 1.128e+04 1.132e-09
  6.73450     20.7 1.131e+04 1.106e-09
  6.74500     20.3 1.129e+04 1.059e-09
  6.76007     20.4 1.131e+04 9.788e-10
  6.78107     20.1 1.128e+04 8.838e-10
  6.79285     19.8 1.123e+04 8.025e-10
  6.80335     19.1 1.095e+04 6.589e-10
  6.81985     18.9 1.092e+04 6.256e-10
  6.83035     18.2 1.072e+04 5.280e-10
  6.84406     18.0 1.074e+04 5.228e-10
  6.85802     17.8 1.076e+04 5.386e-10
  6.86852     17.6 1.059e+04 5.013e-10
  6.88606     17.5 1.074e+04 5.649e-10
  6.90520     17.4 1.095e+04 6.407e-10
  6.91570     16.3 1.101e+04 6.839e-10
  6.92319     15.9 1.134e+04 8.196e-10
  6.93369     15.9 1.133e+04 8.154e-10
  6.94905     15.5 1.169e+04 9.669e-10
  6.97005     14.9 1.200e+04 1.123e-09
  6.98837     14.3 1.223e+04 1.247e-09
  6.99836     14.4 1.218e+04 1.200e-09
  7.00104     13.0 1.234e+04 1.337e-09
  7.01205     12.3 1.236e+04 1.274e-09
  7.03305     11.4 1.233e+04 1.151e-09
  7.05354     10.1 1.229e+04 8.967e-10
  7.06404      9.8 1.224e+04 8.747e-10
  7.07504      8.8 1.200e+04 7.039e-10
  7.08649      7.3 1.239e+04 6.915e-10
  7.10759      5.2 1.127e+04 3.133e-10
  7.14873      2.3 1.107e+04 2.937e-10
  7.18408      0.1 1.113e+04 3.346e-10
  7.20508     -1.2 1.138e+04 4.436e-10
  7.22213     -1.6 1.147e+04 5.209e-10
  7.24303     -1.8 1.161e+04 6.466e-10
  7.25709     -1.8 1.183e+04 8.088e-10
  7.26312     -1.5 1.181e+04 8.169e-10
  7.27005     -2.0 1.194e+04 9.046e-10
  7.28502     -1.8 1.216e+04 1.063e-09
  7.30602     -1.6 1.239e+04 1.224e-09
  7.32473     -1.7 1.279e+04 1.480e-09
  7.33523     -3.0 1.304e+04 1.515e-09
  7.34244     -3.7 1.386e+04 2.098e-09
  7.35294     -2.8 1.353e+04 1.846e-09
  7.36902     -4.3 1.441e+04 2.694e-09
  7.38990     -5.2 1.498e+04 4.000e-09
  7.40040     -6.4 1.508e+04 4.399e-09
  7.41101     -5.9 1.542e+04 5.905e-09
  7.42779     -4.7 1.559e+04 6.691e-09
  7.43828     -4.9 1.564e+04 6.796e-09
  7.45301     -4.0 1.568e+04 6.792e-09
  7.46557     -3.3 1.563e+04 6.111e-09
  7.47607     -3.8 1.542e+04 5.867e-09
  7.49501     -4.0 1.511e+04 4.706e-09
  7.51313     -4.6 1.462e+04 3.742e-09
  7.52363     -4.5 1.442e+04 3.513e-09
  7.53074     -4.8 1.386e+04 2.890e-09
  7.54124     -4.9 1.333e+04 2.321e-09
  7.55800     -4.7 1.289e+04 1.964e-09
  7.57900     -4.1 1.248e+04 1.673e-09
  7.59591     -3.3 1.217e+04 1.440e-09
  7.60490     -3.4 1.185e+04 1.172e-09
  7.60898     -4.0 1.157e+04 9.550e-10
  7.62100     -3.2 1.138e+04 8.755e-10
  7.64199     -2.4 1.120e+04 8.057e-10
  7.66109     -1.6 1.110e+04 7.565e-10
  7.67159     -1.5 1.101e+04 7.167e-10
  7.68383     -0.8 1.109e+04 7.410e-10
  7.69433     -1.2 1.106e+04 7.384e-10
  7.70499     -0.7 1.133e+04 8.432e-10
  7.72599     -0.4 1.174e+04 1.033e-09
  7.73676     -0.3 1.227e+04 1.339e-09
  7.74726     -0.6 1.270e+04 1.600e-09
  7.76798     -0.2 1.335e+04 2.204e-09
  7.77968      0.5 1.394e+04 2.854e-09
  7.79018     -0.9 1.471e+04 3.750e-09
  7.80193     -0.4 1.521e+04 4.486e-09
  7.81243     -0.5 1.540e+04 5.057e-09
  7.83098      0.1 1.566e+04 5.423e-09
  7.85198      0.7 1.584e+04 5.646e-09
  7.86503      1.4 1.595e+04 5.827e-09
  7.86965      0.2 1.658e+04 7.366e-09
  7.87760      0.4 1.624e+04 6.361e-09
  7.89397     -0.1 1.736e+04 7.221e-09
  7.91497     -4.2 2.145e+04 1.128e-08
  7.93067    -11.9 2.583e+04 2.189e-08
  7.93743    -16.3 2.683e+04 4.254e-08
  7.94268    -17.7 2.561e+04 5.078e-08
  7.95028    -18.1 2.421e+04 1.155e-07
  7.95553    -19.1 2.452e+04 7.325e-08
  7.96212    -20.2 2.565e+04 8.642e-08
  7.97001    -22.1 2.746e+04 4.228e-08
  7.97526    -22.9 2.815e+04 3.753e-08
  7.98312    -27.8 2.849e+04 2.303e-08
  7.99295    -31.3 3.111e+04 1.263e-08
  7.99820    -34.5 2.205e+04 1.008e-08
  8.00260    -36.3 2.168e+04 8.264e-09
  8.00785    -36.1 2.157e+04 8.172e-09
  8.01991    -40.0 1.960e+04 4.490e-09
  8.03572    -46.6 1.296e+04 2.008e-09
  8.04622    -46.9 1.212e+04 1.625e-09
  8.06196    -46.9 1.197e+04 1.344e-09
  8.07312    -46.9 1.183e+04 1.129e-09
  8.08362    -46.8 1.168e+04 1.055e-09
  8.10395    -47.9 1.167e+04 9.285e-10
  8.12107    -49.6 1.153e+04 8.748e-10
  8.13157    -50.7 1.121e+04 8.875e-10
  8.13829    -52.0 1.124e+04 9.896e-10
  8.14879    -52.1 1.117e+04 9.368e-10
  8.16695    -53.3 1.156e+04 1.160e-09
  8.18795    -54.6 1.228e+04 1.495e-09
  8.20346    -56.6 1.291e+04 1.860e-09
  8.21144    -56.9 1.306e+04 1.936e-09
  8.21692    -57.1 1.314e+04 1.980e-09
  8.22994    -59.1 1.340e+04 2.328e-09
  8.25094    -60.7 1.366e+04 2.620e-09
  8.26864    -62.5 1.419e+04 2.898e-09
  8.27913    -62.3 1.471e+04 3.338e-09
  8.29177    -65.2 1.552e+04 3.561e-09
  8.30227    -64.1 1.436e+04 2.675e-09
  8.31394    -67.8 1.571e+04 3.262e-09
  8.33381    -71.5 1.666e+04 5.312e-09
  8.34431    -71.9 1.679e+04 4.796e-09
  8.35593    -73.8 1.734e+04 8.657e-09
  8.37693    -73.9 1.842e+04 1.500e-08
  8.38761    -73.4 1.967e+04 2.228e-08
  8.39811    -72.9 1.945e+04 2.109e-08
  8.40948    -72.8 2.008e+04 2.436e-08
  8.41998    -73.0 1.934e+04 2.222e-08
  8.43993    -72.7 1.934e+04 2.085e-08
  8.46092    -72.1 1.873e+04 1.307e-08
  8.47296    -72.9 1.793e+04 7.851e-09
  8.47619    -71.5 1.745e+04 7.227e-09
  8.48515    -71.0 1.730e+04 7.433e-09
  8.50292    -74.2 1.652e+04 5.107e-09
  8.52392    -77.3 1.630e+04 4.566e-09
  8.53982    -79.9 1.676e+04 4.835e-09
  8.55032    -80.0 1.699e+04 5.980e-09
  8.55831    -81.8 1.740e+04 7.652e-09
  8.56881    -82.2 1.762e+04 8.154e-09
  8.58691    -83.1 1.764e+04 8.904e-09
  8.60500    -83.7 1.725e+04 8.361e-09
  8.61549    -82.3 1.709e+04 7.651e-09
  8.62891    -83.3 1.591e+04 4.636e-09
  8.64366    -85.2 1.438e+04 2.749e-09
  8.65416    -85.8 1.429e+04 2.672e-09
  8.67017    -87.8 1.352e+04 1.997e-09
  8.68067    -88.8 1.244e+04 1.332e-09
  8.69190    -90.0 1.227e+04 1.254e-09
  8.71290    -90.9 1.238e+04 1.283e-09
  8.72901    -91.7 1.258e+04 1.527e-09
  8.73951    -91.7 1.281e+04 1.713e-09
  8.74584    -91.9 1.298e+04 2.077e-09
  8.75634    -91.0 1.262e+04 1.656e-09
  8.77590    -91.2 1.282e+04 2.023e-09
  8.79690    -91.2 1.300e+04 2.338e-09
  8.81101    -91.1 1.308e+04 2.441e-09
  8.81797    -90.5 1.281e+04 2.165e-09
  8.82485    -90.4 1.290e+04 2.219e-09
  8.83889    -90.2 1.294e+04 2.271e-09
  8.85989    -89.9 1.286e+04 1.983e-09
  8.87618    -89.7 1.255e+04 1.442e-09
  8.88668    -89.1 1.255e+04 1.579e-09
  8.89970    -89.3 1.226e+04 1.079e-09
  8.91020    -88.9 1.247e+04 1.268e-09
  8.92288    -89.7 1.208e+04 8.490e-10
  8.94145    -90.8 1.141e+04 5.838e-10
  8.95195    -89.5 1.185e+04 6.965e-10
  8.96488    -89.8 1.137e+04 5.549e-10
  8.98515    -89.9 1.118e+04 4.827e-10
  9.00624    -89.0 1.165e+04 6.415e-10
  9.03857    -87.7 1.109e+04 4.511e-10
  9.07190    -85.6 1.098e+04 3.792e-10
  9.09289    -85.6 1.101e+04 4.147e-10
  9.12256    -83.4 1.091e+04 3.436e-10
  9.15594    -81.2 1.080e+04 2.993e-10
  9.17694    -80.7 1.099e+04 3.582e-10
  9.20224    -78.6 1.086e+04 3.120e-10
  9.22324    -78.3 1.081e+04 2.920e-10
  9.24855    -76.0 1.075e+04 2.741e-10
  9.29055    -73.7 1.077e+04 2.762e-10
  9.32664    -71.7 1.095e+04 3.359e-10
  9.34764    -72.0 1.128e+04 4.914e-10
  9.37454    -70.0 1.146e+04 5.817e-10
  9.41654    -68.3 1.184e+04 7.382e-10
  9.45853    -67.0 1.233e+04 8.806e-10
  9.48383    -65.8 1.275e+04 9.556e-10
  9.49423    -65.7 1.278e+04 9.540e-10
  9.50764    -65.3 1.270e+04 9.328e-10
  9.51814    -65.7 1.232e+04 7.503e-10
  9.53183    -64.7 1.226e+04 6.671e-10
  9.54890    -64.2 1.234e+04 5.530e-10
  9.55940    -64.1 1.229e+04 5.520e-10
  9.57383    -63.8 1.252e+04 4.603e-10
  9.59299    -63.7 1.263e+04 3.988e-10
  9.60349    -64.3 1.198e+04 3.557e-10
  9.61408    -64.2 1.201e+04 3.492e-10
  9.62458    -64.0 1.205e+04 3.523e-10
  9.63682    -63.8 1.216e+04 3.735e-10
  9.65782    -63.4 1.237e+04 3.978e-10
  9.67834    -63.1 1.252e+04 4.274e-10
  9.68883    -62.7 1.244e+04 4.482e-10
  9.68975    -62.3 1.260e+04 4.831e-10
  9.70025    -62.0 1.275e+04 5.400e-10
  9.72082    -61.6 1.290e+04 5.714e-10
  9.74182    -61.4 1.305e+04 6.089e-10
  9.75492    -61.3 1.315e+04 6.643e-10
  9.76542    -60.8 1.328e+04 6.926e-10
  9.77418    -60.8 1.332e+04 7.421e-10
  9.78468    -60.3 1.342e+04 7.777e-10
  9.80481    -60.2 1.338e+04 8.397e-10
  9.82009    -59.9 1.336e+04 9.072e-10
  9.83059    -59.4 1.338e+04 8.915e-10
  9.84681    -58.9 1.339e+04 9.430e-10
  9.85953    -58.3 1.356e+04 9.759e-10
  9.87003    -59.3 1.465e+04 1.320e-09
  9.88526    -59.7 1.529e+04 1.595e-09
  9.89576    -59.4 1.540e+04 1.708e-09
  9.90980    -59.9 1.605e+04 2.280e-09
  9.93080    -60.2 1.660e+04 3.120e-09
  9.94488    -59.9 1.706e+04 4.112e-09
  9.95402    -58.9 1.792e+04 9.884e-09
  9.96094    -58.3 1.807e+04 1.105e-08
  9.97280    -57.6 1.874e+04 1.254e-08
  9.99379    -59.0 1.995e+04 1.384e-08
 10.00949    -62.0 2.161e+04 1.727e-08
 10.01994    -64.1 2.258e+04 2.089e-08
 10.02601    -67.4 2.232e+04 3.887e-08
 10.03095    -67.1 2.231e+04 3.679e-08
 10.03538    -68.8 2.137e+04 4.448e-08
 10.04094    -69.5 2.028e+04 7.696e-08
 10.05144    -68.8 2.021e+04 1.129e-07
 10.05860    -67.6 2.048e+04 1.311e-07
 10.06385    -67.1 2.049e+04 1.309e-07
 10.07244    -66.7 2.057e+04 1.291e-07
 10.07805    -66.3 2.110e+04 8.490e-08
 10.08330    -65.9 2.095e+04 8.334e-08
 10.09118    -66.0 2.184e+04 4.450e-08
 10.09643    -65.9 2.169e+04 4.562e-08
 10.10394    -67.8 2.191e+04 2.583e-08
 10.11553    -70.3 2.061e+04 1.514e-08
 10.12608    -70.5 2.043e+04 1.400e-08
 10.14078    -72.3 1.920e+04 8.511e-09
 10.15645    -74.1 1.794e+04 6.506e-09
 10.16695    -73.8 1.844e+04 7.107e-09
 10.18278    -74.9 1.781e+04 6.754e-09
 10.20092    -75.2 1.749e+04 7.011e-09
 10.21142    -76.6 1.753e+04 6.112e-09
 10.22163    -76.6 1.702e+04 6.083e-09
 10.23212    -76.5 1.763e+04 7.623e-09
 10.24577    -75.7 1.683e+04 5.127e-09
 10.26677    -75.5 1.593e+04 2.461e-09
 10.28627    -78.1 1.459e+04 1.199e-09
 10.29580    -79.1 1.457e+04 1.232e-09
 10.29730    -78.9 1.482e+04 1.227e-09
 10.30877    -82.0 1.336e+04 7.113e-10
 10.32977    -82.9 1.271e+04 6.067e-10
 10.35076    -83.0 1.258e+04 5.958e-10
 10.36247    -82.2 1.254e+04 6.372e-10
 10.37283    -82.9 1.259e+04 6.418e-10
 10.38212    -83.4 1.302e+04 6.966e-10
 10.39276    -82.7 1.300e+04 7.763e-10
 10.41376    -82.1 1.303e+04 8.453e-10
 10.42764    -81.6 1.305e+04 9.070e-10
 10.43814    -82.1 1.315e+04 9.884e-10
 10.45575    -81.6 1.315e+04 1.056e-09
 10.46747    -81.1 1.314e+04 1.134e-09
 10.47797    -82.0 1.354e+04 1.356e-09
 10.49281    -81.5 1.346e+04 1.391e-09
 10.50331    -81.8 1.359e+04 1.507e-09
 10.51875    -81.3 1.347e+04 1.514e-09
 10.54241    -80.7 1.331e+04 1.489e-09
 10.56065    -82.1 1.382e+04 1.837e-09
 10.56848    -82.1 1.377e+04 1.899e-09
 10.58174    -82.0 1.371e+04 1.834e-09
 10.60274    -82.1 1.375e+04 1.826e-09
 10.62316    -82.4 1.383e+04 1.890e-09
 10.63366    -81.8 1.365e+04 1.745e-09
 10.63816    -82.2 1.375e+04 1.804e-09
 10.64866    -83.9 1.368e+04 1.914e-09
 10.66574    -84.1 1.346e+04 1.965e-09
 10.68674    -84.1 1.318e+04 1.954e-09
 10.69883    -83.7 1.286e+04 1.827e-09
 10.70933    -83.4 1.286e+04 1.834e-09
 10.72351    -82.8 1.262e+04 1.644e-09
 10.73401    -83.7 1.255e+04 1.302e-09
 10.74973    -83.6 1.241e+04 9.382e-10
 10.76400    -84.3 1.215e+04 6.398e-10
 10.77450    -83.4 1.240e+04 7.774e-10
 10.80232    -86.2 1.180e+04 5.244e-10
 10.82937    -88.3 1.172e+04 5.061e-10
 10.85037    -87.8 1.248e+04 8.748e-10
 10.88390    -90.8 1.298e+04 1.532e-09
 10.90490    -90.4 1.284e+04 1.444e-09
 10.92841    -91.5 1.311e+04 1.971e-09
 10.95971    -92.3 1.307e+04 1.978e-09
 10.98071    -92.4 1.310e+04 2.009e-09
 11.00181    -93.3 1.250e+04 1.423e-09
 11.02271    -93.4 1.231e+04 1.280e-09
 11.03519    -94.3 1.184e+04 1.010e-09
 11.04569    -94.3 1.177e+04 9.738e-10
 11.06470    -94.5 1.166e+04 9.159e-10
 11.07540    -94.6 1.163e+04 9.008e-10
 11.08590    -94.7 1.151e+04 7.696e-10
 11.10036    -94.8 1.150e+04 7.751e-10
 11.11086    -94.7 1.146e+04 7.490e-10
 11.12770    -94.9 1.154e+04 8.196e-10
 11.14870    -95.1 1.168e+04 9.409e-10
 11.16075    -95.3 1.195e+04 1.093e-09
 11.16709    -95.0 1.157e+04 7.958e-10
 11.17603    -95.1 1.163e+04 8.434e-10
 11.19069    -95.3 1.192e+04 9.463e-10
 11.21169    -95.7 1.220e+04 1.006e-09
 11.23071    -96.2 1.232e+04 1.020e-09
 11.24121    -96.2 1.246e+04 1.160e-09
 11.24610    -96.7 1.250e+04 1.119e-09
 11.26720    -97.3 1.188e+04 7.253e-10
 11.30638    -97.9 1.142e+04 5.680e-10
 11.34837    -97.8 1.107e+04 4.460e-10
 11.37174    -97.0 1.082e+04 3.793e-10
 11.39274    -96.5 1.080e+04 3.683e-10
 11.41699    -95.3 1.064e+04 3.328e-10
 11.43799    -94.6 1.067e+04 3.189e-10
 11.47436    -93.3 1.079e+04 3.665e-10
 11.50209    -91.9 1.098e+04 4.404e-10
 11.52309    -91.4 1.096e+04 4.277e-10
 11.54776    -90.3 1.120e+04 5.066e-10
 11.56707    -90.1 1.119e+04 5.175e-10
 11.57757    -90.0 1.121e+04 5.088e-10
 11.58749    -89.3 1.136e+04 5.749e-10
 11.59799    -89.3 1.167e+04 7.328e-10
 11.61066    -88.9 1.174e+04 7.739e-10
 11.63166    -88.4 1.184e+04 8.865e-10
 11.64274    -88.2 1.200e+04 1.004e-09
 11.65324    -88.0 1.192e+04 9.825e-10
 11.67284    -87.9 1.195e+04 1.015e-09
 11.68334    -88.5 1.233e+04 1.241e-09
 11.69465    -89.1 1.286e+04 1.522e-09
 11.70791    -90.0 1.365e+04 2.043e-09
 11.71841    -90.6 1.411e+04 2.205e-09
 11.73665    -92.6 1.505e+04 3.796e-09
 11.75764    -93.1 1.593e+04 6.533e-09
 11.76869    -92.8 1.680e+04 9.738e-09
 11.77363    -92.6 1.672e+04 9.838e-09
 11.78358    -92.9 1.696e+04 1.077e-08
 11.79964    -93.1 1.718e+04 1.140e-08
 11.82064    -93.1 1.672e+04 9.188e-09
 11.83825    -93.0 1.560e+04 5.272e-09
 11.84875    -93.3 1.557e+04 5.202e-09
 11.85404    -95.1 1.420e+04 2.690e-09
 11.86454    -96.4 1.333e+04 1.977e-09
 11.88363    -97.9 1.196e+04 1.251e-09
 11.90343    -98.2 1.138e+04 9.809e-10
 11.91393    -98.5 1.109e+04 8.517e-10
 11.92898    -98.5 1.066e+04 6.597e-10
 11.95008    -97.8 1.052e+04 6.455e-10
 11.97832    -95.5 9.799e+03 4.128e-10
 12.02032    -93.6 9.583e+03 3.170e-10
 12.04447    -91.7 9.559e+03 2.966e-10
 12.06546    -91.3 9.333e+03 2.393e-10
 12.09978    -89.4 9.449e+03 2.450e-10
 12.12078    -89.0 9.198e+03 2.108e-10
 12.14631    -87.6 9.494e+03 2.582e-10
 12.17481    -86.3 9.899e+03 3.792e-10
 12.19581    -85.9 9.694e+03 3.224e-10
 12.23030    -84.3 1.010e+04 4.801e-10
 12.27047    -82.7 1.037e+04 5.848e-10
 12.29147    -82.7 1.004e+04 4.874e-10
 12.30515    -81.4 1.004e+04 4.890e-10
 12.32615    -80.6 9.942e+03 4.606e-10
 12.35629    -79.1 9.695e+03 3.746e-10
 12.39829    -77.9 9.339e+03 2.668e-10
 12.43550    -77.0 9.154e+03 2.181e-10
 12.45650    -76.5 9.232e+03 2.302e-10
 12.46217    -75.6 9.151e+03 2.238e-10
 12.48317    -75.1 8.888e+03 1.686e-10
 12.52427    -73.9 8.870e+03 1.722e-10
 12.56584    -72.8 8.953e+03 1.962e-10
 12.58684    -72.1 8.864e+03 1.953e-10
 12.60827    -71.0 8.918e+03 2.239e-10
 12.63287    -69.8 9.010e+03 2.552e-10
 12.65386    -69.2 8.781e+03 1.847e-10
 12.69226    -67.9 8.880e+03 2.160e-10
 12.71719    -66.7 8.932e+03 2.270e-10
 12.73818    -66.3 8.986e+03 2.316e-10
 12.77625    -65.7 8.995e+03 2.284e-10
 12.80356    -65.3 8.787e+03 2.020e-10
 12.82456    -64.4 8.838e+03 2.013e-10
 12.84753    -64.0 8.566e+03 1.792e-10
 12.86853    -63.6 8.759e+03 2.032e-10
 12.90224    -63.4 8.432e+03 1.557e-10
 12.94424    -63.3 8.365e+03 1.449e-10
 12.97426    -63.3 8.477e+03 1.543e-10
 12.98690    -62.4 8.725e+03 2.012e-10
 12.99887    -62.6 8.738e+03 1.961e-10
 13.02823    -62.9 9.131e+03 3.102e-10
 13.07023    -62.9 9.547e+03 4.817e-10
 13.10822    -62.6 9.802e+03 6.141e-10
 13.12922    -62.6 9.890e+03 6.292e-10
 13.14362    -62.2 1.008e+04 6.937e-10
 13.15526    -62.1 9.990e+03 6.724e-10
 13.16586    -61.8 1.000e+04 6.707e-10
 13.18379    -61.7 9.735e+03 5.858e-10
 13.19419    -61.8 9.859e+03 6.145e-10
 13.20652    -61.7 9.807e+03 5.925e-10
 13.22752    -61.8 9.628e+03 5.339e-10
 13.24061    -61.5 9.588e+03 5.205e-10
 13.25111    -61.2 9.622e+03 5.229e-10
 13.25946    -61.3 9.501e+03 4.953e-10
 13.28056    -61.4 9.934e+03 6.340e-10
 13.31565    -60.4 9.757e+03 5.939e-10
 13.33665    -59.5 9.755e+03 5.826e-10
 13.36420    -58.2 9.558e+03 5.236e-10
 13.38991    -56.7 9.259e+03 4.328e-10
 13.41090    -57.0 9.253e+03 4.277e-10
 13.44820    -55.5 8.867e+03 3.174e-10
 13.48635    -54.2 8.586e+03 2.472e-10
 13.50735    -53.5 8.702e+03 2.529e-10
 13.52025    -52.5 8.580e+03 2.300e-10
 13.54125    -53.0 8.491e+03 2.037e-10
 13.57419    -51.8 8.531e+03 2.084e-10
 13.61618    -50.7 8.651e+03 2.431e-10
 13.65060    -48.9 8.810e+03 2.810e-10
 13.67046    -49.2 8.647e+03 2.390e-10
 13.67804    -48.4 8.639e+03 2.098e-10
 13.70017    -46.8 8.581e+03 1.778e-10
 13.74217    -45.7 8.550e+03 1.395e-10
 13.78094    -45.0 8.543e+03 1.295e-10
 13.80194    -45.0 8.377e+03 1.063e-10
 13.82616    -44.3 8.496e+03 1.190e-10
 13.84874    -44.0 9.038e+03 2.224e-10
 13.86974    -43.1 9.042e+03 2.127e-10
 13.91016    -42.0 9.524e+03 3.345e-10
 13.93219    -40.3 9.607e+03 4.052e-10
 13.95318    -40.0 9.499e+03 3.485e-10
 13.99415    -38.4 9.763e+03 4.167e-10
 14.01943    -37.1 9.850e+03 3.729e-10
 14.04043    -35.8 9.614e+03 2.854e-10
 14.06263    -34.9 9.558e+03 2.242e-10
 14.08363    -33.4 9.510e+03 2.045e-10
 14.12014    -32.7 9.466e+03 2.009e-10
 14.16214    -31.6 9.398e+03 2.331e-10
 14.19013    -29.8 9.470e+03 2.661e-10
 14.19997    -28.8 9.387e+03 2.429e-10
 14.21397    -27.5 9.447e+03 2.540e-10
 14.24613    -25.7 9.714e+03 3.173e-10
 14.28813    -24.3 1.012e+04 3.958e-10
 14.32332    -23.5 1.065e+04 5.512e-10
 14.34431    -22.3 1.081e+04 6.286e-10
 14.36083    -21.6 1.152e+04 9.977e-10
 14.38183    -20.1 1.123e+04 7.510e-10
 14.41411    -20.0 1.162e+04 8.953e-10
 14.45366    -19.6 1.180e+04 9.972e-10
 14.47466    -18.3 1.196e+04 1.115e-09
 14.49811    -17.5 1.186e+04 1.019e-09
 14.53152    -17.6 1.197e+04 9.107e-10
 14.55252    -15.9 1.195e+04 9.399e-10
 14.58210    -16.5 1.238e+04 9.971e-10
 14.60500    -16.6 1.241e+04 1.209e-09
 14.62600    -15.2 1.230e+04 1.135e-09
 14.66609    -14.5 1.210e+04 1.071e-09
 14.70222    -14.2 1.201e+04 7.436e-10
 14.72322    -12.0 1.202e+04 8.766e-10
 14.73535    -13.3 1.278e+04 8.710e-10
 14.74575    -13.5 1.279e+04 8.154e-10
 14.76039    -15.3 1.340e+04 9.791e-10
 14.78139    -16.5 1.394e+04 1.174e-09
 14.79787    -19.5 1.421e+04 1.955e-09
 14.80631    -17.7 1.446e+04 1.950e-09
 14.81082    -17.7 1.475e+04 1.960e-09
 14.82338    -20.5 1.523e+04 3.706e-09
 14.84438    -22.4 1.671e+04 5.862e-09
 14.86538    -24.8 1.739e+04 6.696e-09
 14.87600    -26.5 1.571e+04 6.390e-09
 14.88334    -26.3 1.494e+04 4.938e-09
 14.89372    -25.2 1.623e+04 7.346e-09
 14.90738    -25.3 1.518e+04 5.885e-09
 14.92838    -24.7 1.443e+04 3.851e-09
 14.94117    -25.2 1.360e+04 2.103e-09
 14.95167    -26.3 1.279e+04 1.468e-09
 14.96857    -27.9 1.174e+04 9.273e-10
 14.97907    -26.9 1.239e+04 1.263e-09
 14.99594    -27.8 1.142e+04 8.114e-10
 15.01704    -27.7 1.097e+04 5.964e-10
 15.04361    -27.2 1.037e+04 4.504e-10
 15.06461    -26.2 1.141e+04 7.512e-10
 15.08606    -25.6 1.091e+04 6.056e-10
 15.12638    -24.7 1.071e+04 5.802e-10
 15.14738    -24.7 1.079e+04 6.550e-10
 15.17005    -23.6 1.070e+04 6.614e-10
 15.21205    -22.1 1.066e+04 6.366e-10
 15.23531    -21.0 1.054e+04 5.798e-10
 15.25631    -20.5 1.057e+04 5.906e-10
 15.27772    -19.5 1.029e+04 5.318e-10
 15.29872    -20.1 1.036e+04 5.742e-10
 15.33804    -18.9 1.018e+04 4.976e-10
 15.38003    -18.1 1.003e+04 4.370e-10
 15.40600    -17.2 1.009e+04 4.391e-10
 15.41304    -16.3 1.012e+04 4.495e-10
 15.42907    -17.0 1.020e+04 5.113e-10
 15.46403    -17.2 1.059e+04 5.924e-10
 15.50602    -17.1 1.101e+04 8.243e-10
 15.53841    -16.5 1.126e+04 1.006e-09
 15.55941    -17.3 1.125e+04 1.018e-09
 15.57670    -17.2 1.112e+04 8.893e-10
 15.59770    -16.3 1.145e+04 1.047e-09
 15.61399    -17.4 1.129e+04 9.298e-10
 15.62439    -17.4 1.113e+04 8.800e-10
 15.64231    -17.8 1.092e+04 8.026e-10
 15.66185    -18.4 1.034e+04 6.188e-10
 15.67235    -17.8 1.078e+04 8.219e-10
 15.67906    -17.9 1.049e+04 7.274e-10
 15.68956    -18.2 1.007e+04 5.491e-10
 15.70531    -18.6 9.816e+03 4.409e-10
 15.72631    -18.8 9.579e+03 3.968e-10
 15.74730    -19.2 9.341e+03 3.015e-10
 15.76830    -19.0 9.345e+03 3.208e-10
 15.78930    -19.9 9.334e+03 2.526e-10
 15.80941    -20.1 9.353e+03 2.510e-10
 15.82000    -19.9 9.406e+03 2.621e-10
 15.84199    -22.7 9.588e+03 2.546e-10
 15.88399    -25.9 9.794e+03 3.657e-10
 15.91539    -27.5 9.834e+03 5.382e-10
 15.92840    -27.6 9.839e+03 5.495e-10
 15.93890    -28.2 1.008e+04 6.751e-10
 15.95025    -28.5 9.992e+03 5.245e-10
 15.96075    -28.0 1.008e+04 5.564e-10
 15.97829    -29.2 1.001e+04 4.425e-10
 15.99928    -32.2 9.540e+03 2.985e-10
 16.01375    -32.5 9.612e+03 2.972e-10
 16.01938    -34.0 9.618e+03 3.004e-10
 16.02592    -33.6 9.636e+03 2.976e-10
 16.04128    -36.5 9.039e+03 2.378e-10
 16.06228    -37.1 9.167e+03 2.585e-10
 16.08059    -39.2 9.269e+03 3.105e-10
 16.09109    -39.1 9.382e+03 3.177e-10
 16.09909    -42.0 1.061e+04 4.967e-10
 16.10959    -46.4 1.196e+04 9.232e-10
 16.12527    -50.9 1.339e+04 1.669e-09
 16.14577    -55.4 1.463e+04 2.746e-09
 16.15627    -55.1 1.477e+04 2.853e-09
 16.16727    -59.3 1.555e+04 3.610e-09
 16.18444    -63.2 1.556e+04 3.815e-09
 16.19494    -68.4 1.494e+04 2.777e-09
 16.20927    -72.2 1.358e+04 1.661e-09
 16.22144    -77.0 1.156e+04 8.301e-10
 16.23194    -77.5 1.146e+04 8.408e-10
 16.25126    -82.9 1.002e+04 5.412e-10
 16.26979    -86.8 9.838e+03 5.133e-10
 16.28029    -88.9 9.899e+03 5.555e-10
 16.28661    -91.4 1.059e+04 8.418e-10
 16.29711    -92.1 1.109e+04 1.004e-09
 16.31426    -93.8 1.229e+04 1.731e-09
 16.33526    -94.9 1.321e+04 2.512e-09
 16.35178    -96.2 1.370e+04 2.941e-09
 16.36116    -97.2 1.454e+04 3.989e-09
 16.36564    -98.0 1.529e+04 5.285e-09
 16.37725    -99.0 1.523e+04 5.211e-09
 16.39825    -99.8 1.445e+04 3.822e-09
 16.41695   -101.1 1.326e+04 2.444e-09
 16.42745   -101.7 1.355e+04 2.672e-09
 16.44025   -103.3 1.230e+04 1.731e-09
 16.45099   -104.3 1.143e+04 1.264e-09
 16.46148   -105.0 1.120e+04 1.124e-09
 16.48213   -105.2 1.079e+04 9.416e-10
 16.49263   -106.0 1.067e+04 8.908e-10
 16.50324   -105.3 1.036e+04 7.735e-10
 16.52424   -104.4 1.018e+04 6.899e-10
 16.55584   -103.5 9.976e+03 5.788e-10
 16.59793   -101.5 9.820e+03 5.320e-10
 16.62188    -99.0 9.762e+03 5.210e-10
 16.62611    -98.6 9.362e+03 3.838e-10
 16.64416    -98.5 9.137e+03 3.093e-10
 16.68192    -96.0 9.201e+03 3.117e-10
 16.72392    -94.7 9.722e+03 3.963e-10
 16.75351    -94.5 1.121e+04 8.392e-10
 16.77451    -94.0 1.133e+04 8.224e-10
 16.79248    -93.6 1.235e+04 1.485e-09
 16.81347    -91.5 1.247e+04 1.291e-09
 16.82908    -92.4 1.392e+04 3.062e-09
 16.83948    -91.7 1.375e+04 2.910e-09
 16.86021    -91.6 1.480e+04 4.566e-09
 16.87773    -91.5 1.573e+04 6.369e-09
 16.88823    -91.1 1.585e+04 5.954e-09
 16.89416    -91.5 1.673e+04 8.291e-09
 16.90466    -90.7 1.686e+04 8.382e-09
 16.92321    -91.4 1.721e+04 9.674e-09
 16.94420    -92.5 1.728e+04 9.286e-09
 16.95933    -94.0 1.677e+04 6.717e-09
 16.96770    -93.3 1.764e+04 7.609e-09
 16.97357    -94.0 1.942e+04 1.441e-08
 16.98620    -95.3 1.853e+04 8.713e-09
 17.00720    -97.5 1.686e+04 4.267e-09
 17.02450   -100.6 1.373e+04 1.633e-09
 17.03500   -100.9 1.426e+04 1.759e-09
 17.04842   -102.9 1.146e+04 8.463e-10
 17.05892   -102.8 1.378e+04 1.507e-09
 17.07019   -103.6 1.131e+04 7.256e-10
 17.08967   -103.8 1.036e+04 5.180e-10
 17.10017   -103.7 1.055e+04 5.532e-10
 17.11219   -103.8 1.015e+04 4.451e-10
 17.13319   -103.7 9.996e+03 3.980e-10
 17.14427   -103.5 9.891e+03 3.740e-10
 17.15477   -103.9 1.007e+04 3.895e-10
 17.16535   -103.6 9.954e+03 3.785e-10
 17.17585   -104.2 1.056e+04 4.929e-10
 17.19618   -103.8 1.043e+04 4.724e-10
 17.21718   -103.3 1.030e+04 4.558e-10
 17.22962   -102.7 1.020e+04 4.428e-10
 17.23246   -102.9 1.053e+04 4.840e-10
 17.24102   -103.4 1.135e+04 6.659e-10
 17.25918   -102.7 1.087e+04 5.528e-10
 17.28018   -101.9 1.046e+04 4.700e-10
 17.29579   -101.1 1.009e+04 3.976e-10
 17.30629   -101.7 1.065e+04 4.897e-10
 17.31497   -101.0 1.028e+04 4.163e-10
 17.32547   -101.3 1.103e+04 5.419e-10
 17.34317   -100.7 1.059e+04 4.605e-10
 17.36086   -100.1 1.036e+04 4.236e-10
 17.37136   -100.6 1.087e+04 5.472e-10
 17.38517    -99.8 1.077e+04 5.318e-10
 17.40031    -99.1 1.082e+04 5.543e-10
 17.41081    -99.0 1.122e+04 6.940e-10
 17.42613    -98.1 1.081e+04 5.549e-10
 17.44723    -98.4 1.167e+04 8.966e-10
 17.47536    -96.7 1.106e+04 7.401e-10
 17.49636    -96.9 1.202e+04 1.152e-09
 17.52185    -95.4 1.139e+04 9.021e-10
 17.55657    -93.9 1.083e+04 6.863e-10
 17.57757    -94.1 1.119e+04 8.210e-10
 17.60584    -92.8 1.072e+04 6.211e-10
 17.64606    -91.5 1.052e+04 5.226e-10
 17.66705    -91.6 1.061e+04 5.551e-10
 17.68692    -90.4 1.052e+04 5.181e-10
 17.70792    -90.7 1.055e+04 5.225e-10
 17.73183    -90.2 1.058e+04 5.264e-10
 17.77383    -90.4 1.110e+04 7.322e-10
 17.81583    -90.5 1.189e+04 1.221e-09
 17.83775    -90.8 1.257e+04 1.727e-09
 17.83909    -90.0 1.254e+04 1.623e-09
 17.85916    -90.6 1.250e+04 1.501e-09
 17.88922    -91.4 1.280e+04 1.766e-09
 17.90324    -92.7 1.280e+04 1.761e-09
 17.91374    -93.3 1.274e+04 1.618e-09
 17.92290    -94.7 1.265e+04 1.502e-09
 17.93340    -94.9 1.284e+04 1.565e-09
 17.95212    -96.4 1.244e+04 1.312e-09
 17.96841    -97.5 1.195e+04 1.044e-09
 17.97891    -98.1 1.198e+04 1.071e-09
 17.99412    -98.8 1.146e+04 7.671e-10
 18.00825    -99.6 1.106e+04 5.280e-10
 18.01875    -99.6 1.117e+04 5.656e-10
 18.03358   -100.5 1.085e+04 4.034e-10
 18.04408   -101.1 1.082e+04 3.859e-10
 18.05711   -101.6 1.068e+04 3.220e-10
 18.07811   -101.8 1.066e+04 3.099e-10
 18.09885   -102.1 1.063e+04 2.949e-10
 18.11995   -103.0 1.067e+04 2.994e-10
 18.15180   -103.4 1.062e+04 2.907e-10
 18.17914   -104.1 1.063e+04 2.898e-10
 18.18954   -104.5 1.097e+04 3.739e-10
 18.20410   -104.9 1.103e+04 3.904e-10
 18.22510   -105.6 1.103e+04 4.079e-10
 18.23960   -105.9 1.103e+04 4.113e-10
 18.25010   -106.7 1.122e+04 4.996e-10
 18.26430   -107.1 1.101e+04 5.072e-10
 18.27479   -107.3 1.115e+04 6.377e-10
 18.28809   -107.4 1.098e+04 5.185e-10
 18.31969   -108.0 1.078e+04 4.001e-10
 18.34984   -108.7 1.043e+04 3.043e-10
 18.36870   -109.6 1.045e+04 2.870e-10
 18.38064   -110.4 1.045e+04 2.572e-10
 18.40378   -111.2 1.015e+04 2.216e-10
 18.44577   -111.5 1.009e+04 2.186e-10
 18.48777   -111.5 1.008e+04 2.463e-10
 18.51098   -111.4 1.012e+04 2.733e-10
 18.52275   -111.9 1.025e+04 2.871e-10
 18.54153   -112.1 1.045e+04 3.296e-10
 18.57176   -111.7 1.044e+04 3.344e-10
 18.61376   -110.9 1.022e+04 2.948e-10
 18.64133   -110.0 9.913e+03 2.213e-10
 18.66233   -110.1 9.981e+03 2.227e-10
 18.69123   -109.1 9.692e+03 1.653e-10
 18.71223   -109.5 9.858e+03 1.923e-10
 18.73975   -108.2 9.735e+03 1.753e-10
 18.77167   -106.8 9.721e+03 1.733e-10
 18.79267   -106.4 9.724e+03 1.737e-10
 18.82374   -105.2 9.825e+03 1.939e-10
 18.86193   -104.0 1.007e+04 2.605e-10
 18.88293   -103.9 1.033e+04 2.818e-10
 18.90202   -102.7 1.058e+04 3.453e-10
 18.92301   -102.1 1.044e+04 3.104e-10
 18.94973   -101.0 1.060e+04 3.448e-10
 18.99173   -100.2 1.064e+04 3.507e-10
 19.03236    -99.5 1.057e+04 3.185e-10
 19.05226    -98.6 1.050e+04 2.901e-10
 19.05362    -98.5 1.082e+04 3.298e-10
 19.07572    -98.0 1.059e+04 2.669e-10
 19.11772    -97.6 1.027e+04 2.178e-10
 19.15971    -97.1 1.006e+04 2.012e-10
 19.18370    -96.4 1.004e+04 2.003e-10
 19.20470    -95.0 9.918e+03 1.770e-10
 19.22432    -94.4 1.003e+04 1.941e-10
 19.24532    -94.4 1.036e+04 2.406e-10
 19.27510    -93.3 1.042e+04 2.477e-10
 19.29600    -94.1 1.073e+04 2.841e-10
 19.30947    -95.6 1.138e+04 4.622e-10
 19.31682    -96.5 1.165e+04 6.203e-10
 19.32435    -94.8 1.129e+04 4.865e-10
 19.33800    -96.2 1.198e+04 8.576e-10
 19.35900    -97.2 1.266e+04 1.523e-09
 19.37902    -97.6 1.321e+04 2.412e-09
 19.38952    -96.5 1.293e+04 1.879e-09
 19.39482    -96.8 1.336e+04 2.718e-09
 19.40532    -97.3 1.367e+04 3.107e-09
 19.42199    -97.4 1.376e+04 3.485e-09
 19.44299    -97.5 1.353e+04 3.189e-09
 19.45470    -97.5 1.297e+04 2.298e-09
 19.46520    -96.6 1.327e+04 2.821e-09
 19.48017    -96.6 1.265e+04 1.859e-09
 19.49067    -96.9 1.242e+04 1.551e-09
 19.50599    -97.6 1.158e+04 7.592e-10
 19.51987    -98.9 1.061e+04 3.515e-10
 19.53037    -97.1 1.124e+04 5.371e-10
 19.54798    -98.3 1.042e+04 2.893e-10
 19.56561    -99.1 9.797e+03 1.997e-10
 19.58177   -100.5 9.366e+03 1.525e-10
 19.59574    -98.1 1.006e+04 1.972e-10
 19.62167    -98.0 9.370e+03 1.432e-10
 19.66367    -97.4 9.158e+03 1.326e-10
 19.70508    -96.7 9.201e+03 1.323e-10
 19.72608    -95.0 9.308e+03 1.379e-10
 19.73641    -94.6 9.404e+03 1.467e-10
 19.75741    -95.6 9.311e+03 1.464e-10
 19.78966    -95.3 9.438e+03 1.720e-10
 19.83165    -94.9 9.651e+03 2.208e-10
 19.85642    -94.4 9.856e+03 2.830e-10
 19.87742    -93.2 1.007e+04 3.390e-10
 19.90710    -92.6 1.019e+04 3.808e-10
 19.92810    -93.0 9.981e+03 3.244e-10
 19.95764    -92.4 1.001e+04 3.294e-10
 19.98677    -91.6 9.988e+03 3.204e-10
 20.00777    -90.6 1.001e+04 3.237e-10
 20.04164    -89.7 9.979e+03 3.108e-10
 20.07780    -88.7 9.906e+03 2.952e-10
 20.09880    -88.7 1.010e+04 3.636e-10
 20.11711    -87.5 1.001e+04 3.460e-10
 20.13811    -86.5 1.014e+04 3.831e-10
 20.16763    -85.4 1.002e+04 3.541e-10
 20.20962    -84.2 9.827e+03 2.906e-10
 20.24746    -83.0 9.653e+03 2.329e-10
 20.26533    -81.9 9.748e+03 2.631e-10
 20.26950    -81.8 9.836e+03 3.011e-10
 20.29362    -80.9 9.754e+03 2.571e-10
 20.33561    -80.0 9.741e+03 2.495e-10
 20.37761    -79.3 9.826e+03 2.796e-10
 20.41919    -77.2 9.827e+03 2.779e-10
 20.44019    -77.1 9.863e+03 2.933e-10
 20.46160    -76.5 9.896e+03 2.941e-10
 20.50360    -76.0 1.010e+04 2.784e-10
 20.52544    -75.3 1.011e+04 2.487e-10
 20.52989    -75.2 1.013e+04 2.441e-10
 20.55005    -74.7 1.012e+04 2.267e-10
 20.57699    -76.6 1.105e+04 2.451e-10
 20.59412    -80.2 1.197e+04 4.843e-10
 20.60462    -78.4 1.165e+04 3.741e-10
 20.61069    -80.8 1.195e+04 7.819e-10
 20.62119    -81.3 1.226e+04 1.112e-09
 20.63989    -81.9 1.300e+04 1.935e-09
 20.65929    -82.5 1.382e+04 2.682e-09
 20.66979    -81.1 1.325e+04 2.079e-09
 20.68189    -82.2 1.386e+04 2.429e-09
 20.69604    -83.8 1.398e+04 2.496e-09
 20.70654    -84.8 1.425e+04 2.799e-09
 20.72388    -86.2 1.369e+04 2.436e-09
 20.73497    -87.1 1.308e+04 1.815e-09
 20.74546    -86.1 1.310e+04 1.863e-09
 20.76588    -86.7 1.260e+04 1.364e-09
 20.78139    -87.3 1.209e+04 9.401e-10
 20.79475    -88.5 1.185e+04 8.285e-10
 20.81083    -86.3 1.196e+04 9.268e-10
 20.83957    -86.4 1.132e+04 5.184e-10
 20.88157    -86.1 1.070e+04 2.490e-10
 20.92018    -85.9 1.039e+04 1.491e-10
 20.94118    -83.9 1.053e+04 1.825e-10
 20.95228    -83.5 1.032e+04 1.399e-10
 20.97328    -83.7 1.023e+04 1.303e-10
 21.00756    -82.6 1.017e+04 1.276e-10
 21.04955    -81.8 1.013e+04 1.281e-10
 21.07152    -80.9 1.008e+04 1.253e-10
 21.09252    -79.7 1.015e+04 1.470e-10
 21.12298    -78.9 1.005e+04 1.430e-10
 21.14398    -78.4 1.008e+04 1.580e-10
 21.17554    -77.6 9.976e+03 1.385e-10
 21.20187    -76.8 9.883e+03 1.133e-10
 21.22286    -75.7 9.891e+03 1.293e-10
 21.25953    -74.9 9.774e+03 9.665e-11
 21.29367    -74.2 9.655e+03 7.340e-11
 21.31467    -73.7 9.701e+03 8.114e-11
 21.33221    -73.0 9.594e+03 7.179e-11
 21.35321    -72.1 9.586e+03 6.898e-11
 21.38552    -71.3 9.559e+03 6.705e-11
 21.42752    -70.6 9.549e+03 6.891e-11
 21.46255    -69.9 9.524e+03 8.123e-11
 21.47841    -69.3 9.526e+03 8.122e-11
 21.48537    -68.7 9.574e+03 1.001e-10
 21.51151    -67.8 9.535e+03 1.100e-10
 21.55351    -66.8 9.533e+03 1.155e-10
 21.59290    -65.8 9.538e+03 1.168e-10
 21.61390    -65.2 9.494e+03 1.065e-10
 21.63507    -64.3 9.491e+03 1.034e-10
 21.65607    -63.9 9.523e+03 8.701e-11
 21.67950    -63.1 9.541e+03 8.448e-11
 21.72149    -62.3 9.583e+03 8.333e-11
 21.74424    -61.6 9.607e+03 8.287e-11
 21.76524    -61.3 9.599e+03 8.935e-11
 21.80549    -60.5 9.603e+03 9.292e-11
 21.82676    -59.6 9.604e+03 9.608e-11
 21.84776    -59.3 9.623e+03 9.981e-11
 21.87459    -58.3 9.617e+03 1.019e-10
 21.89558    -58.1 9.587e+03 9.897e-11
 21.93148    -57.3 9.549e+03 9.815e-11
 21.97347    -56.5 9.537e+03 9.821e-11
 21.99746    -55.7 9.505e+03 1.043e-10
 22.00792    -55.5 9.541e+03 1.142e-10
 22.02593    -55.6 9.505e+03 1.153e-10
 22.05747    -54.7 9.515e+03 1.365e-10
 22.09946    -53.8 9.551e+03 1.580e-10
 22.13527    -52.8 9.593e+03 1.717e-10
 22.15627    -52.8 9.473e+03 1.616e-10
 22.16815    -52.1 9.524e+03 1.654e-10
 22.18915    -51.6 9.504e+03 1.563e-10
 22.22545    -51.1 9.529e+03 1.501e-10
 22.26562    -50.8 9.580e+03 1.513e-10
 22.28662    -51.0 9.539e+03 1.472e-10
 22.30944    -50.8 9.580e+03 1.738e-10
 22.33885    -50.6 9.633e+03 2.012e-10
 22.35985    -49.7 9.505e+03 1.625e-10
 22.39344    -49.4 9.521e+03 1.744e-10
 22.41696    -49.2 9.530e+03 1.800e-10
 22.43796    -48.9 9.474e+03 1.748e-10
 22.47743    -48.8 9.513e+03 1.749e-10
 22.50955    -49.3 9.709e+03 2.063e-10
 22.53055    -48.0 9.684e+03 1.754e-10
 22.54731    -48.6 9.934e+03 2.588e-10
 22.56830    -48.6 9.994e+03 3.136e-10
 22.60342    -48.6 1.024e+04 4.620e-10
 22.64542    -48.4 1.035e+04 5.201e-10
 22.67765    -48.6 1.027e+04 4.897e-10
 22.69148    -48.3 1.025e+04 4.907e-10
 22.70124    -47.7 1.051e+04 5.997e-10
 22.72941    -48.0 1.019e+04 4.470e-10
 22.77141    -48.5 9.975e+03 3.624e-10
 22.80800    -48.8 9.885e+03 3.446e-10
 22.82899    -48.4 1.009e+04 4.421e-10
 22.85094    -48.3 1.009e+04 4.476e-10
 22.87194    -48.0 1.011e+04 4.587e-10
 22.89739    -47.9 1.010e+04 4.600e-10
 22.93834    -47.6 1.000e+04 4.532e-10
 22.95934    -47.2 1.029e+04 5.933e-10
 22.98139    -46.9 1.014e+04 5.571e-10
 23.02164    -46.4 9.925e+03 5.027e-10
 23.04263    -46.1 9.885e+03 4.887e-10
 23.06538    -45.3 9.623e+03 4.133e-10
 23.08968    -44.3 9.341e+03 3.260e-10
 23.11068    -43.9 9.398e+03 3.473e-10
 23.14937    -42.8 9.071e+03 2.546e-10
 23.19137    -41.8 8.842e+03 2.045e-10
 23.21333    -40.5 8.760e+03 1.892e-10
 23.22099    -40.3 8.787e+03 1.992e-10
 23.24103    -40.0 8.787e+03 1.997e-10
 23.27536    -38.7 8.788e+03 1.991e-10
 23.31736    -37.5 8.918e+03 2.271e-10
 23.35037    -36.5 9.120e+03 2.895e-10
 23.37137    -36.3 8.948e+03 2.620e-10
 23.38403    -35.0 9.099e+03 3.209e-10
 23.40503    -34.7 9.040e+03 2.942e-10
 23.44335    -33.4 9.134e+03 3.389e-10
 23.48072    -32.1 9.154e+03 3.527e-10
 23.50171    -31.8 8.747e+03 2.469e-10
 23.52734    -30.3 8.605e+03 2.198e-10
 23.55472    -28.9 8.465e+03 1.736e-10
 23.57572    -28.6 8.503e+03 1.899e-10
 23.61106    -27.5 8.366e+03 1.504e-10
 23.63206    -27.3 8.171e+03 1.144e-10
 23.65333    -26.2 8.110e+03 1.050e-10
 23.69533    -25.0 8.101e+03 1.042e-10
 23.72542    -23.9 8.157e+03 1.135e-10
 23.74642    -23.4 8.213e+03 1.235e-10
 23.76240    -22.5 8.307e+03 1.322e-10
 23.78340    -22.4 8.280e+03 1.330e-10
 23.82132    -21.7 8.394e+03 1.551e-10
 23.86331    -21.1 8.496e+03 1.932e-10
 23.89275    -20.4 8.617e+03 2.475e-10
 23.90455    -20.1 8.434e+03 1.941e-10
 23.91711    -19.6 8.502e+03 2.075e-10
 23.94731    -18.8 8.606e+03 2.420e-10
 23.98930    -17.9 8.750e+03 2.686e-10
 24.02309    -17.4 8.857e+03 2.890e-10
 24.04409    -17.2 8.629e+03 2.437e-10
 24.06681    -16.6 8.741e+03 2.782e-10
 24.08781    -16.4 9.051e+03 3.460e-10
 24.11529    -15.9 9.295e+03 4.460e-10
 24.15344    -15.3 9.714e+03 5.897e-10
 24.17443    -14.6 9.380e+03 4.924e-10
 24.19928    -14.0 9.732e+03 5.683e-10
 24.22901    -14.5 1.029e+04 7.383e-10
 24.23941    -14.0 1.008e+04 6.222e-10
 24.24781    -14.3 1.013e+04 6.642e-10
 24.25831    -14.7 1.042e+04 7.435e-10
 24.28318    -15.2 1.079e+04 1.005e-09
 24.30478    -15.4 1.114e+04 1.199e-09
 24.32578    -15.3 1.094e+04 1.097e-09
 24.36727    -15.5 1.134e+04 1.281e-09
 24.40821    -16.6 1.138e+04 1.256e-09
 24.42920    -18.0 1.131e+04 1.230e-09
 24.43512    -18.2 1.091e+04 9.638e-10
 24.45612    -17.4 1.089e+04 9.202e-10
 24.49326    -18.0 1.057e+04 5.955e-10
 24.53526    -19.5 1.023e+04 4.250e-10
 24.56547    -20.3 1.000e+04 3.826e-10
 24.58647    -20.3 1.002e+04 3.645e-10
 24.59990    -20.7 1.000e+04 3.659e-10
 24.62090    -22.4 9.493e+03 2.071e-10
 24.66125    -22.7 9.613e+03 2.218e-10
 24.69581    -22.8 9.619e+03 2.531e-10
 24.71681    -23.7 9.648e+03 2.864e-10
 24.74524    -22.8 9.590e+03 2.926e-10
 24.77060    -21.7 9.542e+03 2.575e-10
 24.79159    -22.3 9.439e+03 1.922e-10
 24.82616    -21.8 9.398e+03 1.680e-10
 24.84716    -23.1 9.355e+03 1.601e-10
 24.87123    -23.6 9.585e+03 1.765e-10
 24.91322    -24.9 1.017e+04 3.001e-10
 24.94129    -25.9 1.099e+04 6.006e-10
 24.96229    -25.7 1.105e+04 6.597e-10
 24.97750    -26.4 1.174e+04 1.070e-09
 24.99850    -28.4 1.207e+04 1.308e-09
 25.03921    -29.6 1.222e+04 1.337e-09
 25.07061    -31.5 1.225e+04 9.970e-10
 25.09151    -33.0 1.232e+04 8.536e-10
 25.10765    -34.9 1.181e+04 7.265e-10
 25.11743    -36.3 1.150e+04 7.054e-10
 25.12229    -36.6 1.161e+04 8.721e-10
 25.13351    -36.8 1.138e+04 8.559e-10
 25.15451    -36.7 1.130e+04 8.060e-10
 25.17282    -36.9 1.144e+04 7.546e-10
 25.18332    -38.1 1.156e+04 7.506e-10
 25.19650    -40.1 1.234e+04 7.707e-10
 25.20764    -42.6 1.272e+04 9.715e-10
 25.21814    -42.8 1.281e+04 1.283e-09
 25.23799    -43.8 1.285e+04 1.829e-09
 25.24849    -44.4 1.301e+04 2.207e-09
 25.25950    -43.9 1.335e+04 2.768e-09
 25.28050    -43.4 1.356e+04 2.956e-09
 25.29299    -43.2 1.354e+04 2.842e-09
 25.30349    -43.3 1.356e+04 2.809e-09
 25.31367    -43.2 1.318e+04 2.121e-09
 25.32416    -44.0 1.298e+04 1.903e-09
 25.34349    -45.0 1.245e+04 1.443e-09
 25.36449    -45.7 1.196e+04 1.137e-09
 25.37834    -46.1 1.164e+04 9.496e-10
 25.38219    -45.9 1.173e+04 1.036e-09
 25.38934    -46.4 1.176e+04 1.060e-09
 25.41708    -46.9 1.142e+04 8.431e-10
 25.45338    -47.0 1.120e+04 7.427e-10
 25.47438    -46.2 1.135e+04 7.925e-10
 25.49888    -46.4 1.129e+04 7.493e-10
 25.51988    -47.0 1.124e+04 7.510e-10
 25.54317    -47.7 1.152e+04 8.806e-10
 25.58517    -48.5 1.199e+04 1.237e-09
 25.62408    -49.4 1.221e+04 1.399e-09
 25.64508    -48.7 1.241e+04 1.497e-09
 25.65012    -50.3 1.240e+04 1.488e-09
 25.66052    -51.2 1.245e+04 1.507e-09
 25.67946    -51.6 1.254e+04 1.398e-09
 25.70046    -53.5 1.232e+04 1.143e-09
 25.71520    -55.4 1.204e+04 9.850e-10
 25.72397    -55.8 1.206e+04 1.038e-09
 25.73023    -56.0 1.226e+04 1.094e-09
 25.74246    -57.8 1.202e+04 1.008e-09
 25.76346    -59.0 1.192e+04 9.807e-10
 25.78037    -59.9 1.186e+04 9.563e-10
 25.79087    -59.9 1.172e+04 8.693e-10
 25.80508    -60.6 1.167e+04 8.339e-10
 25.81558    -61.3 1.209e+04 1.122e-09
 25.82645    -61.7 1.193e+04 1.077e-09
 25.84554    -61.8 1.172e+04 1.010e-09
 25.85604    -62.0 1.164e+04 9.438e-10
 25.86845    -61.8 1.142e+04 8.937e-10
 25.88945    -61.4 1.115e+04 8.154e-10
 25.90093    -60.8 1.088e+04 7.147e-10
 25.91143    -60.9 1.111e+04 7.761e-10
 25.92121    -60.5 1.074e+04 5.968e-10
 25.93171    -60.2 1.087e+04 6.774e-10
 25.95244    -59.8 1.054e+04 5.326e-10
 25.97344    -59.4 1.031e+04 4.355e-10
 25.98637    -58.8 1.015e+04 3.857e-10
 26.00747    -58.9 1.010e+04 3.408e-10
 26.04125    -57.3 9.595e+03 2.229e-10
 26.06225    -56.8 9.822e+03 2.666e-10
 26.08912    -55.0 9.406e+03 1.807e-10
 26.13112    -53.3 9.107e+03 1.331e-10
 26.15717    -51.5 8.930e+03 1.154e-10
 26.17665    -51.5 9.148e+03 1.230e-10
 26.19260    -51.3 9.341e+03 1.517e-10
 26.21511    -49.6 9.316e+03 1.582e-10
 26.25711    -47.8 9.381e+03 1.856e-10
 26.29911    -46.0 9.508e+03 2.279e-10
 26.32294    -44.2 9.675e+03 2.891e-10
 26.33070    -44.5 9.903e+03 3.358e-10
 26.34886    -44.6 1.033e+04 5.136e-10
 26.38310    -43.0 1.046e+04 5.663e-10
 26.42510    -41.8 1.064e+04 6.336e-10
 26.45329    -41.0 1.095e+04 7.593e-10
 26.47428    -42.7 1.108e+04 7.948e-10
 26.49856    -42.7 1.153e+04 1.052e-09
 26.51833    -42.8 1.173e+04 1.135e-09
 26.52876    -43.5 1.172e+04 1.137e-09
 26.54039    -43.8 1.204e+04 1.415e-09
 26.56139    -44.1 1.211e+04 1.534e-09
 26.58239    -44.5 1.214e+04 1.629e-09
 26.59393    -44.7 1.203e+04 1.605e-09
 26.59526    -45.5 1.160e+04 1.326e-09
 26.60471    -46.0 1.180e+04 1.482e-09
 26.62438    -45.9 1.144e+04 1.301e-09
 26.64538    -45.8 1.100e+04 1.057e-09
 26.65911    -45.6 1.053e+04 8.166e-10
 26.66961    -46.0 1.014e+04 6.697e-10
 26.67956    -45.9 9.817e+03 5.089e-10
 26.69006    -45.9 1.013e+04 6.371e-10
 26.70838    -46.0 9.854e+03 5.009e-10
 26.72428    -46.2 9.615e+03 4.176e-10
 26.73478    -46.6 9.492e+03 3.832e-10
 26.75037    -46.6 9.404e+03 3.643e-10
 26.76491    -46.5 9.368e+03 3.628e-10
 26.77541    -46.4 9.545e+03 4.417e-10
 26.78945    -46.1 9.506e+03 4.448e-10
 26.79995    -46.3 9.507e+03 4.448e-10
 26.81337    -46.0 9.432e+03 4.430e-10
 26.83985    -45.5 9.259e+03 3.975e-10
 26.86011    -44.8 9.453e+03 4.646e-10
 26.86512    -45.3 9.699e+03 5.270e-10
 26.87636    -45.3 9.674e+03 4.829e-10
 26.89736    -45.7 9.653e+03 4.413e-10
 26.92896    -46.5 9.761e+03 4.549e-10
 26.97105    -47.0 9.515e+03 4.149e-10
 26.99566    -46.7 9.102e+03 3.456e-10
 27.01426    -47.7 9.355e+03 4.004e-10
 27.03165    -47.4 9.287e+03 3.606e-10
 27.05504    -46.8 8.840e+03 2.601e-10
 27.09704    -45.9 8.552e+03 1.966e-10
 27.12601    -44.8 8.447e+03 1.755e-10
 27.14700    -45.7 8.462e+03 1.722e-10
 27.18103    -44.5 8.500e+03 1.721e-10
 27.20234    -44.0 8.987e+03 2.184e-10
 27.22334    -44.9 9.204e+03 2.442e-10
 27.25443    -44.2 9.909e+03 3.828e-10
 27.26665    -45.0 1.027e+04 4.863e-10
 27.27715    -44.9 1.046e+04 5.549e-10
 27.28750    -45.2 1.118e+04 9.001e-10
 27.29799    -45.9 1.112e+04 9.019e-10
 27.31732    -46.1 1.190e+04 1.465e-09
 27.33183    -46.6 1.310e+04 2.393e-09
 27.34233    -47.3 1.334e+04 2.399e-09
 27.35932    -48.6 1.508e+04 4.189e-09
 27.37284    -50.0 1.675e+04 7.088e-09
 27.38334    -52.4 1.752e+04 1.008e-08
 27.39700    -52.9 1.846e+04 1.479e-08
 27.40750    -52.4 1.752e+04 1.235e-08
 27.42232    -52.4 1.778e+04 1.310e-08
 27.44331    -52.9 1.791e+04 1.206e-08
 27.45819    -54.5 1.789e+04 9.484e-09
 27.46655    -56.7 1.724e+04 5.436e-09
 27.47267    -55.9 1.654e+04 3.015e-09
 27.48531    -60.2 1.515e+04 2.398e-09
 27.50631    -63.7 1.406e+04 2.308e-09
 27.52731    -65.4 1.369e+04 2.990e-09
 27.54354    -66.8 1.398e+04 3.264e-09
 27.55404    -67.8 1.370e+04 2.807e-09
 27.56930    -68.6 1.415e+04 3.459e-09
 27.59030    -69.4 1.429e+04 3.657e-09
 27.60301    -70.3 1.416e+04 3.435e-09
 27.61351    -70.1 1.414e+04 3.487e-09
 27.62889    -70.8 1.364e+04 2.512e-09
 27.63939    -71.4 1.333e+04 2.190e-09
 27.65330    -72.9 1.256e+04 1.474e-09
 27.66828    -74.3 1.188e+04 1.133e-09
 27.68938    -74.6 1.138e+04 7.318e-10
 27.71443    -75.3 1.070e+04 5.170e-10
 27.73543    -75.2 1.036e+04 4.212e-10
 27.76898    -74.8 1.013e+04 3.474e-10
 27.79873    -73.9 9.977e+03 2.933e-10
 27.81973    -73.7 9.733e+03 2.325e-10
 27.85297    -72.3 9.656e+03 2.089e-10
 27.88513    -70.8 9.626e+03 1.972e-10
 27.90613    -70.3 9.307e+03 1.561e-10
 27.92907    -68.8 9.342e+03 1.559e-10
 27.95007    -68.5 9.234e+03 1.470e-10
 27.97896    -67.2 9.369e+03 1.776e-10
 28.02096    -65.7 9.543e+03 2.225e-10
 28.05582    -63.7 9.680e+03 2.653e-10
 28.07328    -63.4 9.593e+03 2.937e-10
 28.08041    -62.8 9.207e+03 2.412e-10
 28.10495    -60.7 9.229e+03 2.482e-10
 28.14695    -58.5 9.189e+03 2.295e-10
 28.18895    -56.2 9.084e+03 1.891e-10
 28.21076    -54.1 8.993e+03 1.587e-10
 28.22734    -53.2 8.661e+03 1.044e-10
 28.24752    -52.8 8.558e+03 9.096e-11
 28.27294    -50.8 8.517e+03 7.698e-11
 28.31494    -48.7 8.511e+03 7.386e-11
 28.34110    -46.8 8.720e+03 8.227e-11
 28.36210    -45.3 8.517e+03 5.453e-11
 28.39722    -43.7 8.814e+03 7.319e-11
 28.41822    -43.7 8.762e+03 5.748e-11
 28.44092    -42.5 8.904e+03 9.512e-11
 28.47145    -40.6 9.181e+03 1.690e-10
 28.49245    -39.6 9.135e+03 1.574e-10
 28.52492    -37.3 9.665e+03 2.796e-10
 28.56691    -35.2 1.030e+04 4.240e-10
 28.58891    -33.8 1.066e+04 5.146e-10
 28.60279    -34.0 1.019e+04 3.982e-10
 28.62279    -32.5 1.035e+04 4.562e-10
 28.65091    -31.0 1.027e+04 4.511e-10
 28.69290    -29.3 1.022e+04 4.377e-10
 28.73214    -28.0 1.031e+04 3.858e-10
 28.75313    -26.5 1.028e+04 4.077e-10
 28.75961    -25.5 1.034e+04 3.741e-10
 28.78061    -25.1 9.626e+03 1.953e-10
 28.81889    -23.8 9.556e+03 2.036e-10
 28.86089    -22.9 9.744e+03 2.479e-10
 28.88348    -21.9 1.005e+04 3.757e-10
 28.90448    -21.3 1.005e+04 3.641e-10
 28.93030    -20.2 1.044e+04 5.503e-10
 28.95130    -19.2 1.008e+04 4.095e-10
 28.97628    -18.9 1.070e+04 7.234e-10
 28.99718    -18.7 1.107e+04 8.254e-10
 29.01363    -19.5 1.188e+04 1.195e-09
 29.02140    -19.3 1.195e+04 1.338e-09
 29.02596    -18.6 1.181e+04 1.370e-09
 29.03918    -18.8 1.240e+04 1.666e-09
 29.06018    -18.9 1.226e+04 1.920e-09
 29.07880    -17.9 1.188e+04 1.899e-09
 29.08930    -16.9 1.151e+04 1.570e-09
 29.10081    -16.2 1.147e+04 1.259e-09
 29.11130    -15.4 1.140e+04 1.244e-09
 29.12317    -15.8 1.131e+04 9.365e-10
 29.14397    -17.3 1.124e+04 7.254e-10
 29.15447    -17.1 1.078e+04 5.572e-10
 29.16517    -18.5 1.055e+04 5.548e-10
 29.18615    -20.0 1.073e+04 6.601e-10
 29.20715    -20.9 1.104e+04 8.872e-10
 29.21964    -21.0 1.116e+04 1.207e-09
 29.23014    -20.7 1.109e+04 1.116e-09
 29.24916    -19.9 1.117e+04 1.366e-09
 29.27016    -19.0 1.110e+04 1.415e-09
 29.28200    -17.8 1.119e+04 1.214e-09
 29.28616    -17.5 1.127e+04 1.262e-09
 29.29532    -16.7 1.097e+04 1.199e-09
 29.31216    -16.9 1.149e+04 8.488e-10
 29.33315    -19.4 1.132e+04 7.071e-10
 29.34999    -22.0 1.082e+04 6.332e-10
 29.36049    -20.8 1.079e+04 5.823e-10
 29.36735    -22.5 1.056e+04 6.472e-10
 29.37785    -22.1 1.077e+04 7.584e-10
 29.39615    -23.0 1.087e+04 9.589e-10
 29.41516    -23.8 1.155e+04 1.217e-09
 29.42566    -24.7 1.217e+04 1.613e-09
 29.43814    -25.6 1.323e+04 2.289e-09
 29.45270    -26.9 1.448e+04 2.851e-09
 29.46320    -30.3 1.787e+04 7.138e-09
 29.48014    -31.8 1.823e+04 7.701e-09
 29.49083    -33.2 1.708e+04 7.981e-09
 29.50133    -32.6 1.764e+04 8.661e-09
 29.52214    -33.8 1.663e+04 8.574e-09
 29.53805    -33.7 1.651e+04 9.386e-09
 29.54854    -34.8 1.631e+04 8.685e-09
 29.55600    -34.2 1.629e+04 8.821e-09
 29.56650    -35.3 1.619e+04 7.615e-09
 29.58513    -34.6 1.627e+04 7.855e-09
 29.60613    -33.8 1.631e+04 7.609e-09
 29.62118    -33.0 1.618e+04 6.646e-09
 29.62794    -33.5 1.627e+04 6.221e-09
 29.63389    -36.3 1.499e+04 2.357e-09
 29.64813    -36.3 1.429e+04 1.696e-09
 29.66912    -37.1 1.299e+04 1.145e-09
 29.68635    -37.9 1.138e+04 8.206e-10
 29.69685    -38.6 1.145e+04 8.057e-10
 29.70874    -38.6 1.035e+04 6.405e-10
 29.71924    -39.3 9.875e+03 5.716e-10
 29.73212    -38.5 9.910e+03 5.413e-10
 29.75152    -38.1 9.811e+03 5.179e-10
 29.76202    -38.5 9.913e+03 5.488e-10
 29.78369    -36.9 9.821e+03 4.878e-10
 29.80478    -38.5 9.582e+03 4.921e-10
 29.81689    -36.2 9.595e+03 5.517e-10
 29.83789    -37.0 9.626e+03 5.434e-10
 29.86880    -34.7 9.802e+03 6.005e-10
 29.91080    -32.4 1.004e+04 6.530e-10
 29.94723    -30.0 1.019e+04 6.838e-10
 29.96823    -31.3 1.018e+04 7.418e-10
 29.97548    -28.6 1.002e+04 6.950e-10
 29.99648    -29.6 9.585e+03 6.133e-10
 30.03679    -26.8 9.198e+03 4.861e-10
 30.07758    -24.2 8.922e+03 3.714e-10
 30.09858    -25.2 8.836e+03 3.661e-10
 30.12078    -22.8 8.529e+03 2.668e-10
 30.14618    -20.7 8.307e+03 2.218e-10
 30.16718    -22.1 8.166e+03 2.009e-10
 30.20477    -19.9 8.030e+03 1.943e-10
 30.22892    -17.9 8.022e+03 1.986e-10
 30.24992    -18.6 7.872e+03 1.844e-10
 30.28877    -16.8 7.915e+03 1.944e-10
 30.31687    -15.2 7.999e+03 2.060e-10
 30.33787    -16.8 7.886e+03 1.764e-10
 30.35927    -16.3 7.942e+03 1.816e-10
 30.38026    -17.5 7.957e+03 1.818e-10
 30.41476    -18.4 8.099e+03 2.022e-10
 30.45675    -19.7 8.535e+03 2.675e-10
 30.48757    -20.9 8.932e+03 3.630e-10
 30.49943    -21.3 8.555e+03 3.013e-10
 30.51061    -21.9 8.519e+03 2.841e-10
 30.54075    -21.9 8.389e+03 2.584e-10
 30.58274    -22.4 8.236e+03 2.222e-10
 30.61995    -23.1 8.240e+03 2.227e-10
 30.64095    -23.1 8.183e+03 2.150e-10
 30.65827    -23.0 8.278e+03 2.460e-10
 30.67926    -22.2 8.078e+03 2.017e-10
 30.70873    -21.5 8.274e+03 2.486e-10
 30.75030    -20.6 8.432e+03 2.737e-10
 30.77130    -20.1 8.691e+03 3.271e-10
 30.79272    -19.6 9.074e+03 3.940e-10
 30.82896    -19.5 9.375e+03 4.377e-10
 30.84996    -19.3 9.527e+03 4.749e-10
 30.87672    -19.3 9.790e+03 5.509e-10
 30.90164    -19.0 9.557e+03 4.819e-10
 30.92264    -18.1 1.005e+04 6.326e-10
 30.96071    -18.7 9.520e+03 4.413e-10
 30.99966    -19.8 9.416e+03 4.025e-10
 31.02066    -19.2 9.509e+03 3.116e-10
 31.03189    -22.0 1.014e+04 4.198e-10
 31.04229    -23.0 1.077e+04 5.721e-10
 31.05501    -27.5 1.221e+04 1.068e-09
 31.07601    -30.2 1.307e+04 2.129e-09
 31.09531    -31.1 1.394e+04 3.777e-09
 31.10577    -30.7 1.380e+04 4.089e-09
 31.11796    -30.1 1.475e+04 5.883e-09
 31.13900    -30.3 1.498e+04 5.819e-09
 31.16000    -30.3 1.474e+04 4.595e-09
 31.17263    -31.7 1.402e+04 2.900e-09
 31.18280    -32.3 1.343e+04 2.273e-09
 31.19116    -31.8 1.329e+04 1.706e-09
 31.20199    -35.1 1.164e+04 9.642e-10
 31.22299    -37.2 1.074e+04 6.729e-10
 31.23781    -38.1 1.044e+04 5.611e-10
 31.24831    -37.7 1.033e+04 5.240e-10
 31.26499    -38.4 1.017e+04 4.885e-10
 31.27651    -39.0 1.023e+04 4.880e-10
 31.28701    -39.1 1.055e+04 5.055e-10
 31.30298    -40.0 1.049e+04 6.010e-10
 31.31348    -40.0 1.050e+04 5.957e-10
 31.32798    -40.2 1.074e+04 7.962e-10
 31.34898    -39.9 1.103e+04 9.176e-10
 31.36195    -39.6 1.127e+04 1.067e-09
 31.38305    -39.1 1.201e+04 1.710e-09
 31.42267    -38.3 1.221e+04 1.562e-09
 31.44402    -37.6 1.230e+04 1.106e-09
 31.46502    -37.8 1.249e+04 1.216e-09
 31.50666    -37.8 1.203e+04 9.915e-10
 31.53275    -36.8 1.155e+04 8.757e-10
 31.54315    -36.5 1.192e+04 1.202e-09
 31.55896    -36.0 1.150e+04 1.016e-09
 31.57417    -35.2 1.126e+04 8.580e-10
 31.58467    -34.9 1.111e+04 7.716e-10
 31.60096    -34.1 1.104e+04 6.910e-10
 31.61790    -33.5 1.113e+04 5.913e-10
 31.62840    -33.2 1.150e+04 3.848e-10
 31.63934    -33.1 1.118e+04 3.903e-10
 31.64984    -32.8 1.115e+04 3.434e-10
 31.66396    -32.3 1.144e+04 3.348e-10
 31.68495    -31.7 1.197e+04 3.186e-10
 31.70325    -31.6 1.132e+04 3.702e-10
 31.71231    -32.0 1.060e+04 2.910e-10
 31.72561    -31.4 1.048e+04 2.554e-10
 31.75864    -29.7 1.047e+04 3.295e-10
 31.80064    -27.9 1.043e+04 3.765e-10
 31.83505    -26.9 1.077e+04 3.545e-10
 31.85605    -26.0 1.056e+04 3.162e-10
 31.87414    -24.8 1.068e+04 2.741e-10
 31.89514    -24.6 1.039e+04 3.649e-10
 31.92663    -23.9 1.068e+04 3.384e-10
 31.96540    -23.8 1.086e+04 3.257e-10
 31.98639    -22.6 1.081e+04 2.860e-10
 32.01062    -22.3 1.071e+04 3.116e-10
 32.04484    -21.3 1.045e+04 2.797e-10
 32.06583    -20.8 1.031e+04 2.493e-10
 32.09461    -20.0 1.004e+04 2.033e-10
 32.11674    -18.7 9.866e+03 1.620e-10
 32.13774    -18.3 9.848e+03 1.551e-10
 32.17861    -16.7 9.743e+03 1.361e-10
 32.21553    -15.1 9.767e+03 1.116e-10
 32.23653    -14.2 9.886e+03 9.610e-11
 32.24708    -13.0 1.005e+04 7.972e-11
 32.26808    -12.4 9.980e+03 9.184e-11
 32.30460    -11.3 9.958e+03 9.474e-11
 32.34659    -10.1 9.879e+03 1.133e-10
 32.37743     -8.5 9.889e+03 1.501e-10
 32.39606     -8.0 9.875e+03 1.435e-10
 32.40723     -7.4 1.004e+04 1.159e-10
 32.43059     -5.6 1.002e+04 1.439e-10
 32.47258     -3.9 1.020e+04 1.690e-10
 32.50777     -2.3 1.044e+04 1.819e-10
 32.52877     -2.1 1.048e+04 1.889e-10
 32.55658     -0.7 1.068e+04 2.030e-10
 32.57792      0.6 1.069e+04 2.016e-10
 32.59892      1.1 1.086e+04 2.152e-10
 32.63812      2.1 1.087e+04 2.182e-10
 32.65911      2.4 1.091e+04 2.324e-10
 32.68256      3.5 1.074e+04 2.123e-10
 32.72456      4.9 1.047e+04 1.939e-10
 32.74862      6.5 1.022e+04 1.784e-10
 32.76962      7.3 1.042e+04 2.387e-10
 32.78946      8.9 1.022e+04 2.043e-10
 32.81046      8.9 1.008e+04 1.515e-10
 32.85055     10.7 9.956e+03 1.410e-10
 32.89255     12.6 9.946e+03 1.317e-10
 32.91932     14.5 9.975e+03 1.220e-10
 32.92557     14.7 9.972e+03 1.732e-10
 32.94080     14.9 9.910e+03 1.617e-10
 32.97654     17.0 9.941e+03 1.689e-10
 33.01854     18.9 1.002e+04 1.745e-10
 33.05015     20.7 1.011e+04 1.825e-10
 33.07115     20.9 1.009e+04 1.653e-10
 33.09001     22.7 1.013e+04 1.665e-10
 33.11101     23.4 1.015e+04 2.053e-10
 33.14453     25.0 1.017e+04 2.030e-10
 33.18049     26.6 1.020e+04 2.046e-10
 33.20149     26.5 1.019e+04 1.680e-10
 33.22852     27.8 1.022e+04 1.668e-10
 33.26071     29.1 1.025e+04 1.632e-10
 33.28171     29.6 1.045e+04 2.453e-10
 33.31084     30.9 1.047e+04 2.307e-10
 33.33183     30.6 1.042e+04 2.159e-10
 33.35451     31.9 1.035e+04 1.785e-10
 33.39650     33.1 1.023e+04 1.469e-10
 33.43141     34.3 1.010e+04 1.257e-10
 33.45240     34.8 1.037e+04 1.569e-10
 33.46218     35.8 1.017e+04 1.270e-10
 33.48318     35.7 1.013e+04 1.226e-10
 33.52249     37.0 9.981e+03 1.126e-10
 33.56449     38.5 9.800e+03 1.105e-10
 33.59252     39.9 9.748e+03 1.110e-10
 33.60914     40.3 9.734e+03 1.161e-10
 33.62310     40.7 9.896e+03 1.412e-10
 33.64848     42.2 9.896e+03 1.415e-10
 33.69048     43.6 9.912e+03 1.437e-10
 33.72287     44.8 9.968e+03 1.524e-10
 33.74387     45.2 9.972e+03 1.539e-10
 33.77280     46.2 1.011e+04 1.825e-10
 33.79380     46.5 1.032e+04 2.256e-10
 33.81647     47.4 1.050e+04 2.812e-10
 33.85321     48.3 1.068e+04 3.551e-10
 33.87421     48.6 1.069e+04 3.537e-10
 33.90046     49.2 1.078e+04 4.056e-10
 33.94246     49.5 1.077e+04 4.050e-10
 33.96449     49.9 1.066e+04 3.768e-10
 33.98459     50.0 1.080e+04 4.174e-10
 34.00456     50.2 1.093e+04 4.649e-10
 34.02645     50.5 1.074e+04 3.978e-10
 34.06845     50.9 1.052e+04 3.158e-10
 34.11044     51.4 1.031e+04 2.384e-10
 34.13490     52.1 1.011e+04 1.775e-10
 34.13865     52.3 1.021e+04 2.190e-10
 34.15619     52.0 1.035e+04 3.169e-10
 34.19444     53.0 1.012e+04 2.578e-10
 34.23643     54.2 9.963e+03 2.153e-10
 34.26524     55.5 9.844e+03 1.853e-10
 34.28624     55.6 9.940e+03 2.093e-10
 34.30589     56.9 9.794e+03 1.805e-10
 34.32688     57.1 9.996e+03 2.384e-10
 34.36242     58.3 9.832e+03 2.181e-10
 34.39559     59.6 9.806e+03 2.191e-10
 34.41659     59.7 9.817e+03 2.288e-10
 34.44642     60.9 9.807e+03 2.493e-10
 34.47658     62.1 9.891e+03 2.983e-10
 34.49758     62.3 1.006e+04 3.582e-10
 34.52593     63.6 1.040e+04 5.112e-10
 34.54693     63.7 1.035e+04 5.000e-10
 34.56181     64.2 1.043e+04 5.265e-10
 34.58271     64.7 1.061e+04 6.173e-10
 34.60141     64.9 1.066e+04 6.159e-10
 34.61191     64.6 1.061e+04 5.708e-10
 34.62470     64.5 1.061e+04 5.570e-10
 34.64718     64.8 1.052e+04 4.963e-10
 34.66816     64.6 1.102e+04 7.518e-10
 34.69827     64.3 1.078e+04 6.235e-10
 34.74039     64.4 1.048e+04 4.834e-10
 34.78239     64.6 1.016e+04 3.626e-10
 34.80762     65.0 9.863e+03 2.790e-10
 34.82221     64.9 9.920e+03 2.976e-10
 34.83897     64.9 1.001e+04 2.994e-10
 34.86638     65.6 9.716e+03 2.268e-10
 34.90838     66.5 9.539e+03 1.926e-10
 34.93796     67.7 9.442e+03 1.755e-10
 34.95896     67.8 9.485e+03 1.801e-10
 34.98867     69.2 9.434e+03 1.735e-10
 35.00967     68.9 9.395e+03 1.424e-10
 35.03437     70.4 9.399e+03 1.428e-10
 35.06831     71.8 9.419e+03 1.459e-10
 35.08931     71.7 9.446e+03 1.558e-10
 35.11836     72.8 9.548e+03 2.025e-10
 35.15937     73.9 1.004e+04 3.211e-10
 35.18037     73.0 1.021e+04 3.754e-10
 35.19865     73.8 1.169e+04 8.896e-10
 35.21965     72.4 1.300e+04 1.698e-09
 35.23375     72.6 1.315e+04 2.089e-09
 35.25465     72.6 1.346e+04 2.603e-09
 35.26552     72.5 1.380e+04 3.189e-09
 35.27450     72.1 1.429e+04 3.674e-09
 35.28463     71.1 1.495e+04 5.094e-09
 35.29665     71.0 1.481e+04 4.749e-09
 35.31765     70.9 1.455e+04 4.028e-09
 35.33864     70.3 1.434e+04 3.370e-09
 35.34980     69.2 1.425e+04 2.956e-09
 35.35152     67.7 1.432e+04 3.024e-09
 35.36137     66.7 1.411e+04 2.554e-09
 35.38064     65.5 1.396e+04 2.455e-09
 35.40164     64.7 1.381e+04 2.376e-09
 35.41497     64.2 1.356e+04 2.193e-09
 35.42547     63.4 1.310e+04 1.752e-09
 35.43621     63.1 1.280e+04 1.431e-09
 35.44671     63.2 1.267e+04 1.362e-09
 35.46463     62.8 1.244e+04 1.085e-09
 35.48015     62.3 1.220e+04 8.732e-10
 35.49064     61.3 1.185e+04 6.653e-10
 35.50663     60.9 1.162e+04 5.834e-10
 35.52156     60.7 1.142e+04 5.445e-10
 35.53206     60.6 1.134e+04 5.356e-10
 35.54532     60.6 1.131e+04 5.376e-10
 35.55582     60.2 1.111e+04 4.468e-10
 35.56962     60.3 1.109e+04 4.783e-10
 35.59062     60.4 1.125e+04 5.285e-10
 35.60691     60.2 1.159e+04 5.961e-10
 35.61628     59.3 1.203e+04 7.756e-10
 35.62099     58.6 1.215e+04 7.741e-10
 35.63262     57.8 1.272e+04 1.102e-09
 35.65362     56.4 1.339e+04 1.701e-09
 35.67462     54.7 1.416e+04 2.849e-09
 35.68616     53.3 1.508e+04 4.943e-09
 35.69331     54.0 1.482e+04 5.361e-09
 35.70276     54.8 1.475e+04 5.603e-09
 35.71661     54.1 1.567e+04 7.635e-09
 35.73761     52.8 1.605e+04 8.075e-09
 35.75133     51.4 1.594e+04 7.688e-09
 35.76183     52.0 1.574e+04 6.102e-09
 35.77761     50.6 1.523e+04 4.826e-09
 35.78811     49.4 1.495e+04 2.906e-09
 35.80060     47.9 1.398e+04 2.099e-09
 35.81651     46.5 1.300e+04 1.443e-09
 35.82701     46.4 1.272e+04 1.152e-09
 35.84260     45.6 1.209e+04 8.382e-10
 35.86296     45.0 1.168e+04 6.447e-10
 35.87345     45.1 1.167e+04 5.592e-10
 35.88168     44.8 1.140e+04 4.625e-10
 35.89218     45.2 1.131e+04 4.054e-10
 35.90560     44.9 1.116e+04 3.414e-10
 35.92659     44.6 1.097e+04 3.099e-10
 35.94685     44.4 1.092e+04 3.088e-10
 35.95735     44.5 1.087e+04 2.676e-10
 35.95880     44.0 1.090e+04 2.742e-10
 35.96930     44.4 1.102e+04 2.886e-10
 35.98959     43.6 1.109e+04 3.199e-10
 36.01059     42.5 1.130e+04 4.157e-10
 36.02252     41.4 1.156e+04 6.134e-10
 36.03302     41.5 1.151e+04 5.729e-10
 36.04415     40.7 1.176e+04 8.749e-10
 36.05465     41.4 1.182e+04 7.838e-10
 36.07358     40.5 1.200e+04 1.094e-09
 36.08769     39.8 1.215e+04 1.374e-09
 36.09819     40.1 1.199e+04 1.245e-09
 36.11558     39.2 1.201e+04 1.269e-09
 36.12950     38.2 1.196e+04 1.239e-09
 36.14000     38.1 1.205e+04 1.211e-09
 36.15296     36.6 1.173e+04 1.092e-09
 36.17406     38.1 1.156e+04 9.863e-10
 36.20454     37.3 1.098e+04 6.861e-10
 36.22554     37.7 1.081e+04 6.012e-10
 36.25226     37.1 1.033e+04 3.527e-10
 36.28341     36.0 9.902e+03 2.147e-10
 36.30440     37.1 1.014e+04 2.273e-10
 36.33625     36.0 9.762e+03 2.031e-10
 36.37524     35.2 9.657e+03 2.078e-10
 36.39624     35.9 9.911e+03 2.931e-10
 36.41375     35.5 9.756e+03 2.835e-10
 36.43475     36.5 9.766e+03 2.815e-10
 36.46224     36.6 9.530e+03 2.369e-10
 36.50424     36.7 9.334e+03 1.749e-10
 36.54410     36.7 9.189e+03 1.266e-10
 36.56479     37.3 9.204e+03 1.240e-10
 36.56693     37.1 9.312e+03 1.394e-10
 36.58823     37.0 9.252e+03 1.335e-10
 36.63023     37.3 9.247e+03 1.353e-10
 36.67223     38.0 9.279e+03 1.466e-10
 36.69544     38.9 9.347e+03 1.691e-10
 36.71644     39.7 9.372e+03 1.594e-10
 36.73763     40.8 9.458e+03 1.783e-10
 36.75863     41.0 9.633e+03 2.134e-10
 36.79822     42.2 9.795e+03 2.442e-10
 36.82578     43.4 1.003e+04 3.091e-10
 36.84678     43.8 9.906e+03 2.419e-10
 36.88221     44.8 1.018e+04 3.368e-10
 36.90833     45.7 1.061e+04 5.234e-10
 36.92933     45.9 1.079e+04 5.959e-10
 36.95613     46.8 1.125e+04 8.489e-10
 36.97713     47.4 1.121e+04 8.358e-10
 37.00820     48.3 1.167e+04 1.145e-09
 37.05019     49.1 1.204e+04 1.431e-09
 37.07902     49.8 1.224e+04 1.522e-09
 37.09430     49.9 1.192e+04 1.209e-09
 37.10747     50.8 1.197e+04 1.244e-09
 37.12359     50.8 1.207e+04 1.286e-09
 37.14449     50.9 1.210e+04 1.297e-09
 37.16195     51.0 1.209e+04 1.287e-09
 37.17113     51.4 1.213e+04 1.302e-09
 37.17468     51.4 1.205e+04 1.266e-09
 37.18649     51.7 1.197e+04 1.208e-09
 37.20749     52.0 1.194e+04 1.109e-09
 37.22712     52.0 1.205e+04 1.042e-09
 37.23762     52.2 1.250e+04 1.206e-09
 37.24948     51.2 1.317e+04 1.351e-09
 37.27048     48.8 1.434e+04 1.693e-09
 37.29148     45.0 1.644e+04 3.585e-09
 37.30279     43.5 1.800e+04 8.093e-09
 37.31329     43.9 1.855e+04 1.391e-08
 37.33347     44.2 1.936e+04 2.022e-08
 37.34537     44.1 1.928e+04 1.957e-08
 37.35587     43.7 1.791e+04 1.248e-08
 37.36796     44.2 1.704e+04 9.086e-09
 37.37846     44.8 1.716e+04 9.771e-09
 37.39647     45.6 1.564e+04 4.528e-09
 37.41747     44.7 1.388e+04 1.716e-09
 37.43072     41.9 1.223e+04 7.362e-10
 37.44132     41.6 1.205e+04 7.947e-10
 37.47016     38.6 1.010e+04 2.964e-10
 37.49850     38.6 9.771e+03 2.926e-10
 37.51950     39.0 9.527e+03 2.108e-10
 37.55415     40.6 9.472e+03 2.128e-10
 37.59111     42.6 9.450e+03 2.291e-10
 37.61211     41.9 9.216e+03 1.929e-10
 37.62885     43.6 9.320e+03 1.977e-10
 37.64985     44.3 9.119e+03 1.718e-10
 37.68014     46.0 9.236e+03 1.787e-10
 37.72214     47.5 9.323e+03 1.804e-10
 37.75919     48.7 9.402e+03 1.858e-10
 37.77787     49.6 9.433e+03 1.966e-10
 37.78281     48.3 9.442e+03 2.043e-10
 37.80613     49.1 9.697e+03 2.530e-10
 37.84813     50.0 9.970e+03 3.320e-10
 37.88954     51.2 1.022e+04 4.200e-10
 37.91053     52.1 1.026e+04 4.562e-10
 37.93212     53.3 1.045e+04 4.993e-10
 37.95350     54.3 1.050e+04 4.954e-10
 37.97450     52.8 1.005e+04 3.158e-10
 38.01611     53.4 1.007e+04 2.926e-10
 38.04088     54.0 1.015e+04 3.026e-10
 38.06188     54.8 1.030e+04 3.626e-10
 38.10011     54.5 1.066e+04 4.587e-10
 38.12420     53.6 1.148e+04 7.389e-10
 38.14520     51.3 1.178e+04 8.605e-10
 38.17113     50.0 1.275e+04 1.551e-09
 38.18153     49.7 1.297e+04 1.931e-09
 38.19440     49.4 1.355e+04 2.871e-09
 38.20935     49.0 1.373e+04 3.045e-09
 38.21985     48.6 1.376e+04 3.177e-09
 38.23620     48.2 1.360e+04 2.907e-09
 38.24670     48.3 1.344e+04 2.572e-09
 38.25740     47.2 1.304e+04 1.850e-09
 38.27839     45.4 1.247e+04 1.268e-09
 38.29480     43.5 1.177e+04 9.156e-10
 38.30738     41.6 1.119e+04 5.935e-10
 38.32257     38.9 1.146e+04 7.475e-10
 38.35208     37.6 1.109e+04 7.337e-10
 38.39408     37.8 1.097e+04 7.606e-10
 38.42548     37.2 1.134e+04 7.808e-10
 38.44222     29.4 2.023e+04 9.528e-10
 38.45272     17.6 2.748e+04 3.515e-09
 38.46208     10.7 2.867e+04 6.772e-09
 38.47055      7.1 2.610e+04 1.768e-08
 38.47580      7.1 2.589e+04 1.781e-08
 38.47995      7.1 2.336e+04 3.878e-08
 38.48520      6.7 2.209e+04 9.201e-08
 38.49353      8.2 2.160e+04 1.266e-07
 38.50403      9.6 2.160e+04 1.332e-07
 38.51254     10.2 2.187e+04 1.195e-07
 38.51649     11.0 2.232e+04 1.452e-07
 38.51847     10.7 2.270e+04 8.508e-08
 38.52503     10.2 2.363e+04 5.176e-08
 38.53553      8.3 2.538e+04 2.486e-08
 38.54513      4.9 2.418e+04 1.172e-08
 38.55038      0.5 2.364e+04 7.287e-09
 38.55590     -2.8 2.116e+04 5.090e-09
 38.56120     -1.5 2.033e+04 4.584e-09
 38.57237    -10.3 1.376e+04 1.512e-09
 38.58306    -14.3 1.171e+04 8.275e-10
 38.59356    -16.2 1.144e+04 7.266e-10
 38.61437    -17.0 1.109e+04 6.077e-10
 38.63536    -17.6 1.063e+04 5.487e-10
 38.64659    -17.7 1.030e+04 5.384e-10
 38.64896    -17.2 1.019e+04 4.964e-10
 38.65873    -18.2 9.969e+03 4.544e-10
 38.67736    -17.2 9.770e+03 4.274e-10
 38.69836    -17.0 9.763e+03 4.272e-10
 38.71340    -15.8 9.648e+03 4.030e-10
 38.73450    -15.9 9.474e+03 3.443e-10
 38.77205    -14.6 9.380e+03 3.190e-10
 38.80699    -13.5 9.397e+03 3.199e-10
 38.82798    -12.9 9.161e+03 2.552e-10
 38.84394    -11.7 9.134e+03 2.515e-10
 38.86494    -11.9 8.970e+03 2.140e-10
 38.88744    -11.3 9.088e+03 2.424e-10
 38.90264    -10.7 9.167e+03 2.734e-10
 38.91314    -10.4 9.160e+03 2.546e-10
 38.91942    -14.0 1.204e+04 3.650e-10
 38.92992    -19.1 1.463e+04 5.470e-10
 38.95034    -25.4 1.699e+04 2.065e-09
 38.97134    -26.6 1.711e+04 5.430e-09
 38.98459    -26.0 1.726e+04 9.866e-09
 38.99074    -25.5 1.696e+04 1.053e-08
 38.99849    -25.4 1.761e+04 1.508e-08
 39.00803    -24.7 1.780e+04 1.457e-08
 39.01708    -24.7 1.806e+04 1.372e-08
 39.02233    -24.7 1.807e+04 1.260e-08
 39.02898    -25.1 1.873e+04 9.664e-09
 39.03581    -26.5 1.885e+04 7.102e-09
 39.04106    -27.9 1.856e+04 5.437e-09
 39.04967    -32.2 1.675e+04 3.186e-09
 39.06021    -33.8 1.571e+04 2.744e-09
 39.07333    -41.0 1.298e+04 1.534e-09
 39.08383    -42.8 1.039e+04 7.132e-10
 39.09733    -44.3 9.957e+03 5.124e-10
 39.11494    -45.1 9.851e+03 4.557e-10
 39.12544    -44.5 9.617e+03 3.976e-10
 39.13932    -45.0 9.565e+03 3.508e-10
 39.15868    -45.3 9.513e+03 3.556e-10
 39.16918    -44.8 8.857e+03 2.427e-10
 39.19191    -43.7 8.694e+03 2.112e-10
 39.23401    -42.2 8.660e+03 2.027e-10
 39.25598    -40.7 8.663e+03 1.870e-10
 39.27697    -39.3 8.303e+03 1.443e-10
 39.31800    -37.8 8.234e+03 1.329e-10
 39.34007    -36.6 8.282e+03 1.423e-10
 39.36107    -36.6 7.772e+03 9.537e-11
 39.38632    -34.9 7.960e+03 1.245e-10
 39.40732    -33.8 7.788e+03 9.499e-11
 39.44399    -32.2 8.000e+03 1.240e-10
 39.48599    -30.5 8.205e+03 1.577e-10
 39.51077    -28.7 8.359e+03 1.845e-10
 39.52045    -28.6 8.312e+03 1.767e-10
 39.53766    -27.6 8.117e+03 1.395e-10
 39.56998    -25.9 8.261e+03 1.564e-10
 39.61198    -24.3 8.387e+03 1.674e-10
 39.64701    -22.8 8.639e+03 1.898e-10
 39.66801    -21.8 8.378e+03 1.520e-10
 39.68147    -20.2 8.709e+03 1.899e-10
 39.70246    -20.2 9.001e+03 2.256e-10
 39.72258    -20.4 9.513e+03 2.905e-10
 39.73298    -19.2 9.123e+03 2.439e-10
 39.74827    -20.0 9.926e+03 3.519e-10
 39.76662    -21.5 1.116e+04 6.531e-10
 39.77712    -22.4 1.167e+04 1.084e-09
 39.78766    -22.7 1.264e+04 1.993e-09
 39.79816    -21.6 1.212e+04 1.428e-09
 39.81126    -22.0 1.309e+04 2.509e-09
 39.83226    -21.7 1.390e+04 3.920e-09
 39.85197    -21.0 1.439e+04 4.948e-09
 39.86204    -20.5 1.487e+04 5.568e-09
 39.86333    -19.9 1.443e+04 5.041e-09
 39.87426    -19.7 1.465e+04 5.214e-09
 39.89526    -19.6 1.448e+04 4.697e-09
 39.91626    -19.9 1.408e+04 3.722e-09
 39.92850    -21.2 1.357e+04 2.784e-09
 39.93900    -19.2 1.349e+04 2.765e-09
 39.95825    -21.3 1.303e+04 2.170e-09
 39.97925    -23.1 1.232e+04 1.764e-09
 39.99367    -24.1 1.208e+04 1.761e-09
 40.00417    -22.7 1.204e+04 1.657e-09
 40.02125    -23.9 1.212e+04 1.807e-09
 40.03316    -24.7 1.244e+04 2.170e-09
 40.04366    -25.3 1.256e+04 2.287e-09
 40.05885    -25.7 1.292e+04 2.693e-09
 40.06934    -24.8 1.289e+04 2.692e-09
 40.08424    -24.9 1.321e+04 3.062e-09
 40.10524    -24.9 1.347e+04 3.157e-09
 40.11851    -25.3 1.350e+04 3.061e-09
 40.12679    -26.2 1.314e+04 2.279e-09
 40.13452    -24.4 1.303e+04 2.174e-09
 40.14724    -26.3 1.326e+04 1.963e-09
 40.16823    -28.6 1.314e+04 1.961e-09
 40.18919    -30.5 1.288e+04 2.075e-09
 40.20382    -30.7 1.254e+04 2.079e-09
 40.21436    -31.7 1.146e+04 1.430e-09
 40.23123    -31.8 1.159e+04 1.456e-09
 40.25223    -32.2 1.170e+04 1.387e-09
 40.26486    -33.3 1.167e+04 1.225e-09
 40.27536    -33.2 1.185e+04 1.210e-09
 40.28921    -35.0 1.159e+04 1.095e-09
 40.29971    -35.7 1.054e+04 7.266e-10
 40.31522    -37.0 1.036e+04 8.079e-10
 40.33003    -37.1 1.036e+04 8.422e-10
 40.34053    -37.4 1.028e+04 8.049e-10
 40.35722    -37.2 1.030e+04 7.944e-10
 40.37456    -36.9 1.024e+04 7.419e-10
 40.38505    -36.5 9.825e+03 5.618e-10
 40.39521    -36.3 9.841e+03 5.063e-10
 40.40571    -36.5 9.727e+03 4.518e-10
 40.42021    -36.4 9.636e+03 4.216e-10
 40.44121    -36.2 9.653e+03 3.894e-10
 40.45990    -36.1 9.676e+03 3.900e-10
 40.46857    -35.5 9.523e+03 3.515e-10
 40.47088    -35.5 9.520e+03 3.325e-10
 40.48321    -35.0 9.552e+03 3.533e-10
 40.50421    -34.9 9.612e+03 3.638e-10
 40.52520    -34.5 9.690e+03 4.299e-10
 40.53605    -34.3 9.892e+03 4.628e-10
 40.54560    -34.7 1.003e+04 4.835e-10
 40.55585    -33.9 9.657e+03 3.902e-10
 40.57789    -33.3 1.004e+04 5.481e-10
 40.60142    -32.4 1.024e+04 6.818e-10
 40.62242    -33.5 1.088e+04 9.764e-10
 40.66189    -32.5 1.101e+04 1.011e-09
 40.70388    -31.3 1.061e+04 8.227e-10
 40.72664    -30.9 1.031e+04 6.016e-10
 40.73352    -31.3 1.105e+04 7.947e-10
 40.74216    -32.5 1.135e+04 9.622e-10
 40.75618    -33.3 1.121e+04 8.411e-10
 40.77718    -34.2 1.097e+04 8.057e-10
 40.79674    -34.4 1.080e+04 7.822e-10
 40.80724    -35.7 1.081e+04 8.533e-10
 40.81180    -35.6 1.059e+04 7.990e-10
 40.82229    -36.3 1.089e+04 9.151e-10
 40.84018    -36.3 1.078e+04 8.939e-10
 40.86118    -36.1 1.045e+04 8.363e-10
 40.87241    -35.9 1.033e+04 8.097e-10
 40.88291    -36.6 1.012e+04 7.232e-10
 40.89714    -36.3 9.859e+03 6.198e-10
 40.90764    -36.9 9.717e+03 5.639e-10
 40.92417    -37.0 9.573e+03 5.233e-10
 40.95577    -37.4 9.083e+03 3.632e-10
 40.99245    -37.4 8.789e+03 2.984e-10
 41.01345    -39.0 8.589e+03 2.675e-10
 41.03986    -39.2 8.635e+03 2.773e-10
 41.06804    -39.5 8.903e+03 3.316e-10
 41.08903    -40.8 9.076e+03 3.885e-10
 41.11325    -41.0 9.334e+03 4.881e-10
 41.13310    -41.0 9.572e+03 5.781e-10
 41.14360    -41.6 9.479e+03 5.336e-10
 41.15319    -41.7 9.763e+03 6.363e-10
 41.16369    -42.0 9.654e+03 6.159e-10
 41.17615    -41.8 9.756e+03 6.573e-10
 41.19715    -41.6 9.769e+03 6.653e-10
 41.20877    -41.0 9.621e+03 6.462e-10
 41.21927    -41.4 9.472e+03 5.714e-10
 41.23854    -40.5 9.347e+03 4.908e-10
 41.25963    -40.5 9.158e+03 3.906e-10
 41.27414    -40.1 8.985e+03 2.990e-10
 41.29514    -41.5 8.998e+03 2.927e-10
 41.33383    -41.6 9.069e+03 2.885e-10
 41.36523    -43.1 9.679e+03 4.380e-10
 41.38613    -43.5 1.015e+04 5.005e-10
 41.40429    -45.1 1.106e+04 1.028e-09
 41.41479    -45.4 1.107e+04 1.037e-09
 41.41973    -45.3 1.151e+04 1.205e-09
 41.43023    -45.2 1.154e+04 1.204e-09
 41.44913    -46.0 1.217e+04 2.256e-09
 41.46946    -44.8 1.254e+04 2.743e-09
 41.47996    -45.0 1.219e+04 2.186e-09
 41.49112    -44.9 1.236e+04 2.158e-09
 41.50508    -44.7 1.205e+04 1.725e-09
 41.51558    -44.6 1.225e+04 2.001e-09
 41.53312    -45.4 1.159e+04 1.187e-09
 41.54513    -46.4 1.075e+04 9.430e-10
 41.55563    -46.6 1.055e+04 8.964e-10
 41.58003    -46.4 9.387e+03 4.161e-10
 41.60112    -46.0 9.643e+03 5.015e-10
 41.62781    -46.3 8.423e+03 2.004e-10
 41.66517    -46.3 7.916e+03 1.320e-10
 41.68617    -45.9 7.870e+03 1.261e-10
 41.71180    -44.9 7.620e+03 1.210e-10
 41.75082    -43.3 7.577e+03 1.307e-10
 41.77182    -43.0 7.741e+03 1.517e-10
 41.79552    -41.2 7.734e+03 1.580e-10
 41.81651    -40.7 7.747e+03 1.602e-10
 41.83779    -39.0 7.719e+03 1.591e-10
 41.87978    -37.3 7.634e+03 1.522e-10
 41.92152    -35.5 7.537e+03 1.392e-10
 41.94252    -35.3 7.723e+03 1.690e-10
 41.94686    -33.6 7.631e+03 1.516e-10
 41.96786    -33.3 7.615e+03 1.455e-10
 42.00577    -32.0 7.594e+03 1.351e-10
 42.04777    -30.9 7.618e+03 1.388e-10
 42.07720    -30.0 7.703e+03 1.554e-10
 42.09820    -29.8 7.850e+03 1.797e-10
 42.11321    -28.9 8.111e+03 2.324e-10
 42.13421    -28.6 8.237e+03 2.541e-10
 42.17376    -27.9 8.550e+03 3.227e-10
 42.20755    -27.1 8.805e+03 3.781e-10
 42.22855    -26.9 8.966e+03 4.203e-10
 42.25775    -26.5 8.951e+03 4.044e-10
 42.28391    -26.3 8.819e+03 3.493e-10
 42.30491    -26.0 8.751e+03 3.280e-10
 42.33789    -25.9 8.555e+03 2.733e-10
 42.35889    -25.1 8.325e+03 2.183e-10
 42.38374    -24.9 8.141e+03 1.879e-10
 42.42574    -24.3 8.060e+03 1.787e-10
 42.45461    -23.5 8.026e+03 1.723e-10
 42.47560    -23.0 8.084e+03 1.773e-10
 42.48923    -22.1 8.136e+03 1.796e-10
 42.51023    -21.1 8.037e+03 1.613e-10
 42.55173    -20.2 8.131e+03 1.692e-10
 42.59372    -19.3 8.231e+03 1.748e-10
 42.61958    -18.5 8.329e+03 1.812e-10
 42.63016    -17.3 8.271e+03 1.667e-10
 42.64630    -16.6 8.399e+03 1.902e-10
 42.67772    -15.7 8.457e+03 1.915e-10
 42.71971    -14.9 8.511e+03 1.920e-10
 42.74992    -14.0 8.594e+03 1.995e-10
 42.77092    -12.8 8.560e+03 1.916e-10
 42.79600    -11.9 8.694e+03 2.088e-10
 42.81700    -11.4 8.587e+03 1.746e-10
 42.84570    -10.5 8.695e+03 1.857e-10
 42.88027     -9.5 8.923e+03 2.168e-10
 42.90127     -8.2 8.797e+03 1.901e-10
 42.92970     -7.9 9.128e+03 2.430e-10
 42.96669     -7.7 9.741e+03 4.042e-10
 42.98769     -6.8 9.377e+03 3.017e-10
 43.01061     -5.8 1.024e+04 5.559e-10
 43.03161     -4.8 9.995e+03 4.616e-10
 43.04509     -5.6 1.090e+04 7.470e-10
 43.06235     -7.2 1.202e+04 1.264e-09
 43.07285     -6.2 1.170e+04 9.893e-10
 43.08609     -8.7 1.323e+04 2.117e-09
 43.09659     -7.4 1.277e+04 1.685e-09
 43.10798     -9.0 1.400e+04 3.492e-09
 43.12898     -8.8 1.476e+04 5.429e-09
 43.14769     -8.6 1.482e+04 5.323e-09
 43.15819     -8.6 1.505e+04 6.280e-09
 43.16176     -7.7 1.474e+04 5.336e-09
 43.17226     -7.9 1.500e+04 5.771e-09
 43.19198     -7.7 1.443e+04 3.783e-09
 43.21298     -8.3 1.367e+04 1.967e-09
 43.22693    -10.5 1.249e+04 8.791e-10
 43.23650     -9.8 1.270e+04 1.218e-09
 43.24354     -8.2 1.331e+04 1.423e-09
 43.26557    -14.3 1.130e+04 5.435e-10
 43.29230    -16.2 9.814e+03 3.364e-10
 43.31330    -15.0 1.000e+04 3.620e-10
 43.32909    -15.0 9.564e+03 2.864e-10
 43.35008    -15.1 9.533e+03 2.830e-10
 43.39166    -14.5 9.442e+03 2.774e-10
 43.42264    -13.7 9.391e+03 2.773e-10
 43.44364    -12.8 9.398e+03 2.622e-10
 43.47565    -11.9 9.293e+03 2.470e-10
 43.49978    -10.9 9.177e+03 2.169e-10
 43.52078    -10.5 9.313e+03 2.604e-10
 43.55299     -9.8 9.277e+03 2.244e-10
 43.57399     -9.4 9.338e+03 2.415e-10
 43.60164     -8.7 9.380e+03 2.577e-10
 43.64363     -7.9 9.459e+03 2.923e-10
 43.67048     -6.8 9.664e+03 3.926e-10
 43.68918     -6.7 9.873e+03 4.729e-10
 43.70433     -6.1 1.003e+04 5.428e-10
 43.72763     -4.9 1.059e+04 7.327e-10
 43.75573     -4.6 1.083e+04 8.671e-10
 43.76601     -4.4 1.070e+04 7.707e-10
 43.76931     -4.5 1.089e+04 8.488e-10
 43.77993     -4.3 1.124e+04 9.681e-10
 43.80093     -4.4 1.166e+04 1.109e-09
 43.82192     -5.0 1.218e+04 1.306e-09
 43.83448     -6.4 1.294e+04 1.692e-09
 43.84304     -6.4 1.285e+04 1.850e-09
 43.85148     -6.9 1.307e+04 1.925e-09
 43.86392     -8.7 1.386e+04 2.709e-09
 43.88492    -10.5 1.449e+04 4.702e-09
 43.89965    -12.9 1.700e+04 8.964e-09
 43.91015    -12.8 1.648e+04 6.345e-09
 43.92162    -19.2 2.106e+04 1.467e-08
 43.93148    -20.6 2.214e+04 2.054e-08
 43.93673    -22.5 2.323e+04 3.264e-08
 43.93739    -22.7 2.209e+04 4.213e-08
 43.94264    -24.2 2.240e+04 4.275e-08
 43.95307    -23.8 2.181e+04 4.187e-08
 43.96356    -23.6 2.088e+04 3.616e-08
 43.96998    -23.4 1.962e+04 2.717e-08
 43.97523    -24.2 2.010e+04 3.170e-08
 43.97940    -23.9 1.923e+04 2.280e-08
 43.98465    -23.9 1.981e+04 2.756e-08
 43.99506    -23.8 1.864e+04 1.525e-08
 44.01086    -24.4 1.751e+04 8.204e-09
 44.02217    -26.6 1.445e+04 2.712e-09
 44.03076    -29.3 1.427e+04 1.773e-09
 44.04050    -27.9 1.594e+04 2.482e-09
 44.06350    -31.4 1.062e+04 6.546e-10
 44.09536    -31.7 8.740e+03 2.503e-10
 44.11636    -31.3 9.401e+03 4.435e-10
 44.14759    -29.9 8.625e+03 2.795e-10
 44.18257    -27.9 8.386e+03 2.612e-10
 44.20357    -28.3 8.412e+03 3.017e-10
 44.22571    -26.4 8.411e+03 3.146e-10
 44.24671    -25.7 8.233e+03 2.825e-10
 44.27358    -24.2 8.313e+03 3.034e-10
 44.31558    -22.9 8.548e+03 3.549e-10
 44.35326    -21.6 8.848e+03 4.325e-10
 44.37274    -21.8 8.394e+03 3.229e-10
 44.37705    -21.5 7.913e+03 2.284e-10
 44.39957    -20.3 8.080e+03 2.622e-10
 44.44157    -19.5 8.280e+03 2.950e-10
 44.48356    -18.7 8.451e+03 3.199e-10
 44.50740    -17.8 8.375e+03 3.097e-10
 44.52679    -17.4 8.049e+03 2.442e-10
 44.54496    -17.0 7.938e+03 2.291e-10
 44.56756    -16.2 7.988e+03 2.311e-10
 44.60955    -15.2 8.012e+03 2.304e-10
 44.63774    -14.2 8.033e+03 2.265e-10
 44.65874    -14.0 7.949e+03 2.116e-10
 44.69355    -13.3 8.052e+03 2.173e-10
 44.71565    -12.9 8.274e+03 2.404e-10
 44.73665    -13.3 8.804e+03 3.571e-10
 44.76809    -13.1 9.213e+03 4.707e-10
 44.78908    -13.0 8.916e+03 3.927e-10
 44.81954    -12.6 9.152e+03 4.568e-10
 44.86153    -12.1 9.339e+03 5.185e-10
 44.88635    -11.7 9.466e+03 5.118e-10
 44.90225    -12.0 9.411e+03 4.563e-10
 44.91943    -11.9 8.976e+03 3.328e-10
 44.94552    -11.3 8.913e+03 3.074e-10
 44.98752    -11.3 8.884e+03 2.889e-10
 45.02877    -11.6 8.906e+03 2.720e-10
 45.04977    -11.8 9.254e+03 3.634e-10
 45.05705    -12.0 9.662e+03 4.474e-10
 45.07805    -12.4 1.034e+04 7.182e-10
 45.11351    -12.1 1.031e+04 6.899e-10
 45.15551    -11.8 1.007e+04 5.434e-10
 45.18012    -11.8 9.786e+03 3.934e-10
 45.20112    -11.5 1.008e+04 4.586e-10
 45.22774    -11.6 9.770e+03 3.118e-10
 45.24874    -11.5 9.886e+03 3.232e-10
 45.28150    -10.9 9.530e+03 2.130e-10
 45.31046     -9.6 9.243e+03 1.425e-10
 45.33146     -9.5 9.387e+03 1.555e-10
 45.36549     -8.5 9.197e+03 1.001e-10
 45.39844     -7.8 9.259e+03 9.179e-11
 45.41944     -6.5 9.025e+03 6.912e-11
 45.44081     -5.8 9.054e+03 7.530e-11
 45.46180     -6.0 9.305e+03 1.044e-10
 45.49148     -5.5 9.423e+03 1.636e-10
 45.53347     -4.7 1.008e+04 3.381e-10
 45.56487     -3.7 1.033e+04 4.350e-10
 45.57944     -3.6 1.059e+04 5.251e-10
 45.58572     -2.2 1.032e+04 3.851e-10
 45.59205     -3.0 1.058e+04 4.932e-10
 45.60677     -3.1 1.084e+04 6.092e-10
 45.62777     -3.3 1.115e+04 7.254e-10
 45.64663     -3.5 1.147e+04 8.106e-10
 45.65713     -4.2 1.136e+04 7.234e-10
 45.66479     -5.1 1.134e+04 7.231e-10
 45.67529     -3.9 1.157e+04 8.258e-10
 45.69077     -4.9 1.146e+04 8.066e-10
 45.71176     -6.1 1.108e+04 7.330e-10
 45.73276     -7.3 1.036e+04 5.544e-10
 45.75014     -8.2 1.006e+04 4.418e-10
 45.76064     -7.0 1.028e+04 4.802e-10
 45.78536     -7.6 9.805e+03 3.091e-10
 45.82745     -9.5 9.109e+03 1.904e-10
 45.85284    -11.2 9.203e+03 2.004e-10
 45.87384    -10.9 9.257e+03 2.023e-10
 45.91053    -17.6 1.115e+04 5.290e-10
 45.93153    -16.0 1.127e+04 5.153e-10
 45.95344    -19.3 1.220e+04 1.766e-09
 45.98318    -19.7 1.179e+04 1.597e-09
 45.99358    -18.4 1.247e+04 2.468e-09
 46.00574    -18.9 1.225e+04 1.863e-09
 46.03733    -21.7 1.174e+04 8.661e-10
 46.07943    -26.2 9.504e+03 3.766e-10
 46.10222    -27.3 8.908e+03 2.263e-10
 46.11532    -26.3 8.862e+03 2.230e-10
 46.13452    -25.8 8.864e+03 2.215e-10
 46.16342    -26.6 8.867e+03 1.481e-10
 46.20542    -26.7 8.755e+03 1.420e-10
 46.24387    -26.4 8.803e+03 1.634e-10
 46.26487    -25.8 8.864e+03 1.635e-10
 46.27292    -25.3 9.364e+03 1.995e-10
 46.29392    -24.0 9.124e+03 1.702e-10
 46.33141    -23.9 9.630e+03 2.071e-10
 46.37340    -24.1 1.005e+04 3.193e-10
 46.39521    -22.4 9.894e+03 5.120e-10
 46.41621    -21.6 9.878e+03 4.904e-10
 46.44362    -19.6 9.738e+03 4.575e-10
 46.46461    -19.6 9.644e+03 4.389e-10
 46.49939    -16.6 9.310e+03 3.213e-10
 46.52556    -14.6 9.244e+03 1.796e-10
 46.54656    -14.0 9.239e+03 1.800e-10
 46.58339    -13.6 9.213e+03 1.078e-10
 46.61431    -12.7 8.876e+03 9.555e-11
 46.63531    -11.8 8.875e+03 1.013e-10
 46.65590    -10.5 8.764e+03 1.062e-10
 46.67690    -10.0 8.951e+03 1.116e-10
 46.70937     -8.7 8.966e+03 1.342e-10
 46.75137     -7.3 9.304e+03 1.719e-10
 46.78501     -7.0 9.913e+03 2.660e-10
 46.79889     -4.1 9.187e+03 1.292e-10
 46.80725     -4.4 9.650e+03 1.684e-10
 46.83536     -5.1 1.042e+04 2.936e-10
 46.87736     -4.8 1.066e+04 6.296e-10
 46.91659     -3.7 1.058e+04 8.366e-10
 46.93759     -3.2 1.054e+04 8.617e-10
 46.95076     -1.3 1.020e+04 7.287e-10
 46.96601     -1.3 1.029e+04 6.688e-10
 46.97661     -0.4 1.018e+04 6.010e-10
 47.00335      0.9 9.943e+03 4.636e-10
 47.04535      1.2 9.811e+03 2.713e-10
 47.06793      0.7 9.584e+03 1.777e-10
 47.08893      0.6 9.407e+03 1.674e-10
 47.12640      0.3 9.465e+03 1.749e-10
 47.14740      2.2 9.540e+03 1.952e-10
 47.17134      1.9 9.622e+03 2.023e-10
 47.19828      1.3 9.862e+03 2.505e-10
 47.21928      1.2 1.017e+04 3.203e-10
 47.24473      1.1 1.022e+04 3.380e-10
 47.26326      0.3 1.042e+04 4.186e-10
 47.27375      0.3 1.051e+04 4.729e-10
 47.28663     -0.5 1.054e+04 5.456e-10
 47.30740     -1.5 1.056e+04 6.129e-10
 47.31790     -0.8 1.076e+04 6.635e-10
 47.32843     -2.0 1.089e+04 8.021e-10
 47.33893     -2.0 1.098e+04 8.350e-10
 47.34963     -3.1 1.111e+04 9.355e-10
 47.37062     -4.7 1.107e+04 9.312e-10
 47.39162     -5.7 1.075e+04 8.467e-10
 47.40325     -6.8 1.033e+04 6.702e-10
 47.40523     -6.0 1.088e+04 8.690e-10
 47.41460     -5.6 1.086e+04 8.279e-10
 47.43362     -7.1 1.021e+04 6.615e-10
 47.45887     -8.4 9.449e+03 3.784e-10
 47.47997     -8.0 9.491e+03 3.432e-10
 47.48879     -9.3 8.684e+03 2.054e-10
 47.50979     -9.8 8.695e+03 2.075e-10
 47.54930    -10.2 8.519e+03 1.519e-10
 47.58931    -10.2 8.629e+03 1.610e-10
 47.61031    -10.8 8.667e+03 1.594e-10
 47.63330    -10.5 8.758e+03 1.982e-10
 47.65949     -9.3 8.778e+03 2.456e-10
 47.68049     -9.4 8.891e+03 2.753e-10
 47.71729     -8.2 8.849e+03 2.702e-10
 47.74065     -7.4 8.902e+03 2.504e-10
 47.76165     -7.1 8.546e+03 1.705e-10
 47.80128     -6.5 8.643e+03 1.566e-10
 47.83019     -5.9 8.793e+03 1.691e-10
 47.85118     -6.8 9.101e+03 2.248e-10
 47.87100     -6.1 9.431e+03 2.691e-10
 47.89200     -5.4 8.970e+03 1.649e-10
 47.92727     -5.0 9.464e+03 2.333e-10
 47.95867     -4.9 9.716e+03 2.953e-10
 47.97957     -5.2 9.938e+03 3.672e-10
 48.00057     -6.1 1.055e+04 6.048e-10
 48.01119     -6.7 1.114e+04 9.130e-10
 48.01177     -8.1 1.198e+04 1.374e-09
 48.02215     -7.3 1.170e+04 1.184e-09
 48.04257     -8.1 1.240e+04 1.687e-09
 48.06356     -8.0 1.278e+04 2.216e-09
 48.07682     -7.6 1.310e+04 2.660e-09
 48.08732     -6.8 1.285e+04 2.329e-09
 48.09653     -6.4 1.296e+04 2.399e-09
 48.10703     -6.7 1.245e+04 1.875e-09
 48.12656     -7.0 1.217e+04 1.529e-09
 48.14199     -7.9 1.174e+04 1.205e-09
 48.15249     -6.9 1.177e+04 1.258e-09
 48.16856     -7.6 1.138e+04 1.061e-09
 48.18188     -8.5 1.114e+04 9.626e-10
 48.19238     -9.2 1.074e+04 6.494e-10
 48.20716     -9.1 1.069e+04 6.072e-10
 48.21766     -7.7 1.062e+04 6.334e-10
 48.23155     -7.9 1.071e+04 6.418e-10
 48.26194     -8.3 1.076e+04 6.885e-10
 48.28303     -5.3 1.071e+04 6.814e-10
 48.30524     -5.3 1.131e+04 8.588e-10
 48.34228     -5.0 1.181e+04 1.226e-09
 48.36327     -5.5 1.023e+04 4.393e-10
 48.38923     -3.8 1.049e+04 6.178e-10
 48.41338     -2.2 1.076e+04 5.540e-10
 48.43437      0.0 1.101e+04 8.432e-10
 48.47323      1.3 1.111e+04 6.498e-10
 48.51297      1.2 1.126e+04 5.740e-10
 48.53397      1.0 1.046e+04 3.849e-10
 48.54372      0.6 1.095e+04 5.550e-10
 48.56472      3.6 1.091e+04 5.238e-10
 48.59921      3.2 1.132e+04 7.957e-10
 48.64121      4.2 1.178e+04 1.312e-09
 48.67406      5.7 1.202e+04 1.702e-09
 48.69506      7.3 1.197e+04 1.461e-09
 48.70467      8.8 1.179e+04 1.400e-09
 48.72566      9.2 1.116e+04 8.095e-10
 48.74964      9.6 1.130e+04 9.478e-10
 48.76004     10.3 1.107e+04 8.144e-10
 48.77750     11.0 1.099e+04 8.399e-10
 48.78982     12.0 1.074e+04 8.033e-10
 48.80032     12.5 1.062e+04 6.735e-10
 48.81471     13.5 1.043e+04 6.682e-10
 48.82521     14.0 1.019e+04 5.615e-10
 48.84050     14.9 1.014e+04 5.659e-10
 48.86150     15.9 1.009e+04 5.727e-10
 48.87517     16.9 1.004e+04 5.979e-10
 48.88306     17.2 1.019e+04 3.903e-10
 48.89038     18.0 1.008e+04 3.157e-10
 48.90349     18.8 1.020e+04 3.391e-10
 48.92449     19.7 1.028e+04 3.797e-10
 48.94506     20.4 1.041e+04 4.424e-10
 48.95565     21.0 1.026e+04 2.973e-10
 48.96061     21.8 1.036e+04 4.242e-10
 48.97101     21.6 1.078e+04 3.424e-10
 48.98749     22.4 1.105e+04 4.351e-10
 49.00848     23.4 1.119e+04 5.889e-10
 49.02073     24.6 1.126e+04 7.855e-10
 49.03123     25.2 1.094e+04 6.213e-10
 49.04586     26.4 1.092e+04 7.921e-10
 49.05636     26.6 1.087e+04 5.450e-10
 49.07148     27.8 1.108e+04 6.702e-10
 49.08590     29.1 1.118e+04 7.874e-10
 49.09640     29.8 1.056e+04 6.582e-10
 49.11348     31.1 1.057e+04 7.507e-10
 49.13121     32.3 1.061e+04 8.297e-10
 49.14171     32.3 1.142e+04 5.782e-10
 49.15107     33.5 1.168e+04 6.154e-10
 49.16157     34.1 1.099e+04 5.827e-10
 49.17647     34.9 1.131e+04 6.320e-10
 49.19747     34.0 1.359e+04 8.718e-10
 49.21625     29.3 2.090e+04 2.625e-09
 49.22484     34.5 1.492e+04 1.188e-09
 49.22706     31.5 1.620e+04 1.205e-09
 49.23946     28.3 2.006e+04 3.517e-09
 49.26046     26.4 2.061e+04 8.766e-09
 49.28142     26.9 1.963e+04 1.557e-08
 49.30186     29.3 1.945e+04 1.304e-08
 49.31241     29.7 1.811e+04 1.246e-08
 49.32346     29.8 1.720e+04 1.440e-08
 49.34446     29.9 1.698e+04 1.387e-08
 49.35709     29.2 1.718e+04 1.323e-08
 49.36759     31.3 1.706e+04 1.114e-08
 49.38645     29.2 1.809e+04 1.295e-08
 49.39776     27.3 1.897e+04 1.555e-08
 49.40825     29.5 1.758e+04 1.254e-08
 49.42226     27.8 1.852e+04 1.495e-08
 49.43276     29.1 1.850e+04 1.408e-08
 49.44038     27.9 1.880e+04 1.605e-08
 49.44558     28.3 1.848e+04 1.523e-08
 49.45460     28.3 1.845e+04 1.578e-08
 49.46000     28.4 1.836e+04 1.555e-08
 49.46525     28.5 1.835e+04 1.685e-08
 49.47560     28.3 1.849e+04 1.692e-08
 49.48301     28.5 1.837e+04 1.568e-08
 49.48826     28.9 1.871e+04 1.717e-08
 49.49259     28.6 1.917e+04 1.691e-08
 49.49783     28.9 1.880e+04 1.983e-08
 49.50709     29.1 1.913e+04 1.910e-08
 49.51759     28.6 1.967e+04 1.872e-08
 49.52517     28.3 1.993e+04 1.581e-08
 49.52801     29.4 1.924e+04 1.970e-08
 49.53093     29.9 1.932e+04 2.353e-08
 49.53859     29.4 1.987e+04 2.052e-08
 49.55256     28.5 1.955e+04 1.036e-08
 49.56310     30.9 1.961e+04 1.613e-08
 49.56845     28.4 2.136e+04 7.574e-09
 49.57365     25.4 2.265e+04 1.382e-08
 49.58059     22.7 2.300e+04 1.203e-08
 49.59639     14.8 2.585e+04 9.516e-09
 49.61743      5.0 2.006e+04 5.260e-09
 49.62828     -2.2 1.459e+04 3.280e-09
 49.63878     -3.2 1.446e+04 3.923e-09
 49.65380     -4.4 1.336e+04 3.138e-09
 49.66430     -6.1 1.373e+04 3.408e-09
 49.68043     -7.3 1.336e+04 2.462e-09
 49.69345     -9.1 1.283e+04 1.741e-09
 49.70395    -10.5 1.240e+04 1.395e-09
 49.72242    -12.3 1.144e+04 1.041e-09
 49.73915    -13.2 1.098e+04 9.146e-10
 49.74965    -16.2 1.081e+04 9.001e-10
 49.75862    -15.4 1.076e+04 9.084e-10
 49.76912    -15.8 1.073e+04 9.215e-10
 49.78542    -15.3 1.072e+04 9.400e-10
 49.80642    -14.9 1.059e+04 9.037e-10
 49.82379    -14.6 1.072e+04 9.057e-10
 49.83137    -14.2 1.097e+04 1.061e-09
 49.83500    -16.3 1.220e+04 1.374e-09
 49.84841    -17.2 1.315e+04 1.518e-09
 49.86941    -19.7 1.468e+04 2.120e-09
 49.88897    -22.8 1.594e+04 3.314e-09
 49.89947    -20.9 1.569e+04 3.275e-09
 49.90984    -23.1 1.648e+04 4.939e-09
 49.92034    -24.3 1.735e+04 9.022e-09
 49.93241    -24.6 1.797e+04 1.217e-08
 49.95340    -24.7 1.819e+04 1.348e-08
 49.96464    -24.7 1.800e+04 1.253e-08
 49.97514    -24.5 1.864e+04 1.434e-08
 49.99519    -24.8 1.840e+04 1.211e-08
 50.00569    -26.6 1.870e+04 1.296e-08
 50.01640    -28.0 1.760e+04 8.227e-09
 50.02981    -29.8 1.603e+04 4.602e-09
 50.04031    -28.8 1.701e+04 7.767e-09
 50.05840    -30.0 1.561e+04 4.513e-09
 50.07939    -31.3 1.412e+04 2.568e-09
 50.09104    -33.1 1.241e+04 1.490e-09
 50.09613    -33.7 1.189e+04 1.327e-09
 50.10548    -32.4 1.349e+04 2.032e-09
 50.12139    -34.2 1.189e+04 1.230e-09
 50.14239    -34.8 1.126e+04 1.002e-09
 50.16015    -35.0 1.099e+04 9.349e-10
 50.17065    -35.0 1.143e+04 1.155e-09
 50.17639    -34.7 1.112e+04 1.089e-09
 50.18689    -34.4 1.066e+04 7.783e-10
 50.20538    -33.3 1.046e+04 7.613e-10
 50.22533    -32.2 1.031e+04 7.366e-10
 50.23583    -32.0 1.061e+04 8.812e-10
 50.24738    -30.7 1.045e+04 8.150e-10
 50.26174    -29.6 1.032e+04 7.238e-10
 50.27224    -29.6 9.984e+03 5.101e-10
 50.28938    -28.8 9.936e+03 4.878e-10
 50.30100    -27.8 9.933e+03 4.783e-10
 50.31150    -27.6 1.015e+04 5.459e-10
 50.33137    -26.8 1.002e+04 5.099e-10
 50.34708    -25.5 9.956e+03 4.935e-10
 50.35758    -25.1 9.779e+03 4.209e-10
 50.36617    -24.6 9.729e+03 4.174e-10
 50.37667    -24.2 9.775e+03 4.271e-10
 50.39437    -22.8 9.887e+03 4.440e-10
 50.41537    -22.6 9.898e+03 4.571e-10
 50.43144    -21.8 1.049e+04 6.478e-10
 50.43811    -20.4 1.015e+04 4.988e-10
 50.45363    -19.7 9.888e+03 3.977e-10
 50.48905    -19.2 1.075e+04 6.448e-10
 50.51788    -18.4 1.158e+04 1.016e-09
 50.52828    -18.1 1.145e+04 9.343e-10
 50.54135    -19.6 1.208e+04 1.343e-09
 50.56169    -19.6 1.296e+04 2.401e-09
 50.57219    -19.0 1.275e+04 1.980e-09
 50.58335    -18.8 1.335e+04 3.130e-09
 50.60313    -17.5 1.387e+04 4.407e-09
 50.61363    -16.8 1.348e+04 3.799e-09
 50.62535    -15.6 1.356e+04 4.162e-09
 50.63736    -13.7 1.370e+04 4.235e-09
 50.64786    -13.1 1.365e+04 4.119e-09
 50.66734    -12.0 1.333e+04 3.073e-09
 50.68834    -11.7 1.296e+04 2.099e-09
 50.69898    -13.3 1.272e+04 1.597e-09
 50.70267    -12.1 1.178e+04 1.114e-09
 50.71303    -11.1 1.167e+04 1.128e-09
 50.73034    -12.3 1.098e+04 8.101e-10
 50.75134    -12.1 1.109e+04 8.102e-10
 50.76770    -12.0 1.099e+04 7.984e-10
 50.77820    -11.1 1.096e+04 7.902e-10
 50.78432    -10.5 1.114e+04 8.936e-10
 50.79482    -10.0 1.025e+04 5.569e-10
 50.81433     -9.0 1.027e+04 5.764e-10
 50.83287     -8.3 1.034e+04 6.017e-10
 50.84337     -7.5 1.038e+04 5.981e-10
 50.85633     -6.5 1.077e+04 6.842e-10
 50.86967     -7.0 1.215e+04 8.544e-10
 50.88017     -5.6 1.003e+04 5.100e-10
 50.89805     -5.1 1.074e+04 6.271e-10
 50.90855     -4.2 1.082e+04 6.341e-10
 50.91932     -6.3 1.385e+04 1.030e-09
 50.94032     -7.8 1.698e+04 2.507e-09
 50.95502     -8.8 1.721e+04 5.116e-09
 50.96552     -5.8 1.524e+04 1.309e-09
 50.97372     -8.3 1.748e+04 3.008e-09
 50.98422     -8.1 1.769e+04 3.743e-09
 51.00332     -8.1 1.757e+04 7.623e-09
 51.02431     -7.1 1.744e+04 1.215e-08
 51.03889     -7.1 1.701e+04 1.344e-08
 51.04445     -6.2 1.731e+04 1.600e-08
 51.05082     -7.5 1.682e+04 1.395e-08
 51.06096     -6.5 1.687e+04 1.480e-08
 51.07138     -6.3 1.670e+04 1.405e-08
 51.07663     -5.8 1.682e+04 1.438e-08
 51.08726     -5.4 1.676e+04 1.277e-08
 51.10406     -4.3 1.640e+04 9.227e-09
 51.11456     -3.9 1.652e+04 8.433e-09
 51.12572     -3.6 1.719e+04 4.043e-09
 51.13622     -2.7 1.576e+04 6.048e-09
 51.15030     -3.9 1.635e+04 2.653e-09
 51.16924     -8.8 1.390e+04 1.046e-09
 51.17973     -9.6 1.331e+04 9.742e-10
 51.19230    -11.5 1.118e+04 7.230e-10
 51.21107    -11.6 1.088e+04 6.903e-10
 51.22156    -10.3 1.124e+04 6.482e-10
 51.23430    -10.5 1.094e+04 6.260e-10
 51.24491    -10.3 1.074e+04 6.586e-10
 51.25541    -10.6 1.095e+04 7.708e-10
 51.27629    -10.4 1.087e+04 8.121e-10
 51.29641    -10.5 1.081e+04 8.495e-10
 51.30691    -10.3 1.112e+04 8.841e-10
 51.31008    -10.4 1.099e+04 9.469e-10
 51.32058    -10.6 1.130e+04 1.169e-09
 51.33929    -10.5 1.116e+04 1.183e-09
 51.36485     -9.9 1.117e+04 1.183e-09
 51.38585    -10.0 1.114e+04 1.200e-09
 51.39226     -9.3 1.107e+04 1.195e-09
 51.40276     -9.3 1.104e+04 1.176e-09
 51.42328     -9.1 1.097e+04 1.135e-09
 51.45487     -8.1 1.091e+04 1.091e-09
 51.47780     -6.7 1.079e+04 9.959e-10
 51.49713     -7.6 1.032e+04 6.859e-10
 51.51629     -7.3 9.452e+03 3.100e-10
 51.53897     -6.1 9.482e+03 3.128e-10
 51.58096     -4.9 9.684e+03 4.068e-10
 51.62296     -3.5 9.919e+03 5.491e-10
 51.64663     -2.0 1.032e+04 7.356e-10
 51.65118     -1.5 9.774e+03 4.682e-10
 51.66950     -2.6 1.063e+04 8.007e-10
 51.70695     -1.3 1.152e+04 1.387e-09
 51.73375      0.1 1.209e+04 1.870e-09
 51.74415     -0.4 1.235e+04 2.277e-09
 51.75925     -0.1 1.244e+04 2.547e-09
 51.77678      1.4 1.264e+04 2.855e-09
 51.78728      1.4 1.318e+04 3.738e-09
 51.80125      2.4 1.327e+04 3.716e-09
 51.81900      3.3 1.341e+04 3.366e-09
 51.82950      3.7 1.363e+04 3.185e-09
 51.84196      4.0 1.347e+04 2.302e-09
 51.85245      4.2 1.408e+04 3.503e-09
 51.86424      4.2 1.362e+04 2.436e-09
 51.88524      3.3 1.299e+04 1.677e-09
 51.90435      2.7 1.232e+04 1.209e-09
 51.91485      0.9 1.194e+04 1.014e-09
 51.91763      0.7 1.164e+04 8.765e-10
 51.92813      0.2 1.259e+04 1.265e-09
 51.94823      0.0 1.263e+04 1.219e-09
 51.96923     -0.7 1.313e+04 1.402e-09
 51.98280     -2.2 1.378e+04 1.907e-09
 51.99277     -3.3 1.443e+04 2.763e-09
 52.00020     -4.1 1.455e+04 4.316e-09
 52.01123     -4.4 1.524e+04 6.597e-09
 52.03223     -3.9 1.585e+04 9.697e-09
 52.04797     -2.0 1.627e+04 1.235e-08
 52.05847     -1.9 1.664e+04 1.323e-08
 52.07422     -0.3 1.687e+04 1.413e-08
 52.08555      1.7 1.619e+04 1.056e-08
 52.09605      2.3 1.650e+04 1.027e-08
 52.11314      3.6 1.627e+04 6.465e-09
 52.12364      2.0 1.633e+04 6.200e-09
 52.13722     -0.0 1.534e+04 3.708e-09
 52.15822     -2.0 1.375e+04 2.574e-09
 52.17089     -2.2 1.312e+04 2.285e-09
 52.18049     -2.5 1.313e+04 2.535e-09
 52.18882     -2.6 1.341e+04 2.961e-09
 52.20021     -1.8 1.327e+04 2.888e-09
 52.22121     -0.7 1.328e+04 2.892e-09
 52.24221     -0.0 1.338e+04 2.976e-09
 52.25399      0.7 1.327e+04 2.911e-09
 52.25752      0.5 1.352e+04 3.000e-09
 52.26674      0.2 1.346e+04 2.698e-09
 52.28421      1.0 1.347e+04 2.723e-09
 52.30520      1.8 1.333e+04 2.661e-09
 52.31916      2.8 1.317e+04 2.474e-09
 52.32966      2.4 1.324e+04 2.384e-09
 52.34159      3.1 1.300e+04 2.214e-09
 52.35209      2.7 1.272e+04 1.563e-09
 52.36820      3.5 1.250e+04 1.494e-09
 52.38433      4.1 1.226e+04 1.412e-09
 52.39483      3.6 1.229e+04 1.319e-09
 52.41020      4.3 1.210e+04 1.353e-09
 52.42694      4.9 1.187e+04 1.337e-09
 52.43744      4.7 1.190e+04 1.077e-09
 52.44950      5.5 1.168e+04 1.173e-09
 52.46000      5.1 1.182e+04 1.181e-09
 52.47319      6.1 1.176e+04 1.241e-09
 52.50189      7.5 1.163e+04 1.256e-09
 52.52298      7.4 1.185e+04 1.335e-09
 52.54688      9.7 1.173e+04 1.386e-09
 52.58004     12.0 1.150e+04 1.143e-09
 52.60104     11.6 1.144e+04 1.113e-09
 52.63087     13.4 1.098e+04 8.529e-10
 52.67268     15.3 1.060e+04 6.167e-10
 52.71020     18.3 1.069e+04 6.750e-10
 52.73139     18.2 1.038e+04 5.823e-10
 52.75686     20.5 1.008e+04 4.305e-10
 52.79886     22.4 9.946e+03 3.192e-10
 52.84073     24.1 9.798e+03 3.000e-10
 52.86425     25.5 9.841e+03 3.161e-10
 52.88537     25.5 1.005e+04 3.978e-10
 52.92485     27.4 1.027e+04 5.158e-10
 52.96684     29.3 1.042e+04 6.045e-10
 52.99208     31.0 1.047e+04 6.381e-10
 53.01307     30.6 1.033e+04 5.974e-10
 53.03507     32.1 1.028e+04 5.784e-10
 53.05607     32.4 1.029e+04 5.812e-10
 53.09283     33.8 1.006e+04 4.809e-10
 53.12242     35.3 9.752e+03 3.649e-10
 53.14342     34.7 9.437e+03 2.993e-10
 53.17683     36.0 9.248e+03 2.443e-10
 53.20577     37.4 9.083e+03 2.083e-10
 53.22677     37.0 8.999e+03 1.912e-10
 53.25276     38.6 8.942e+03 1.802e-10
 53.27376     38.3 8.918e+03 1.858e-10
 53.30282     40.0 8.931e+03 1.831e-10
 53.34481     41.8 8.951e+03 1.815e-10
 53.37646     43.5 8.980e+03 1.833e-10
 53.39376     43.1 8.972e+03 1.809e-10
 53.40411     42.5 8.865e+03 1.641e-10
 53.42880     44.2 8.856e+03 1.660e-10
 53.47080     46.0 8.834e+03 1.633e-10
 53.51280     47.9 8.806e+03 1.525e-10
 53.53445     49.9 8.761e+03 1.347e-10
 53.54782     49.2 8.538e+03 1.026e-10
 53.56816     49.2 8.465e+03 9.747e-11
 53.59679     51.1 8.443e+03 8.782e-11
 53.63879     53.0 8.494e+03 8.117e-11
 53.66480     55.0 8.530e+03 7.551e-11
 53.68579     54.4 8.651e+03 9.671e-11
 53.71786     56.4 8.785e+03 1.063e-10
 53.73885     56.4 8.903e+03 1.334e-10
 53.76478     58.4 9.055e+03 1.580e-10
 53.79514     60.5 9.193e+03 1.877e-10
 53.81614     60.0 9.602e+03 3.134e-10
 53.84877     61.8 9.691e+03 3.420e-10
 53.88855     63.5 9.776e+03 3.778e-10
 53.90955     63.7 1.014e+04 5.264e-10
 53.92549     65.1 1.019e+04 5.541e-10
 53.94648     64.2 1.008e+04 4.984e-10
 53.97476     65.5 1.003e+04 5.030e-10
 54.01675     66.7 9.958e+03 5.111e-10
 54.05583     67.9 9.889e+03 5.101e-10
 54.07683     67.0 9.811e+03 4.697e-10
 54.08025     68.3 9.904e+03 5.191e-10
 54.10125     68.4 9.852e+03 5.143e-10
 54.14274     69.6 9.957e+03 5.476e-10
 54.18474     70.7 1.016e+04 6.097e-10
 54.20717     71.6 1.048e+04 7.135e-10
 54.22817     71.1 1.071e+04 8.475e-10
 54.25094     71.8 1.109e+04 9.674e-10
 54.27194     71.3 1.145e+04 1.159e-09
 54.31073     71.6 1.153e+04 1.170e-09
 54.33752     72.0 1.138e+04 1.059e-09
 54.35851     71.4 1.099e+04 8.573e-10
 54.39472     71.9 1.064e+04 6.155e-10
 54.42164     72.4 1.019e+04 4.093e-10
 54.44264     71.8 1.019e+04 3.660e-10
 54.46786     72.1 9.741e+03 2.491e-10
 54.48886     71.7 9.324e+03 1.915e-10
 54.52071     72.6 9.153e+03 1.500e-10
 54.56271     73.9 9.104e+03 1.338e-10
 54.59234     75.3 9.155e+03 1.362e-10
 54.60684     73.7 9.293e+03 1.343e-10
 54.61920     73.7 9.161e+03 1.001e-10
 54.64670     74.3 9.535e+03 1.049e-10
 54.68870     73.6 1.129e+04 1.377e-10
 54.72855     71.8 1.451e+04 2.871e-10
 54.74955     74.7 1.131e+04 1.476e-10
 54.76303     73.9 1.345e+04 3.247e-10
 54.78393     69.2 1.570e+04 2.516e-09
 54.80399     69.6 1.632e+04 4.443e-09
 54.82499     71.0 1.596e+04 4.143e-09
 54.84599     71.7 1.636e+04 6.054e-09
 54.85868     72.6 1.674e+04 7.641e-09
 54.86918     72.5 1.744e+04 1.088e-08
 54.87970     73.4 1.743e+04 1.027e-08
 54.89020     74.0 1.714e+04 9.194e-09
 54.90898     74.8 1.707e+04 8.635e-09
 54.92998     75.3 1.694e+04 7.618e-09
 54.94403     75.4 1.676e+04 6.189e-09
 54.94842     73.6 1.636e+04 3.438e-09
 54.95537     74.9 1.692e+04 4.493e-09
 54.97198     73.9 1.627e+04 2.771e-09
 54.99298     72.3 1.505e+04 1.725e-09
 55.01004     70.8 1.356e+04 1.224e-09
 55.02054     72.0 1.472e+04 1.631e-09
 55.02938     70.7 1.323e+04 1.260e-09
 55.03988     68.5 1.172e+04 8.360e-10
 55.05597     68.9 1.164e+04 8.684e-10
 55.07521     69.5 1.163e+04 9.200e-10
 55.08571     69.8 1.159e+04 8.334e-10
 55.09797     70.5 1.155e+04 8.305e-10
 55.11473     71.1 1.154e+04 8.081e-10
 55.12523     70.3 1.133e+04 6.390e-10
 55.13996     70.8 1.120e+04 5.881e-10
 55.15089     71.2 1.104e+04 5.295e-10
 55.16138     71.1 1.093e+04 4.090e-10
 55.18196     71.3 1.075e+04 3.655e-10
 55.20008     71.3 1.060e+04 3.337e-10
 55.21058     70.6 1.050e+04 3.122e-10
 55.21606     71.2 1.037e+04 2.888e-10
 55.22656     71.2 1.033e+04 2.756e-10
 55.24496     71.6 1.028e+04 2.696e-10
 55.27083     72.8 1.022e+04 2.594e-10
 55.29040     73.6 1.035e+04 2.807e-10
 55.29612     73.3 1.042e+04 3.116e-10
 55.31864     74.5 1.039e+04 3.045e-10
 55.36064     75.4 1.038e+04 2.924e-10
 55.39204     75.4 1.042e+04 2.990e-10
 55.41157     75.1 1.054e+04 3.097e-10
 55.42207     75.8 1.072e+04 3.477e-10
 55.43394     75.1 1.091e+04 3.745e-10
 55.45494     74.3 1.095e+04 4.286e-10
 55.46662     73.5 1.099e+04 5.096e-10
 55.47712     71.0 1.128e+04 6.460e-10
 55.48725     67.8 1.298e+04 9.414e-10
 55.49775     66.3 1.414e+04 1.406e-09
 55.51793     62.1 1.571e+04 2.342e-09
 55.53893     58.4 1.639e+04 3.726e-09
 55.55197     55.9 1.639e+04 4.885e-09
 55.55496     52.6 1.638e+04 5.125e-09
 55.56292     52.2 1.652e+04 5.363e-09
 55.58093     50.7 1.579e+04 4.372e-09
 55.60193     49.2 1.495e+04 2.943e-09
 55.61759     47.0 1.383e+04 1.779e-09
 55.62809     46.4 1.348e+04 1.655e-09
 55.63732     44.6 1.222e+04 1.075e-09
 55.64782     42.8 1.150e+04 8.158e-10
 55.66492     42.9 1.107e+04 6.668e-10
 55.68276     43.7 1.075e+04 5.175e-10
 55.69326     44.2 1.071e+04 5.003e-10
 55.70692     44.6 1.052e+04 4.172e-10
 55.73851     46.0 1.022e+04 3.069e-10
 55.78061     48.0 9.809e+03 1.980e-10
 55.80821     49.7 9.467e+03 1.290e-10
 55.81991     48.9 9.234e+03 1.039e-10
 55.83430     49.9 9.236e+03 1.083e-10
 55.86460     51.8 9.144e+03 9.332e-11
 55.90659     53.9 8.991e+03 8.686e-11
 55.94365     56.2 8.953e+03 8.757e-11
 55.96465     57.1 8.989e+03 9.630e-11
 55.97891     59.3 8.972e+03 1.003e-10
 55.99990     59.0 9.090e+03 1.213e-10
 56.03258     61.3 9.060e+03 1.329e-10
 56.07399     63.6 9.038e+03 1.453e-10
 56.09499     64.3 9.119e+03 1.629e-10
 56.11658     66.6 9.061e+03 1.681e-10
 56.14960     68.8 9.029e+03 1.662e-10
 56.17060     68.5 9.055e+03 1.685e-10
 56.20057     70.5 8.986e+03 1.658e-10
 56.22533     72.5 8.950e+03 1.682e-10
 56.24633     72.9 8.965e+03 1.694e-10
 56.28456     74.8 8.962e+03 1.837e-10
 56.32030     76.8 9.030e+03 2.185e-10
 56.34130     76.6 9.144e+03 2.451e-10
 56.35568     78.6 9.232e+03 2.961e-10
 56.37668     79.1 9.228e+03 3.005e-10
 56.41055     80.8 9.213e+03 3.107e-10
 56.45255     82.6 9.164e+03 3.057e-10
 56.48602     84.5 8.971e+03 2.702e-10
 56.50347     84.9 8.905e+03 2.540e-10
 56.51199     85.0 8.810e+03 2.217e-10
 56.53654     87.0 8.544e+03 1.682e-10
 56.57854     88.9 8.270e+03 1.235e-10
 56.61637     90.8 7.978e+03 9.908e-11
 56.63737     91.2 7.980e+03 9.297e-11
 56.66169     93.3 7.799e+03 9.038e-11
 56.68269     93.4 7.788e+03 8.228e-11
 56.70453     95.7 7.783e+03 8.223e-11
 56.74652     98.1 7.780e+03 8.262e-11
 56.78852    100.7 7.732e+03 7.819e-11
 56.83052    103.0 7.725e+03 8.250e-11
 56.85339    105.2 7.733e+03 8.948e-11
 56.87438    105.2 7.700e+03 8.306e-11
 56.89805    107.3 7.716e+03 9.104e-11
 56.91905    107.5 7.715e+03 9.203e-11
 56.95651    109.7 7.759e+03 1.035e-10
 56.99850    111.9 7.828e+03 1.188e-10
 57.02408    114.0 7.921e+03 1.387e-10
 57.03298    113.8 7.841e+03 1.255e-10
 57.04940    114.0 7.857e+03 1.285e-10
 57.08249    116.2 7.934e+03 1.468e-10
 57.12449    118.3 8.021e+03 1.675e-10
 57.15874    120.5 8.103e+03 1.886e-10
 57.17974    120.6 8.085e+03 1.824e-10
 57.19478    122.8 8.139e+03 1.974e-10
 57.21578    122.9 7.908e+03 1.505e-10
 57.25048    125.1 7.907e+03 1.524e-10
 57.28909    127.2 7.908e+03 1.531e-10
 57.31009    127.3 7.919e+03 1.564e-10
 57.33447    129.5 7.927e+03 1.584e-10
 57.36547    131.7 7.942e+03 1.614e-10
 57.38647    131.9 7.749e+03 1.332e-10
 57.41847    134.2 7.793e+03 1.406e-10
 57.44043    136.4 7.850e+03 1.504e-10
 57.46143    136.7 7.936e+03 1.655e-10
 57.50246    139.0 7.989e+03 1.762e-10
 57.53617    141.2 8.049e+03 1.882e-10
 57.55717    141.5 8.039e+03 1.863e-10
 57.57078    143.7 8.150e+03 2.070e-10
 57.59177    144.2 8.176e+03 2.086e-10
 57.62845    146.4 8.318e+03 2.313e-10
 57.67044    148.7 8.509e+03 2.603e-10
 57.70112    150.9 8.771e+03 2.990e-10
 57.71654    151.6 8.778e+03 2.933e-10
 57.72787    151.4 9.007e+03 3.210e-10
 57.75444    153.2 9.259e+03 3.676e-10
 57.77669    153.9 9.306e+03 3.871e-10
 57.78710    154.0 9.322e+03 3.888e-10
 57.80252    154.6 9.459e+03 4.252e-10
 57.81302    154.0 9.616e+03 4.630e-10
 57.82774    154.3 9.829e+03 5.364e-10
 57.84177    154.7 1.008e+04 6.267e-10
 57.85227    154.9 1.022e+04 6.861e-10
 57.86973    155.3 1.052e+04 8.067e-10
 57.88787    155.7 1.082e+04 9.438e-10
 57.89837    154.9 1.102e+04 1.049e-09
 57.90694    155.3 1.125e+04 1.173e-09
 57.91744    155.6 1.139e+04 1.234e-09
 57.93273    156.0 1.154e+04 1.316e-09
 57.95373    156.4 1.169e+04 1.365e-09
 57.97211    156.8 1.181e+04 1.392e-09
 57.98110    156.6 1.187e+04 1.355e-09
 57.98372    155.6 1.169e+04 1.175e-09
 57.99572    155.5 1.171e+04 1.174e-09
 58.01672    155.2 1.176e+04 1.180e-09
 58.03728    154.8 1.186e+04 1.214e-09
 58.04778    154.4 1.188e+04 1.219e-09
 58.05856    153.8 1.211e+04 1.345e-09
 58.06906    152.3 1.195e+04 1.264e-09
 58.07971    151.3 1.255e+04 1.613e-09
 58.10071    149.8 1.371e+04 2.404e-09
 58.11296    147.9 1.552e+04 4.095e-09
 58.12346    148.5 1.514e+04 3.477e-09
 58.13741    147.1 1.651e+04 4.983e-09
 58.14544    146.3 1.706e+04 6.099e-09
 58.15069    146.7 1.671e+04 5.308e-09
 58.15431    145.8 1.770e+04 6.973e-09
 58.15956    145.5 1.765e+04 6.690e-09
 58.16886    144.6 1.862e+04 8.947e-09
 58.17803    143.8 1.932e+04 1.157e-08
 58.18328    144.3 1.902e+04 9.179e-09
 58.18986    143.5 1.973e+04 1.206e-08
 58.19699    142.7 2.028e+04 1.579e-08
 58.20224    142.6 2.030e+04 1.458e-08
 58.21062    141.6 2.127e+04 1.951e-08
 58.21587    140.8 2.278e+04 1.614e-08
 58.22136    137.3 2.542e+04 3.048e-08
 58.23185    132.6 2.640e+04 7.337e-08
 58.23964    129.0 2.652e+04 1.227e-07
 58.24224    127.6 2.667e+04 1.278e-07
 58.24493    124.5 2.544e+04 2.463e-07
 58.24840    120.2 2.282e+04 6.787e-07
 58.25103    118.5 2.268e+04 7.324e-07
 58.25543    115.1 2.045e+04 1.823e-06
 58.26068    112.9 1.954e+04 2.404e-06
 58.26358    111.2 1.951e+04 2.344e-06
 58.26497    110.7 1.988e+04 1.957e-06
 58.26732    109.7 2.026e+04 1.635e-06
 58.27383    109.5 1.991e+04 1.636e-06
 58.28104    108.2 2.042e+04 8.901e-07
 58.28427    105.5 2.125e+04 6.221e-07
 58.28759    102.7 2.299e+04 3.002e-07
 58.29485     98.7 2.437e+04 1.213e-07
 58.30535     94.0 2.597e+04 4.208e-08
 58.31362     89.1 2.642e+04 1.777e-08
 58.31887     85.4 2.294e+04 2.431e-08
 58.32501     84.0 2.274e+04 1.977e-08
 58.33026     83.2 2.198e+04 2.328e-08
 58.33685     82.8 2.235e+04 2.149e-08
 58.34621     82.4 2.276e+04 1.892e-08
 58.35146     83.0 2.268e+04 2.862e-08
 58.35784     83.0 2.301e+04 2.717e-08
 58.36768     82.8 2.351e+04 2.354e-08
 58.37293     82.5 2.354e+04 2.886e-08
 58.37880     82.1 2.377e+04 2.300e-08
 58.38930     82.6 2.393e+04 2.651e-08
 58.39984     82.2 2.347e+04 1.831e-08
 58.41034     81.7 2.267e+04 1.463e-08
 58.42089     80.9 2.237e+04 1.510e-08
 58.43668     79.5 2.061e+04 9.035e-09
 58.44932     78.0 1.826e+04 5.971e-09
 58.45452     78.3 1.942e+04 7.085e-09
 58.45828     77.5 1.872e+04 6.241e-09
 58.46353     77.2 1.866e+04 6.342e-09
 58.47863     76.5 1.744e+04 5.148e-09
 58.49580     75.6 1.598e+04 4.119e-09
 58.50630     74.3 1.545e+04 3.849e-09
 58.51449     73.9 1.501e+04 3.531e-09
 58.52499     74.1 1.485e+04 3.765e-09
 58.54168     73.6 1.495e+04 3.774e-09
 58.56267     73.2 1.519e+04 3.944e-09
 58.57966     72.6 1.541e+04 4.107e-09
 58.58764     72.4 1.537e+04 4.641e-09
 58.59165     72.0 1.552e+04 5.084e-09
 58.60467     71.3 1.604e+04 5.863e-09
 58.62567     70.3 1.639e+04 6.084e-09
 58.64483     68.9 1.639e+04 6.038e-09
 58.65533     69.3 1.636e+04 6.064e-09
 58.66650     67.8 1.630e+04 5.774e-09
 58.67700     68.2 1.622e+04 5.618e-09
 58.68866     66.9 1.579e+04 4.710e-09
 58.70966     65.5 1.522e+04 3.815e-09
 58.72050     64.2 1.469e+04 3.034e-09
 58.73100     63.1 1.397e+04 2.190e-09
 58.75166     60.9 1.312e+04 1.602e-09
 58.76235     58.7 1.232e+04 1.244e-09
 58.77285     58.9 1.183e+04 1.176e-09
 58.78568     57.3 1.161e+04 1.057e-09
 58.79618     56.6 1.160e+04 1.097e-09
 58.81465     55.8 1.162e+04 1.092e-09
 58.83565     55.0 1.164e+04 1.098e-09
 58.84770     54.4 1.169e+04 1.101e-09
 58.85240     55.8 1.176e+04 1.148e-09
 58.86135     55.4 1.194e+04 1.309e-09
 58.87765     54.9 1.190e+04 1.244e-09
 58.89865     54.5 1.181e+04 1.127e-09
 58.91602     54.0 1.168e+04 9.900e-10
 58.92652     53.0 1.171e+04 9.949e-10
 58.93304     52.1 1.151e+04 8.459e-10
 58.94354     53.6 1.170e+04 9.434e-10
 58.96164     52.4 1.153e+04 8.214e-10
 58.98119     50.9 1.134e+04 7.434e-10
 58.99169     49.7 1.132e+04 7.540e-10
 59.00364     48.4 1.116e+04 7.181e-10
 59.01839     47.0 1.114e+04 7.131e-10
 59.02889     48.5 1.130e+04 7.875e-10
 59.04563     47.0 1.130e+04 7.747e-10
 59.05686     45.3 1.141e+04 7.997e-10
 59.06736     45.6 1.114e+04 6.992e-10
 59.08763     44.1 1.118e+04 7.149e-10
 59.10374     42.5 1.130e+04 8.023e-10
 59.11424     44.0 1.119e+04 7.075e-10
 59.12204     42.7 1.153e+04 7.796e-10
 59.13254     43.5 1.117e+04 6.340e-10
 59.15062     42.8 1.123e+04 6.422e-10
 59.17681     43.3 1.111e+04 5.728e-10
 59.19427     43.6 1.075e+04 4.874e-10
 59.19959     44.4 1.076e+04 4.852e-10
 59.21362     44.6 1.062e+04 4.081e-10
 59.23462     44.7 1.043e+04 3.463e-10
 59.25238     44.8 1.018e+04 2.998e-10
 59.26288     45.5 1.023e+04 2.982e-10
 59.27444     45.4 1.009e+04 2.864e-10
 59.28494     46.6 1.019e+04 3.032e-10
 59.29761     46.6 1.024e+04 3.095e-10
 59.31755     46.1 1.051e+04 3.625e-10
 59.32805     47.5 1.043e+04 3.417e-10
 59.33961     45.9 1.140e+04 5.100e-10
 59.35979     43.8 1.215e+04 1.099e-09
 59.37028     45.9 1.199e+04 9.564e-10
 59.38160     43.6 1.412e+04 2.359e-09
 59.39318     37.5 1.980e+04 6.105e-09
 59.39838     40.1 1.752e+04 5.617e-09
 59.40761     35.8 2.089e+04 1.055e-08
 59.41286     38.4 2.008e+04 8.981e-09
 59.41825     31.1 2.541e+04 1.958e-08
 59.42571     23.6 2.788e+04 4.331e-08
 59.43096     24.6 2.944e+04 5.145e-08
 59.43925     18.2 2.753e+04 7.745e-08
 59.44975     13.6 2.584e+04 7.069e-08
 59.45554      9.4 2.379e+04 5.045e-08
 59.45883      9.5 2.471e+04 6.986e-08
 59.46355     10.2 2.672e+04 9.902e-08
 59.47075      5.5 2.368e+04 5.196e-08
 59.48125      3.0 2.104e+04 2.739e-08
 59.49089      1.2 1.970e+04 1.555e-08
 59.49614      0.5 1.988e+04 1.778e-08
 59.50754     -1.4 1.895e+04 9.450e-09
 59.52357     -4.7 1.611e+04 3.097e-09
 59.53407     -4.3 1.640e+04 4.991e-09
 59.54098     -6.3 1.397e+04 2.118e-09
 59.55148     -6.3 1.478e+04 3.418e-09
 59.57059     -6.2 1.321e+04 1.639e-09
 59.58874     -5.1 1.211e+04 8.371e-10
 59.59924     -4.0 1.271e+04 1.465e-09
 59.61258     -3.1 1.156e+04 8.612e-10
 59.62643     -0.6 1.040e+04 4.163e-10
 59.63693     -0.7 1.096e+04 5.425e-10
 59.65391     -0.6 1.048e+04 4.626e-10
 59.66441      0.1 1.083e+04 5.671e-10
 59.68618      2.5 9.946e+03 3.274e-10
 59.71928      4.3 9.212e+03 1.923e-10
 59.74028      5.3 9.676e+03 2.891e-10
 59.77027      7.3 9.178e+03 2.130e-10
 59.79722      9.9 9.139e+03 2.135e-10
 59.81822     11.0 9.745e+03 3.149e-10
 59.84963     13.6 9.999e+03 3.610e-10
 59.87053     13.2 1.049e+04 4.966e-10
 59.88237     14.4 1.071e+04 5.930e-10
 59.89287     14.8 1.116e+04 7.791e-10
 59.90656     16.3 1.154e+04 9.375e-10
 59.92510     17.5 1.187e+04 1.057e-09
 59.93560     16.7 1.252e+04 1.529e-09
 59.94856     17.0 1.299e+04 1.854e-09
 59.96772     17.1 1.360e+04 2.418e-09
 59.97822     16.8 1.395e+04 2.956e-09
 59.99027     16.9 1.471e+04 4.204e-09
 60.00077     16.8 1.442e+04 3.906e-09
 60.01155     17.3 1.526e+04 5.453e-09
 60.03255     17.4 1.626e+04 7.663e-09
 60.05307     16.8 1.761e+04 1.087e-08
 60.06357     16.5 1.781e+04 1.107e-08
 60.06595     14.8 1.920e+04 1.463e-08
 60.07644     12.9 1.840e+04 7.753e-09
 60.09554     11.3 1.874e+04 9.425e-09
 60.11654     10.1 1.846e+04 9.077e-09
 60.13112      8.9 1.790e+04 7.794e-09
 60.14162      6.6 1.539e+04 4.363e-09
 60.14892      3.5 1.517e+04 3.820e-09
 60.15942      3.2 1.467e+04 3.546e-09
 60.17954     -0.4 1.484e+04 3.577e-09
 60.19629     -2.8 1.422e+04 3.579e-09
 60.20679     -2.0 1.377e+04 2.885e-09
 60.22153     -2.6 1.331e+04 2.798e-09
 60.23427     -2.4 1.292e+04 2.483e-09
 60.24476     -1.8 1.276e+04 2.305e-09
 60.26146     -1.8 1.240e+04 1.689e-09
 60.27196     -1.7 1.201e+04 1.471e-09
 60.28453     -2.3 1.153e+04 1.103e-09
 60.30553     -2.9 1.091e+04 7.848e-10
 60.31961     -3.1 1.029e+04 5.813e-10
 60.33011     -2.7 1.019e+04 5.421e-10
 60.35812     -2.0 9.778e+03 3.881e-10
 60.39200     -0.6 9.094e+03 2.570e-10
 60.41300      0.0 9.146e+03 2.719e-10
 60.44221      0.6 8.776e+03 1.900e-10
 60.48001      1.2 8.577e+03 1.564e-10
 60.50100      2.2 8.770e+03 1.942e-10
 60.52235      3.1 8.719e+03 1.815e-10
 60.54335      3.9 8.752e+03 2.027e-10
 60.56820      4.4 8.705e+03 1.746e-10
 60.61020      4.8 8.554e+03 1.644e-10
 60.65070      5.4 8.438e+03 1.637e-10
 60.67170      6.2 8.657e+03 1.956e-10
 60.67369      7.2 8.478e+03 1.835e-10
 60.69469      7.5 8.400e+03 1.805e-10
 60.73618      8.8 8.214e+03 1.527e-10
 60.77818     10.0 8.042e+03 1.240e-10
 60.80403     11.1 7.936e+03 1.073e-10
 60.82503     11.4 7.935e+03 1.112e-10
 60.84240     12.7 7.818e+03 1.020e-10
 60.86340     13.5 7.818e+03 1.001e-10
 60.90417     15.1 7.732e+03 9.507e-11
 60.93438     16.8 7.743e+03 9.661e-11
 60.95538     17.1 7.734e+03 9.994e-11
 60.98816     18.8 7.796e+03 1.053e-10
 61.01309     19.7 8.134e+03 1.313e-10
 61.03409     20.6 8.125e+03 1.290e-10
 61.06472     20.7 9.154e+03 3.024e-10
 61.08572     21.3 8.513e+03 1.869e-10
 61.11415     21.8 1.007e+04 5.248e-10
 61.15615     22.8 1.167e+04 1.286e-09
 61.18369     23.4 1.198e+04 1.538e-09
 61.19409     23.8 1.202e+04 1.558e-09
 61.20537     23.9 1.248e+04 1.971e-09
 61.21597     23.9 1.157e+04 1.233e-09
 61.22955     23.5 1.233e+04 1.772e-09
 61.25045     23.4 1.271e+04 2.111e-09
 61.26894     23.0 1.303e+04 2.381e-09
 61.27854     23.0 1.334e+04 2.647e-09
 61.28104     22.8 1.289e+04 2.222e-09
 61.29244     22.6 1.320e+04 2.609e-09
 61.31344     22.5 1.333e+04 2.787e-09
 61.33444     22.3 1.331e+04 2.746e-09
 61.34621     22.3 1.319e+04 2.545e-09
 61.35557     22.3 1.304e+04 2.435e-09
 61.36479     22.4 1.326e+04 2.655e-09
 61.37644     22.3 1.309e+04 2.373e-09
 61.39743     22.3 1.281e+04 2.023e-09
 61.41139     22.3 1.252e+04 1.728e-09
 61.42189     22.7 1.237e+04 1.675e-09
 61.43943     23.0 1.204e+04 1.404e-09
 61.45014     23.3 1.173e+04 1.171e-09
 61.46064     23.8 1.175e+04 1.196e-09
 61.47656     24.4 1.149e+04 9.735e-10
 61.48706     24.8 1.130e+04 9.366e-10
 61.50242     25.1 1.112e+04 7.774e-10
 61.52342     25.6 1.119e+04 7.685e-10
 61.53549     25.9 1.114e+04 7.627e-10
 61.54330     26.7 1.083e+04 6.241e-10
 61.55223     27.3 1.070e+04 5.880e-10
 61.56542     28.1 1.083e+04 6.254e-10
 61.58642     29.0 1.089e+04 6.574e-10
 61.60690     30.2 1.112e+04 7.467e-10
 61.61740     30.9 1.092e+04 6.703e-10
 61.62083     32.2 1.115e+04 7.543e-10
 61.63133     32.8 1.069e+04 5.694e-10
 61.64941     33.7 1.102e+04 6.573e-10
 61.67041     34.3 1.148e+04 8.403e-10
 61.68258     34.7 1.205e+04 1.171e-09
 61.69307     35.2 1.207e+04 1.150e-09
 61.70618     35.4 1.280e+04 1.769e-09
 61.71668     36.1 1.219e+04 1.257e-09
 61.73340     36.5 1.306e+04 2.008e-09
 61.74775     37.0 1.409e+04 3.366e-09
 61.75825     37.2 1.413e+04 3.260e-09
 61.77540     37.9 1.515e+04 5.299e-09
 61.79153     38.8 1.619e+04 7.829e-09
 61.80203     39.1 1.526e+04 5.065e-09
 61.81292     39.1 1.627e+04 7.163e-09
 61.82342     39.3 1.604e+04 6.281e-09
 61.83840     38.7 1.703e+04 8.978e-09
 61.85939     38.0 1.781e+04 1.184e-08
 61.87688     37.4 1.838e+04 1.440e-08
 61.88508     36.8 1.791e+04 1.278e-08
 61.88859     35.9 1.795e+04 1.263e-08
 61.90139     36.1 1.851e+04 1.613e-08
 61.92239     36.0 1.852e+04 1.599e-08
 61.94326     35.9 1.834e+04 1.407e-08
 61.95376     35.6 1.838e+04 1.487e-08
 61.96223     35.1 1.827e+04 1.284e-08
 61.97273     35.8 1.791e+04 1.174e-08
 61.98538     34.9 1.780e+04 9.569e-09
 62.00638     33.4 1.749e+04 8.733e-09
 62.01894     32.5 1.727e+04 8.730e-09
 62.02943     31.8 1.726e+04 8.452e-09
 62.04758     31.2 1.716e+04 8.685e-09
 62.05808     31.3 1.664e+04 7.188e-09
 62.06938     31.4 1.676e+04 7.843e-09
 62.08411     31.8 1.678e+04 7.827e-09
 62.09461     30.4 1.693e+04 8.314e-09
 62.11137     30.7 1.686e+04 7.999e-09
 62.13237     31.1 1.656e+04 7.167e-09
 62.14342     31.3 1.617e+04 6.166e-09
 62.14983     33.3 1.616e+04 6.075e-09
 62.15978     30.8 1.660e+04 6.976e-09
 62.17437     28.2 1.866e+04 6.374e-09
 62.18605     21.5 2.242e+04 6.934e-09
 62.18825     21.0 2.391e+04 7.931e-09
 62.19227     14.5 2.838e+04 1.097e-08
 62.20052      0.0 3.495e+04 2.310e-08
 62.21102     -8.9 2.871e+04 6.983e-08
 62.21960    -14.0 2.373e+04 1.655e-07
 62.22485    -15.1 2.245e+04 1.603e-07
 62.22867    -16.7 2.160e+04 2.059e-07
 62.23392    -16.8 2.152e+04 2.268e-07
 62.24251    -17.3 2.195e+04 2.115e-07
 62.25219    -17.8 2.456e+04 1.189e-07
 62.25744    -20.2 2.696e+04 5.268e-08
 62.26351    -27.2 2.828e+04 1.856e-08
 62.27135    -38.8 2.064e+04 6.630e-09
 62.27660    -44.0 1.662e+04 4.773e-09
 62.28451    -45.6 1.549e+04 3.809e-09
 62.29007    -48.2 1.365e+04 2.717e-09
 62.30062    -47.2 1.316e+04 1.951e-09
 62.31412    -48.4 1.207e+04 1.357e-09
 62.32462    -48.2 1.192e+04 1.226e-09
 62.34235    -48.2 1.139e+04 9.326e-10
 62.35530    -48.5 1.126e+04 7.850e-10
 62.36579    -47.1 1.080e+04 6.876e-10
 62.38435    -47.3 1.078e+04 6.452e-10
 62.39947    -47.7 1.115e+04 6.689e-10
 62.40997    -46.6 1.073e+04 5.693e-10
 62.42047    -47.1 1.125e+04 6.602e-10
 62.43097    -45.5 1.079e+04 5.470e-10
 62.44734    -45.6 1.118e+04 7.076e-10
 62.46834    -45.2 1.152e+04 9.607e-10
 62.48482    -44.3 1.179e+04 1.233e-09
 62.49161    -43.9 1.170e+04 1.065e-09
 62.49614    -43.2 1.138e+04 8.864e-10
 62.51034    -42.8 1.178e+04 1.165e-09
 62.53134    -42.3 1.210e+04 1.457e-09
 62.55081    -41.8 1.229e+04 1.663e-09
 62.56131    -41.7 1.227e+04 1.634e-09
 62.57026    -41.2 1.247e+04 1.739e-09
 62.58076    -42.1 1.285e+04 2.079e-09
 62.59433    -42.1 1.315e+04 2.334e-09
 62.61533    -42.1 1.336e+04 2.470e-09
 62.62648    -42.4 1.350e+04 2.414e-09
 62.63698    -41.5 1.294e+04 1.888e-09
 62.65551    -42.1 1.288e+04 1.666e-09
 62.66601    -42.8 1.334e+04 1.910e-09
 62.67832    -43.7 1.295e+04 1.603e-09
 62.69166    -44.2 1.252e+04 1.418e-09
 62.70216    -44.2 1.183e+04 1.046e-09
 62.72032    -44.2 1.168e+04 9.946e-10
 62.74086    -44.0 1.145e+04 9.477e-10
 62.75136    -45.6 1.115e+04 8.538e-10
 62.75683    -44.8 1.097e+04 8.154e-10
 62.76733    -44.4 1.059e+04 6.734e-10
 62.78332    -43.7 1.050e+04 6.613e-10
 62.80431    -43.0 1.045e+04 6.621e-10
 62.82200    -42.0 1.050e+04 6.805e-10
 62.83250    -41.8 1.028e+04 5.986e-10
 62.83671    -41.1 1.020e+04 5.883e-10
 62.84721    -42.1 9.896e+03 4.829e-10
 62.86731    -41.2 9.890e+03 4.693e-10
 62.88717    -40.7 9.789e+03 4.438e-10
 62.89767    -40.5 9.723e+03 4.172e-10
 62.90931    -39.5 9.709e+03 3.865e-10
 62.92206    -39.3 9.636e+03 3.761e-10
 62.93265    -40.5 9.438e+03 3.275e-10
 62.95254    -39.8 9.149e+03 2.606e-10
 62.97354    -39.1 9.449e+03 3.232e-10
 63.00399    -38.0 9.398e+03 3.081e-10
 63.04599    -36.8 9.469e+03 3.108e-10
 63.08245    -36.0 9.674e+03 3.694e-10
 63.09835    -36.5 9.663e+03 3.838e-10
 63.10379    -36.1 9.707e+03 4.368e-10
 63.11929    -35.4 9.854e+03 5.235e-10
 63.14029    -34.9 1.004e+04 5.876e-10
 63.15836    -34.3 1.030e+04 6.468e-10
 63.16886    -35.8 1.120e+04 7.959e-10
 63.17810    -36.2 1.190e+04 9.417e-10
 63.18860    -37.8 1.301e+04 1.511e-09
 63.20328    -37.9 1.326e+04 1.724e-09
 63.22353    -37.7 1.330e+04 1.791e-09
 63.23403    -38.9 1.409e+04 3.456e-09
 63.24528    -38.0 1.383e+04 3.303e-09
 63.26345    -37.4 1.360e+04 3.021e-09
 63.27395    -37.2 1.374e+04 3.551e-09
 63.28727    -37.0 1.338e+04 3.074e-09
 63.29920    -36.7 1.310e+04 2.675e-09
 63.30970    -37.0 1.278e+04 2.834e-09
 63.32927    -36.3 1.253e+04 2.552e-09
 63.34880    -35.5 1.238e+04 2.444e-09
 63.35930    -35.4 1.192e+04 2.065e-09
 63.36438    -34.3 1.174e+04 1.936e-09
 63.37488    -34.2 1.129e+04 1.443e-09
 63.39226    -33.1 1.121e+04 1.353e-09
 63.41326    -32.0 1.118e+04 1.267e-09
 63.42955    -30.8 1.119e+04 1.146e-09
 63.43993    -31.9 1.080e+04 6.129e-10
 63.44464    -32.8 1.037e+04 4.847e-10
 63.45526    -31.8 1.044e+04 4.199e-10
 63.47626    -31.3 1.042e+04 3.436e-10
 63.49472    -31.0 1.041e+04 2.936e-10
 63.50522    -32.9 9.207e+03 2.690e-10
 63.51825    -32.4 9.150e+03 2.507e-10
 63.52999    -31.9 9.126e+03 2.357e-10
 63.54049    -32.3 9.152e+03 2.470e-10
 63.55989    -31.7 9.168e+03 2.403e-10
 63.57039    -32.1 9.310e+03 3.160e-10
 63.58125    -31.6 9.484e+03 3.355e-10
 63.60225    -31.2 9.681e+03 3.656e-10
 63.61534    -30.8 9.935e+03 4.090e-10
 63.62584    -31.0 1.004e+04 4.672e-10
 63.63556    -30.6 1.020e+04 5.237e-10
 63.64606    -31.6 1.060e+04 6.937e-10
 63.66524    -30.9 1.073e+04 7.735e-10
 63.68624    -30.3 1.082e+04 8.266e-10
 63.70069    -29.6 1.097e+04 8.780e-10
 63.71119    -30.5 1.091e+04 8.938e-10
 63.72824    -30.2 1.091e+04 8.408e-10
 63.74923    -30.0 1.077e+04 8.280e-10
 63.76591    -29.8 1.071e+04 8.350e-10
 63.77641    -30.2 1.047e+04 6.396e-10
 63.78604    -30.0 1.061e+04 6.299e-10
 63.79654    -30.4 1.060e+04 6.057e-10
 63.81223    -30.5 1.102e+04 6.141e-10
 63.83108    -30.8 1.129e+04 6.326e-10
 63.84158    -32.9 1.069e+04 4.102e-10
 63.85422    -33.1 1.033e+04 4.583e-10
 63.87139    -32.8 1.016e+04 5.267e-10
 63.88188    -33.0 1.012e+04 5.062e-10
 63.89622    -32.1 1.020e+04 5.757e-10
 63.91722    -31.4 1.029e+04 4.124e-10
 63.93822    -31.0 1.034e+04 4.159e-10
 63.95673    -29.9 1.045e+04 4.145e-10
 63.97783    -30.2 1.043e+04 3.688e-10
 64.01191    -29.0 1.044e+04 3.678e-10
 64.03720    -28.0 1.022e+04 3.958e-10
 64.05819    -27.8 1.011e+04 3.739e-10
 64.09590    -26.2 1.025e+04 4.346e-10
 64.12730    -25.2 1.030e+04 4.769e-10
 64.13793    -24.6 1.046e+04 5.289e-10
 64.14843    -24.3 1.044e+04 5.278e-10
 64.16744    -23.5 1.041e+04 6.396e-10
 64.18854    -22.7 1.011e+04 4.769e-10
 64.21129    -21.2 1.013e+04 5.522e-10
 64.22328    -20.4 1.018e+04 5.638e-10
 64.23378    -20.1 1.028e+04 5.985e-10
 64.26379    -18.5 9.969e+03 4.701e-10
 64.29798    -16.5 9.896e+03 3.574e-10
 64.31142    -16.8 9.549e+03 2.339e-10
 64.31932    -15.5 9.582e+03 2.401e-10
 64.34788    -14.4 9.624e+03 2.293e-10
 64.38987    -13.5 9.770e+03 2.452e-10
 64.42833    -12.3 9.942e+03 2.963e-10
 64.44932    -12.3 9.783e+03 2.949e-10
 64.46902     -9.9 1.014e+04 3.931e-10
 64.49002     -9.6 1.023e+04 3.942e-10
 64.50390     -8.2 1.040e+04 4.235e-10
 64.51430     -8.3 1.044e+04 4.209e-10
 64.52617     -7.2 1.062e+04 4.375e-10
 64.54717     -6.3 1.096e+04 4.610e-10
 64.56467     -6.1 1.142e+04 5.172e-10
 64.57517     -6.3 1.148e+04 5.109e-10
 64.57947     -6.4 1.209e+04 6.448e-10
 64.58997     -7.3 1.232e+04 7.420e-10
 64.61016     -7.3 1.311e+04 1.043e-09
 64.63116     -7.8 1.432e+04 1.606e-09
 64.64465     -8.5 1.575e+04 2.747e-09
 64.65301    -10.0 1.735e+04 4.707e-09
 64.66052    -11.0 1.752e+04 6.763e-09
 64.67316    -11.5 1.958e+04 1.345e-08
 64.68886    -13.0 2.128e+04 2.088e-08
 64.69784    -13.0 2.185e+04 2.631e-08
 64.70309    -13.1 2.167e+04 2.770e-08
 64.70972    -13.0 2.219e+04 3.184e-08
 64.71497    -13.0 2.135e+04 4.944e-08
 64.72030    -13.3 2.214e+04 5.147e-08
 64.73080    -13.9 2.230e+04 4.794e-08
 64.74052    -14.3 2.205e+04 3.984e-08
 64.74577    -14.4 2.131e+04 3.916e-08
 64.74756    -15.0 2.088e+04 3.147e-08
 64.75281    -14.6 2.060e+04 3.799e-08
 64.76230    -15.1 2.032e+04 3.113e-08
 64.77494    -15.7 1.954e+04 1.956e-08
 64.78533    -16.3 1.971e+04 1.874e-08
 64.78844    -16.6 1.929e+04 1.601e-08
 64.79910    -16.7 1.905e+04 1.356e-08
 64.82014    -17.5 1.806e+04 9.672e-09
 64.83121    -18.5 1.701e+04 7.369e-09
 64.84073    -18.2 1.714e+04 6.963e-09
 64.85066    -19.0 1.682e+04 5.696e-09
 64.86214    -19.1 1.654e+04 5.867e-09
 64.88314    -18.9 1.629e+04 6.130e-09
 64.90414    -18.4 1.603e+04 6.298e-09
 64.91583    -17.7 1.597e+04 6.436e-09
 64.91776    -17.9 1.639e+04 6.323e-09
 64.92706    -18.9 1.659e+04 4.855e-09
 64.94613    -18.7 1.692e+04 6.080e-09
 64.96713    -18.7 1.713e+04 7.294e-09
 64.98101    -18.8 1.753e+04 8.983e-09
 64.99151    -20.2 1.770e+04 6.994e-09
 65.00191    -20.2 1.804e+04 9.195e-09
 65.01241    -21.3 1.725e+04 5.366e-09
 65.03013    -20.9 1.768e+04 6.782e-09
 65.04618    -20.1 1.810e+04 8.078e-09
 65.05668    -21.3 1.561e+04 3.108e-09
 65.07212    -20.6 1.550e+04 2.888e-09
 65.08726    -20.2 1.536e+04 2.472e-09
 65.09776    -22.5 1.229e+04 8.873e-10
 65.11135    -22.4 1.212e+04 7.719e-10
 65.12185    -23.5 1.067e+04 5.088e-10
 65.13512    -23.0 1.045e+04 4.621e-10
 65.15611    -22.7 1.029e+04 4.349e-10
 65.17261    -21.6 9.992e+03 3.756e-10
 65.18252    -21.6 9.747e+03 3.437e-10
 65.18702    -21.3 9.615e+03 3.342e-10
 65.19811    -21.0 9.707e+03 3.279e-10
 65.21911    -19.5 9.576e+03 2.711e-10
 65.24011    -19.3 9.625e+03 2.659e-10
 65.25229    -17.8 9.494e+03 2.194e-10
 65.27339    -16.8 9.444e+03 2.198e-10
 65.31380    -15.3 9.264e+03 1.836e-10
 65.34350    -13.6 9.139e+03 1.715e-10
 65.36450    -13.5 9.008e+03 1.624e-10
 65.38273    -11.6 8.972e+03 1.579e-10
 65.40373    -10.9 9.005e+03 1.558e-10
 65.43979     -8.9 8.954e+03 1.471e-10
 65.48178     -6.8 8.986e+03 1.447e-10
 65.51308     -4.9 9.046e+03 1.470e-10
 65.52449     -4.5 9.003e+03 1.384e-10
 65.53519     -4.8 8.910e+03 1.337e-10
 65.56578     -3.4 9.087e+03 1.512e-10
 65.60777     -2.2 9.540e+03 2.130e-10
 65.64342     -2.1 1.018e+04 3.386e-10
 65.66442     -1.7 1.021e+04 3.329e-10
 65.68117     -2.5 1.067e+04 5.164e-10
 65.69519     -2.8 1.107e+04 7.363e-10
 65.70569     -3.3 1.107e+04 7.580e-10
 65.71890     -3.4 1.153e+04 1.055e-09
 65.72940     -3.3 1.159e+04 1.046e-09
 65.74406     -3.3 1.181e+04 1.326e-09
 65.76506     -3.4 1.180e+04 1.313e-09
 65.78054     -3.3 1.155e+04 1.196e-09
 65.78905     -3.6 1.135e+04 1.118e-09
 65.79457     -3.2 1.124e+04 1.064e-09
 65.80706     -3.2 1.094e+04 8.502e-10
 65.82806     -3.7 1.068e+04 6.354e-10
 65.84906     -5.0 1.023e+04 4.342e-10
 65.85974     -5.9 9.881e+03 3.629e-10
 65.86608     -5.7 9.934e+03 3.783e-10
 65.87649     -5.5 9.843e+03 3.446e-10
 65.90175     -5.9 9.360e+03 2.551e-10
 65.92511     -5.6 8.921e+03 1.826e-10
 65.94611     -5.1 9.152e+03 2.203e-10
 65.98574     -4.4 8.732e+03 1.511e-10
 66.02628     -3.8 8.455e+03 1.205e-10
 66.04728     -3.4 8.274e+03 9.460e-11
 66.05545     -2.6 8.287e+03 9.608e-11
 66.07645     -2.2 8.536e+03 1.276e-10
 66.11173     -1.3 8.608e+03 1.404e-10
 66.15373     -0.3 8.670e+03 1.507e-10
 66.18580      0.7 8.659e+03 1.493e-10
 66.20680      1.2 8.989e+03 2.266e-10
 66.21798      2.3 8.896e+03 2.101e-10
 66.23898      2.7 8.885e+03 2.083e-10
 66.27971      3.8 8.727e+03 1.711e-10
 66.31614      4.6 8.591e+03 1.322e-10
 66.33714      4.9 9.070e+03 2.242e-10
 66.36371      5.3 8.930e+03 1.947e-10
 66.38867      5.8 8.808e+03 1.918e-10
 66.40967      6.4 8.825e+03 1.965e-10
 66.44649      7.3 8.795e+03 2.040e-10
 66.46749      8.0 9.225e+03 3.395e-10
 66.48970      9.1 9.128e+03 3.260e-10
 66.53169     10.3 9.052e+03 2.992e-10
 66.55937     11.4 9.069e+03 2.696e-10
 66.58037     11.9 9.068e+03 2.587e-10
 66.59783     13.0 9.124e+03 2.597e-10
 66.61883     13.2 9.099e+03 2.237e-10
 66.65768     13.8 9.223e+03 2.397e-10
 66.69968     14.4 9.624e+03 3.055e-10
 66.72808     14.7 9.879e+03 3.838e-10
 66.73747     15.3 9.831e+03 3.686e-10
 66.75107     15.5 1.023e+04 4.950e-10
 66.77308     15.7 1.050e+04 5.982e-10
 66.79315     15.7 1.095e+04 7.605e-10
 66.80365     16.0 1.066e+04 6.742e-10
 66.81497     15.8 1.116e+04 8.467e-10
 66.82572     15.5 1.179e+04 1.099e-09
 66.83622     15.1 1.235e+04 1.487e-09
 66.85697     14.7 1.293e+04 1.952e-09
 66.86882     14.2 1.352e+04 2.566e-09
 66.87932     15.0 1.318e+04 2.080e-09
 66.89897     14.4 1.376e+04 2.657e-09
 66.91107     13.8 1.445e+04 3.358e-09
 66.92157     14.0 1.431e+04 3.350e-09
 66.93400     13.5 1.481e+04 3.994e-09
 66.94449     14.1 1.431e+04 3.217e-09
 66.96196     13.8 1.472e+04 3.869e-09
 66.98296     13.6 1.508e+04 4.453e-09
 66.99642     13.6 1.533e+04 4.672e-09
 67.00213     13.9 1.437e+04 3.146e-09
 67.00967     14.8 1.400e+04 2.968e-09
 67.02496     14.9 1.421e+04 3.029e-09
 67.04595     15.0 1.421e+04 3.005e-09
 67.06434     15.3 1.412e+04 2.832e-09
 67.07484     16.2 1.414e+04 2.868e-09
 67.08176     16.4 1.398e+04 2.643e-09
 67.09226     16.5 1.308e+04 1.728e-09
 67.11911     16.7 1.253e+04 1.267e-09
 67.14011     17.8 1.305e+04 1.651e-09
 67.15095     18.0 1.287e+04 1.498e-09
 67.16711     18.2 1.254e+04 1.300e-09
 67.17761     18.8 1.206e+04 1.080e-09
 67.19294     19.2 1.203e+04 1.070e-09
 67.20518     19.5 1.203e+04 1.061e-09
 67.21568     20.2 1.223e+04 1.210e-09
 67.24206     20.4 1.222e+04 1.117e-09
 67.26315     21.2 1.177e+04 8.986e-10
 67.27055     22.1 1.198e+04 1.024e-09
 67.29155     22.9 1.222e+04 1.148e-09
 67.32963     23.5 1.221e+04 1.174e-09
 67.37162     24.3 1.198e+04 1.051e-09
 67.40090     24.8 1.179e+04 9.320e-10
 67.42113     25.3 1.151e+04 7.674e-10
 67.43375     25.4 1.165e+04 8.250e-10
 67.44492     25.4 1.160e+04 7.864e-10
 67.46587     25.4 1.159e+04 7.780e-10
 67.48687     25.5 1.133e+04 6.408e-10
 67.50792     25.4 1.136e+04 6.725e-10
 67.51900     25.3 1.142e+04 7.174e-10
 67.52950     24.7 1.163e+04 7.449e-10
 67.54154     24.0 1.195e+04 8.593e-10
 67.55204     24.5 1.177e+04 7.662e-10
 67.57091     23.2 1.238e+04 9.848e-10
 67.59191     21.1 1.314e+04 1.450e-09
 67.60435     19.0 1.364e+04 2.190e-09
 67.60866     18.5 1.358e+04 2.233e-09
 67.61722     19.3 1.353e+04 1.976e-09
 67.63390     18.8 1.335e+04 2.364e-09
 67.65490     18.9 1.314e+04 2.222e-09
 67.67189     18.8 1.281e+04 1.641e-09
 67.68239     19.2 1.273e+04 1.637e-09
 67.68970     18.0 1.292e+04 1.026e-09
 67.70020     17.4 1.256e+04 7.389e-10
 67.71790     12.8 1.280e+04 5.439e-10
 67.73706      8.4 1.190e+04 5.602e-10
 67.74756      9.9 1.203e+04 5.751e-10
 67.75989      7.4 1.144e+04 6.393e-10
 67.77505      6.4 1.113e+04 6.948e-10
 67.78555      6.8 1.093e+04 6.038e-10
 67.80189      6.5 1.090e+04 5.924e-10
 67.81273      6.0 1.088e+04 5.354e-10
 67.82323      7.3 1.079e+04 4.920e-10
 67.84389      6.2 1.078e+04 3.965e-10
 67.86040      4.6 1.082e+04 3.732e-10
 67.87090      5.1 1.058e+04 3.087e-10
 67.87790      4.3 1.062e+04 3.134e-10
 67.88840      4.9 1.055e+04 2.919e-10
 67.90688      3.4 1.082e+04 3.336e-10
 67.92788      2.3 1.101e+04 4.430e-10
 67.94308      1.5 1.124e+04 6.626e-10
 67.95044      2.5 1.119e+04 5.678e-10
 67.95624      3.4 1.092e+04 4.143e-10
 67.96988      2.9 1.102e+04 5.871e-10
 68.00147      3.5 1.151e+04 7.754e-10
 68.04356      1.5 1.262e+04 1.331e-09
 68.07362     -1.1 1.301e+04 1.520e-09
 68.09461      2.2 1.300e+04 1.554e-09
 68.11664      0.8 1.262e+04 1.196e-09
 68.13764      2.9 1.293e+04 1.544e-09
 68.16955      1.5 1.201e+04 7.774e-10
 68.20095      0.8 1.121e+04 4.604e-10
 68.21229     -0.6 1.091e+04 3.612e-10
 68.21520      0.3 1.119e+04 4.044e-10
 68.22476      1.6 1.141e+04 4.504e-10
 68.24285     -0.0 1.089e+04 3.592e-10
 68.26385     -1.3 1.088e+04 3.676e-10
 68.27944     -3.7 1.138e+04 4.809e-10
 68.28994     -3.2 1.146e+04 5.155e-10
 68.29764     -5.6 1.196e+04 8.351e-10
 68.30814     -5.1 1.193e+04 8.333e-10
 68.32685     -6.8 1.234e+04 1.381e-09
 68.34461     -8.5 1.331e+04 2.219e-09
 68.35511     -7.3 1.320e+04 2.084e-09
 68.36884    -10.1 1.465e+04 2.757e-09
 68.38299    -13.6 1.478e+04 3.272e-09
 68.39348    -14.0 1.461e+04 2.969e-09
 68.40978    -17.2 1.357e+04 3.118e-09
 68.42028    -16.9 1.330e+04 2.782e-09
 68.43184    -19.0 1.315e+04 2.664e-09
 68.45283    -22.0 1.365e+04 2.255e-09
 68.46833    -27.6 1.300e+04 1.846e-09
 68.47883    -28.1 1.274e+04 1.770e-09
 68.48545    -32.0 1.227e+04 1.682e-09
 68.49595    -31.3 1.225e+04 1.673e-09
 68.51583    -33.4 1.201e+04 1.754e-09
 68.53683    -34.8 1.202e+04 1.821e-09
 68.55063    -36.3 1.215e+04 1.823e-09
 68.55698    -36.1 1.225e+04 1.923e-09
 68.56418    -36.5 1.205e+04 1.727e-09
 68.57882    -38.7 1.235e+04 1.827e-09
 68.59982    -41.3 1.266e+04 1.996e-09
 68.61580    -43.5 1.293e+04 2.249e-09
 68.62630    -43.0 1.303e+04 2.375e-09
 68.63903    -44.9 1.312e+04 2.438e-09
 68.64953    -44.7 1.324e+04 2.631e-09
 68.66282    -46.4 1.302e+04 2.330e-09
 68.68097    -47.9 1.219e+04 1.661e-09
 68.69147    -47.5 1.215e+04 1.579e-09
 68.71541    -49.3 1.136e+04 1.127e-09
 68.74634    -51.4 1.015e+04 6.083e-10
 68.76734    -50.8 9.719e+03 5.137e-10
 68.79942    -51.5 9.023e+03 3.210e-10
 68.84142    -51.2 8.756e+03 2.478e-10
 68.87668    -50.9 8.667e+03 2.031e-10
 68.89768    -49.8 8.631e+03 2.162e-10
 68.92549    -49.0 8.613e+03 1.964e-10
 68.96749    -48.3 8.635e+03 1.934e-10
 68.99112    -47.6 8.827e+03 2.099e-10
 69.00966    -47.2 8.901e+03 2.443e-10
 69.02802    -46.2 8.805e+03 2.420e-10
 69.05148    -45.4 8.980e+03 2.671e-10
 69.09348    -44.2 9.113e+03 2.950e-10
 69.13547    -42.9 9.169e+03 3.030e-10
 69.15837    -41.6 9.198e+03 2.930e-10
 69.16371    -40.8 8.936e+03 2.393e-10
 69.18281    -40.5 8.714e+03 1.873e-10
 69.21947    -39.2 8.723e+03 1.766e-10
 69.26146    -37.9 8.744e+03 1.721e-10
 69.28871    -36.8 8.929e+03 1.856e-10
 69.30971    -36.3 8.703e+03 1.526e-10
 69.33251    -35.0 8.921e+03 1.960e-10
 69.35351    -35.0 8.815e+03 1.747e-10
 69.38745    -33.7 9.130e+03 2.221e-10
 69.41906    -32.6 9.491e+03 2.648e-10
 69.44006    -31.6 9.085e+03 1.676e-10
 69.47144    -31.0 9.338e+03 1.716e-10
 69.50321    -30.7 9.627e+03 1.913e-10
 69.52420    -30.5 9.410e+03 1.540e-10
 69.54940    -30.0 9.539e+03 1.771e-10
 69.57040    -28.9 9.231e+03 1.348e-10
 69.59743    -28.0 9.396e+03 1.529e-10
 69.63943    -27.1 9.616e+03 1.730e-10
 69.67390    -26.3 9.860e+03 2.075e-10
 69.69322    -25.6 9.735e+03 1.704e-10
 69.70074    -24.1 9.679e+03 1.646e-10
 69.72342    -23.1 9.919e+03 2.229e-10
 69.76542    -21.9 1.024e+04 3.051e-10
 69.80742    -20.8 1.059e+04 3.980e-10
 69.83109    -20.1 1.095e+04 5.032e-10
 69.84727    -18.9 1.105e+04 5.018e-10
 69.86560    -17.7 1.104e+04 5.696e-10
 69.89141    -17.2 1.142e+04 7.116e-10
 69.93340    -16.8 1.182e+04 9.123e-10
 69.96143    -16.2 1.225e+04 1.100e-09
 69.98243    -15.6 1.220e+04 1.065e-09
 70.01530    -15.4 1.246e+04 1.041e-09
 70.03629    -14.3 1.232e+04 1.021e-09
 70.05939    -15.0 1.265e+04 9.542e-10
 70.09079    -16.4 1.261e+04 8.359e-10
 70.10208    -17.8 1.302e+04 9.364e-10
 70.11183    -17.6 1.274e+04 6.847e-10
 70.12145    -16.7 1.271e+04 7.142e-10
 70.13269    -18.2 1.294e+04 8.387e-10
 70.15369    -19.7 1.302e+04 1.038e-09
 70.16725    -21.1 1.297e+04 1.245e-09
 70.17775    -20.9 1.293e+04 1.133e-09
 70.19569    -21.8 1.311e+04 1.451e-09
 70.20679    -22.7 1.343e+04 1.734e-09
 70.21729    -21.6 1.288e+04 1.234e-09
 70.23243    -22.8 1.327e+04 1.431e-09
 70.24293    -22.5 1.346e+04 1.725e-09
 70.25868    -23.8 1.408e+04 2.145e-09
 70.27968    -25.4 1.479e+04 2.649e-09
 70.29214    -27.3 1.506e+04 3.077e-09
 70.29956    -26.4 1.525e+04 3.143e-09
 70.30810    -25.0 1.552e+04 3.793e-09
 70.32168    -26.7 1.595e+04 4.839e-09
 70.34267    -28.0 1.588e+04 5.630e-09
 70.36277    -28.7 1.555e+04 5.358e-09
 70.37327    -27.8 1.589e+04 5.512e-09
 70.37749    -28.6 1.518e+04 3.793e-09
 70.38799    -27.5 1.635e+04 7.022e-09
 70.40567    -28.3 1.533e+04 3.665e-09
 70.42667    -30.5 1.362e+04 1.381e-09
 70.43844    -33.3 1.164e+04 6.398e-10
 70.44894    -32.6 1.174e+04 6.699e-10
 70.47926    -33.7 1.083e+04 4.694e-10
 70.50381    -33.4 1.031e+04 3.617e-10
 70.52481    -32.1 1.045e+04 3.954e-10
 70.54838    -31.0 1.025e+04 3.405e-10
 70.56938    -30.4 1.023e+04 3.306e-10
 70.60535    -28.9 1.017e+04 3.183e-10
 70.63415    -27.5 1.022e+04 3.403e-10
 70.65515    -26.3 1.043e+04 4.075e-10
 70.68934    -24.9 1.055e+04 4.785e-10
 70.71908    -23.5 1.070e+04 5.489e-10
 70.74008    -22.5 1.073e+04 5.686e-10
 70.76450    -21.1 1.092e+04 6.650e-10
 70.78550    -20.1 1.106e+04 6.840e-10
 70.81533    -19.1 1.112e+04 6.941e-10
 70.85733    -18.6 1.108e+04 6.604e-10
 70.88978    -18.3 1.090e+04 6.137e-10
 70.90629    -16.5 1.139e+04 8.286e-10
 70.91584    -16.1 1.137e+04 7.977e-10
 70.94132    -16.1 1.113e+04 7.349e-10
 70.98332    -16.0 1.082e+04 6.838e-10
 71.02519    -15.6 1.046e+04 5.805e-10
 71.06035    -15.0 1.063e+04 6.110e-10
 71.08147    -14.4 1.092e+04 7.353e-10
 71.10930    -14.4 1.079e+04 6.677e-10
 71.15130    -14.5 1.080e+04 6.598e-10
 71.17653    -15.3 1.141e+04 8.072e-10
 71.19753    -15.0 1.163e+04 9.792e-10
 71.22470    -17.0 1.274e+04 1.417e-09
 71.24147    -19.1 1.389e+04 2.346e-09
 71.25197    -19.5 1.431e+04 2.548e-09
 71.26660    -21.2 1.547e+04 4.818e-09
 71.28759    -21.5 1.645e+04 8.193e-09
 71.30668    -21.4 1.711e+04 1.069e-08
 71.31718    -21.6 1.706e+04 1.045e-08
 71.32682    -21.8 1.711e+04 1.059e-08
 71.33732    -22.3 1.722e+04 1.100e-08
 71.35059    -21.8 1.656e+04 7.296e-09
 71.37159    -21.8 1.532e+04 2.956e-09
 71.38235    -26.2 1.360e+04 1.089e-09
 71.39285    -26.9 1.313e+04 9.131e-10
 71.41217    -29.5 1.174e+04 5.774e-10
 71.42267    -30.0 1.187e+04 6.335e-10
 71.43458    -30.7 1.140e+04 5.587e-10
 71.44752    -31.0 1.130e+04 5.494e-10
 71.45802    -30.6 1.134e+04 5.673e-10
 71.48718    -29.8 1.143e+04 6.339e-10
 71.52927    -28.6 1.138e+04 6.486e-10
 71.56756    -27.6 1.132e+04 6.667e-10
 71.58856    -26.9 1.160e+04 8.205e-10
 71.59356    -25.8 1.148e+04 8.239e-10
 71.61456    -27.1 1.153e+04 8.870e-10
 71.65526    -26.0 1.147e+04 8.692e-10
 71.69725    -24.8 1.149e+04 8.800e-10
 71.71891    -23.8 1.151e+04 8.732e-10
 71.73990    -23.4 1.148e+04 8.535e-10
 71.76426    -22.5 1.156e+04 8.613e-10
 71.78525    -24.1 1.133e+04 7.342e-10
 71.81265    -23.3 1.167e+04 8.830e-10
 71.83355    -23.6 1.174e+04 9.479e-10
 71.84906    -23.6 1.180e+04 1.037e-09
 71.85442    -23.2 1.165e+04 9.267e-10
 71.85991    -24.5 1.147e+04 8.061e-10
 71.87554    -24.4 1.164e+04 8.960e-10
 71.89654    -24.4 1.175e+04 9.445e-10
 71.91423    -24.5 1.177e+04 9.530e-10
 71.92473    -24.3 1.163e+04 8.734e-10
 71.93476    -24.3 1.158e+04 8.614e-10
 71.94526    -25.3 1.138e+04 7.929e-10
 71.95954    -25.2 1.121e+04 7.047e-10
 71.97940    -25.2 1.101e+04 5.960e-10
 71.98990    -24.6 1.105e+04 6.286e-10
 72.00153    -24.7 1.084e+04 5.177e-10
 72.02011    -24.9 1.061e+04 4.126e-10
 72.03060    -25.9 1.042e+04 3.671e-10
 72.04353    -26.0 1.035e+04 3.395e-10
 72.07513    -25.1 1.039e+04 3.158e-10
 72.10565    -25.2 1.039e+04 3.023e-10
 72.11937    -26.7 1.035e+04 3.037e-10
 72.13094    -25.7 1.048e+04 3.343e-10
 72.15922    -25.8 1.056e+04 3.620e-10
 72.20121    -25.7 1.062e+04 3.866e-10
 72.23261    -26.1 1.054e+04 3.807e-10
 72.25059    -26.4 1.056e+04 3.742e-10
 72.26109    -26.3 1.064e+04 3.892e-10
 72.27451    -27.0 1.075e+04 3.850e-10
 72.28665    -29.4 1.170e+04 4.282e-10
 72.29715    -32.1 1.219e+04 5.573e-10
 72.31576    -34.9 1.282e+04 9.324e-10
 72.32626    -35.3 1.291e+04 1.034e-09
 72.33751    -36.8 1.314e+04 1.525e-09
 72.35850    -37.9 1.329e+04 1.795e-09
 72.37200    -39.2 1.330e+04 1.806e-09
 72.38250    -40.7 1.313e+04 1.650e-09
 72.39143    -42.5 1.265e+04 1.122e-09
 72.40193    -42.7 1.241e+04 9.568e-10
 72.42150    -45.4 1.177e+04 6.011e-10
 72.44250    -48.0 1.122e+04 4.058e-10
 72.45660    -49.9 1.090e+04 3.173e-10
 72.46095    -49.7 1.082e+04 3.026e-10
 72.46784    -50.6 1.070e+04 2.796e-10
 72.49509    -51.8 1.066e+04 2.712e-10
 72.52197    -53.6 1.065e+04 2.888e-10
 72.54297    -52.7 1.074e+04 3.170e-10
 72.57918    -54.5 1.096e+04 4.211e-10
 72.61774    -55.9 1.102e+04 4.766e-10
 72.63874    -56.2 1.103e+04 4.892e-10
 72.65222    -56.8 1.097e+04 4.869e-10
 72.66262    -56.6 1.109e+04 5.524e-10
 72.67348    -57.3 1.091e+04 4.743e-10
 72.69448    -57.9 1.075e+04 4.030e-10
 72.71339    -58.3 1.073e+04 3.846e-10
 72.72389    -58.2 1.070e+04 3.807e-10
 72.74707    -58.7 1.073e+04 3.616e-10
 72.78266    -59.2 1.064e+04 3.186e-10
 72.80293    -58.9 1.075e+04 3.459e-10
 72.80943    -58.6 1.068e+04 3.334e-10
 72.83116    -58.5 1.051e+04 2.703e-10
 72.87316    -58.5 1.048e+04 2.408e-10
 72.91301    -58.9 1.061e+04 2.424e-10
 72.93400    -58.1 1.041e+04 2.152e-10
 72.95715    -59.3 1.123e+04 2.942e-10
 72.98003    -61.1 1.236e+04 6.910e-10
 73.00103    -61.5 1.284e+04 8.858e-10
 73.03054    -63.6 1.345e+04 1.878e-09
 73.05144    -64.9 1.390e+04 2.659e-09
 73.06415    -66.4 1.405e+04 2.868e-09
 73.06749    -65.5 1.423e+04 3.155e-09
 73.07578    -65.2 1.446e+04 3.531e-09
 73.09344    -66.8 1.435e+04 3.415e-09
 73.11444    -68.6 1.358e+04 2.301e-09
 73.12932    -71.1 1.246e+04 1.290e-09
 73.13982    -70.1 1.290e+04 1.522e-09
 73.15063    -73.3 1.176e+04 8.845e-10
 73.16113    -73.3 1.171e+04 8.461e-10
 73.17743    -76.2 1.119e+04 6.759e-10
 73.19450    -78.1 1.106e+04 6.467e-10
 73.20500    -78.6 1.140e+04 8.392e-10
 73.21943    -80.2 1.131e+04 8.671e-10
 73.23598    -81.5 1.143e+04 9.537e-10
 73.24648    -81.7 1.166e+04 1.127e-09
 73.25967    -82.7 1.173e+04 1.184e-09
 73.27017    -82.8 1.224e+04 1.610e-09
 73.28243    -83.7 1.203e+04 1.437e-09
 73.30342    -84.6 1.177e+04 1.214e-09
 73.32133    -85.4 1.146e+04 9.876e-10
 73.33183    -85.6 1.158e+04 1.024e-09
 73.33534    -86.5 1.120e+04 7.927e-10
 73.34584    -87.5 1.132e+04 8.146e-10
 73.36642    -88.4 1.103e+04 6.480e-10
 73.38742    -89.1 1.088e+04 5.443e-10
 73.40051    -89.9 1.085e+04 4.993e-10
 73.40927    -92.6 1.186e+04 7.845e-10
 73.41717    -93.5 1.187e+04 7.901e-10
 73.42941    -94.6 1.240e+04 1.006e-09
 73.45041    -95.5 1.299e+04 1.393e-09
 73.46569    -96.0 1.356e+04 1.994e-09
 73.47618    -97.5 1.462e+04 3.719e-09
 73.49202    -97.2 1.497e+04 4.647e-09
 73.50252    -97.6 1.467e+04 4.196e-09
 73.51341    -97.2 1.507e+04 4.699e-09
 73.53086    -96.9 1.522e+04 4.834e-09
 73.54136    -98.5 1.520e+04 4.652e-09
 73.55540    -98.5 1.513e+04 4.373e-09
 73.57640    -98.7 1.498e+04 3.851e-09
 73.58787    -99.0 1.472e+04 3.199e-09
 73.59700    -99.4 1.476e+04 3.215e-09
 73.60653   -101.2 1.405e+04 1.869e-09
 73.61840   -101.5 1.371e+04 1.468e-09
 73.63939   -101.8 1.336e+04 1.147e-09
 73.66039   -102.1 1.298e+04 8.915e-10
 73.67170   -102.5 1.257e+04 6.991e-10
 73.67403   -104.5 1.179e+04 5.352e-10
 73.68372   -105.4 1.257e+04 7.700e-10
 73.70239   -105.7 1.241e+04 7.292e-10
 73.72339   -105.9 1.219e+04 7.012e-10
 73.73687   -105.9 1.203e+04 6.932e-10
 73.74737   -106.7 1.242e+04 8.407e-10
 73.75857   -106.2 1.243e+04 8.955e-10
 73.76907   -107.1 1.310e+04 1.296e-09
 73.78638   -106.6 1.300e+04 1.289e-09
 73.80205   -106.1 1.290e+04 1.263e-09
 73.81254   -106.6 1.318e+04 1.494e-09
 73.82838   -106.2 1.305e+04 1.404e-09
 73.84391   -106.0 1.289e+04 1.319e-09
 73.85441   -106.9 1.311e+04 1.487e-09
 73.86722   -106.8 1.300e+04 1.396e-09
 73.87772   -107.7 1.300e+04 1.384e-09
 73.89137   -107.8 1.296e+04 1.347e-09
 73.91237   -107.9 1.294e+04 1.331e-09
 73.92926   -108.3 1.296e+04 1.334e-09
 73.93878   -109.4 1.291e+04 1.283e-09
 73.94289   -110.5 1.281e+04 1.191e-09
 73.95437   -111.2 1.281e+04 1.190e-09
 73.97537   -112.1 1.272e+04 1.152e-09
 73.99636   -113.1 1.252e+04 1.075e-09
 74.00806   -114.1 1.226e+04 9.736e-10
 74.01581   -115.4 1.201e+04 8.303e-10
 74.02511   -116.4 1.202e+04 8.759e-10
 74.03836   -117.0 1.169e+04 7.647e-10
 74.05936   -117.6 1.138e+04 6.646e-10
 74.07323   -118.4 1.110e+04 5.902e-10
 74.08373   -119.4 1.084e+04 5.630e-10
 74.09996   -120.6 1.079e+04 5.435e-10
 74.11046   -123.4 1.175e+04 6.703e-10
 74.12235   -125.5 1.261e+04 7.944e-10
 74.13841   -127.4 1.324e+04 1.012e-09
 74.14890   -128.7 1.329e+04 1.028e-09
 74.16435   -130.2 1.350e+04 1.256e-09
 74.18531   -131.6 1.356e+04 1.442e-09
 74.20354   -136.5 1.347e+04 1.637e-09
 74.21408   -136.9 1.318e+04 1.527e-09
 74.22734   -138.0 1.293e+04 1.388e-09
 74.24834   -139.0 1.256e+04 1.252e-09
 74.26875   -139.8 1.219e+04 1.100e-09
 74.27925   -139.6 1.205e+04 1.054e-09
 74.28115   -140.1 1.178e+04 9.275e-10
 74.29165   -142.5 1.147e+04 8.140e-10
 74.31134   -142.4 1.126e+04 7.207e-10
 74.34293   -141.9 1.101e+04 6.389e-10
 74.36670   -141.4 1.037e+04 4.514e-10
 74.38770   -144.7 9.975e+03 3.317e-10
 74.40979   -144.0 9.572e+03 2.354e-10
 74.43079   -143.4 9.664e+03 2.428e-10
 74.46902   -142.7 9.650e+03 2.197e-10
 74.51102   -141.9 9.653e+03 2.155e-10
 74.53739   -141.3 9.713e+03 2.180e-10
 74.54551   -143.3 9.514e+03 2.033e-10
 74.56113   -142.8 9.615e+03 2.521e-10
 74.59501   -142.0 9.670e+03 2.617e-10
 74.63701   -141.2 9.685e+03 2.656e-10
 74.67048   -140.4 9.671e+03 2.638e-10
 74.69148   -140.0 9.862e+03 3.101e-10
 74.70809   -139.3 9.596e+03 2.586e-10
 74.72909   -139.8 9.422e+03 2.353e-10
 74.76299   -138.8 9.160e+03 1.921e-10
 74.80082   -137.8 8.956e+03 1.614e-10
 74.82182   -137.6 8.933e+03 1.625e-10
 74.84699   -136.5 8.810e+03 1.467e-10
 74.87879   -135.4 8.729e+03 1.378e-10
 74.89979   -135.2 8.721e+03 1.454e-10
 74.93098   -134.1 8.681e+03 1.444e-10
 74.97298   -132.7 8.700e+03 1.689e-10
 75.01497   -131.8 8.631e+03 1.705e-10
 75.04948   -131.0 8.573e+03 1.708e-10
 75.07048   -130.8 8.644e+03 1.920e-10
 75.08251   -130.0 8.617e+03 1.929e-10
 75.10351   -129.4 8.663e+03 2.232e-10
 75.14096   -128.8 8.635e+03 2.403e-10
 75.18296   -128.3 8.779e+03 2.718e-10
 75.21285   -127.9 8.990e+03 3.147e-10
 75.22908   -127.4 9.154e+03 3.668e-10
 75.24118   -127.2 9.139e+03 3.736e-10
 75.26695   -127.1 9.393e+03 4.290e-10
 75.28843   -127.0 9.451e+03 4.235e-10
 75.29883   -127.1 9.566e+03 4.886e-10
 75.31583   -128.1 9.681e+03 5.412e-10
 75.32633   -127.9 9.671e+03 5.383e-10
 75.34025   -128.6 9.814e+03 6.014e-10
 75.35350   -129.0 9.988e+03 6.713e-10
 75.36400   -128.8 1.015e+04 7.627e-10
 75.38225   -129.2 1.030e+04 8.228e-10
 75.40118   -129.7 1.040e+04 8.708e-10
 75.41168   -129.5 1.036e+04 8.493e-10
 75.41867   -129.9 1.038e+04 8.629e-10
 75.42917   -129.8 1.040e+04 8.822e-10
 75.44524   -130.2 1.033e+04 8.420e-10
 75.46624   -130.6 1.024e+04 8.034e-10
 75.48385   -130.9 1.020e+04 7.856e-10
 75.49364   -131.0 1.018e+04 7.617e-10
 75.49703   -130.8 1.012e+04 7.351e-10
 75.50824   -131.2 1.009e+04 7.215e-10
 75.52923   -131.5 1.009e+04 7.236e-10
 75.54902   -131.9 1.019e+04 7.621e-10
 75.55952   -132.1 1.018e+04 7.524e-10
 75.57123   -132.5 1.034e+04 8.272e-10
 75.58238   -132.8 1.052e+04 9.248e-10
 75.59287   -132.4 1.027e+04 7.980e-10
 75.61323   -132.7 1.042e+04 8.809e-10
 75.62469   -133.0 1.058e+04 9.719e-10
 75.63519   -133.0 1.060e+04 9.855e-10
 75.65522   -133.2 1.078e+04 1.098e-09
 75.66772   -133.3 1.088e+04 1.166e-09
 75.67822   -132.7 1.060e+04 9.962e-10
 75.68986   -132.8 1.064e+04 1.021e-09
 75.70036   -132.9 1.077e+04 1.089e-09
 75.71822   -132.9 1.080e+04 1.104e-09
 75.73922   -132.9 1.084e+04 1.065e-09
 75.75307   -133.0 1.086e+04 9.682e-10
 75.75839   -132.5 1.071e+04 8.977e-10
 75.76553   -133.2 1.108e+04 1.114e-09
 75.78121   -133.8 1.118e+04 1.105e-09
 75.80221   -134.9 1.147e+04 1.112e-09
 75.82021   -137.1 1.223e+04 1.255e-09
 75.83071   -138.8 1.331e+04 2.023e-09
 75.83842   -141.5 1.445e+04 2.805e-09
 75.84892   -139.3 1.353e+04 2.320e-09
 75.86521   -141.5 1.442e+04 3.150e-09
 75.88538   -143.3 1.515e+04 4.394e-09
 75.89588   -144.3 1.581e+04 5.727e-09
 75.90720   -145.8 1.608e+04 6.622e-09
 75.92377   -147.0 1.611e+04 6.884e-09
 75.93427   -145.3 1.529e+04 4.960e-09
 75.94920   -146.3 1.510e+04 4.841e-09
 75.96105   -146.8 1.469e+04 4.077e-09
 75.97155   -147.7 1.461e+04 3.871e-09
 75.99120   -148.1 1.418e+04 2.667e-09
 76.00912   -148.6 1.346e+04 1.817e-09
 76.01962   -147.5 1.339e+04 1.843e-09
 76.02622   -147.9 1.287e+04 1.383e-09
 76.03672   -148.4 1.276e+04 1.243e-09
 76.06479   -148.7 1.236e+04 9.826e-10
 76.09466   -146.8 1.178e+04 7.042e-10
 76.11566   -145.5 1.179e+04 7.443e-10
 76.14626   -144.0 1.149e+04 5.655e-10
 76.16726   -144.1 1.145e+04 5.190e-10
 76.19087   -142.8 1.147e+04 4.442e-10
 76.23287   -141.5 1.152e+04 3.967e-10
 76.26536   -140.5 1.155e+04 3.881e-10
 76.28635   -139.9 1.160e+04 4.091e-10
 76.29761   -139.3 1.168e+04 4.114e-10
 76.31860   -139.8 1.190e+04 5.027e-10
 76.35886   -139.6 1.214e+04 6.106e-10
 76.40086   -139.4 1.241e+04 7.823e-10
 76.42795   -139.2 1.264e+04 9.363e-10
 76.44215   -139.4 1.282e+04 1.008e-09
 76.45705   -140.1 1.291e+04 1.068e-09
 76.47425   -139.4 1.291e+04 1.041e-09
 76.49293   -139.3 1.292e+04 1.043e-09
 76.50343   -139.5 1.295e+04 1.039e-09
 76.51615   -139.3 1.293e+04 1.024e-09
 76.53170   -139.2 1.290e+04 1.005e-09
 76.54220   -139.4 1.282e+04 9.525e-10
 76.55810   -139.1 1.274e+04 9.075e-10
 76.57910   -139.0 1.261e+04 7.878e-10
 76.60014   -138.8 1.261e+04 7.803e-10
 76.61705   -138.6 1.269e+04 8.071e-10
 76.62755   -138.5 1.241e+04 5.979e-10
 76.63377   -138.4 1.253e+04 6.303e-10
 76.64427   -138.5 1.253e+04 5.963e-10
 76.66314   -138.4 1.275e+04 7.049e-10
 76.68414   -138.4 1.301e+04 8.826e-10
 76.69894   -138.5 1.327e+04 1.137e-09
 76.70671   -138.6 1.339e+04 1.228e-09
 76.71290   -137.8 1.288e+04 7.098e-10
 76.72613   -138.0 1.317e+04 9.568e-10
 76.74713   -138.1 1.342e+04 1.288e-09
 76.76412   -138.3 1.366e+04 1.708e-09
 76.77462   -138.6 1.385e+04 1.889e-09
 76.78775   -138.7 1.407e+04 2.416e-09
 76.79825   -138.1 1.377e+04 1.701e-09
 76.81013   -138.2 1.415e+04 2.417e-09
 76.82929   -138.2 1.459e+04 3.270e-09
 76.83979   -138.6 1.479e+04 3.656e-09
 76.85212   -138.6 1.520e+04 4.415e-09
 76.87310   -138.6 1.548e+04 4.914e-09
 76.89410   -138.1 1.619e+04 6.653e-09
 76.90496   -138.5 1.632e+04 6.686e-09
 76.91546   -138.7 1.630e+04 6.462e-09
 76.93612   -139.1 1.601e+04 5.106e-09
 76.95711   -139.6 1.542e+04 3.525e-09
 76.96894   -140.1 1.467e+04 2.359e-09
 76.97146   -139.3 1.568e+04 4.230e-09
 76.98063   -139.9 1.536e+04 3.432e-09
 76.99911   -140.5 1.452e+04 2.372e-09
 77.02011   -140.8 1.390e+04 1.923e-09
 77.03530   -141.0 1.362e+04 1.822e-09
 77.04580   -141.3 1.332e+04 1.608e-09
 77.05429   -140.8 1.327e+04 1.670e-09
 77.06479   -140.7 1.355e+04 1.931e-09
 77.08310   -140.1 1.354e+04 2.019e-09
 77.10048   -139.4 1.366e+04 2.209e-09
 77.11098   -139.5 1.344e+04 1.926e-09
 77.12510   -138.9 1.356e+04 2.094e-09
 77.13964   -138.2 1.363e+04 2.181e-09
 77.15014   -138.2 1.381e+04 2.481e-09
 77.16565   -137.5 1.389e+04 2.590e-09
 77.17615   -137.5 1.362e+04 2.187e-09
 77.18809   -136.8 1.365e+04 2.173e-09
 77.20909   -136.1 1.360e+04 2.062e-09
 77.23092   -135.4 1.358e+04 2.011e-09
 77.25201   -135.5 1.322e+04 1.541e-09
 77.28278   -133.8 1.288e+04 1.293e-09
 77.31053   -132.0 1.255e+04 1.136e-09
 77.33153   -131.8 1.279e+04 1.331e-09
 77.36136   -129.4 1.244e+04 1.158e-09
 77.38236   -129.1 1.240e+04 1.121e-09
 77.40877   -126.8 1.239e+04 1.138e-09
 77.45077   -124.6 1.245e+04 1.197e-09
 77.48123   -122.6 1.255e+04 1.264e-09
 77.50117   -121.7 1.257e+04 1.276e-09
 77.51270   -121.5 1.285e+04 1.485e-09
 77.53476   -119.4 1.300e+04 1.633e-09
 77.56616   -118.0 1.293e+04 1.602e-09
 77.57688   -117.5 1.295e+04 1.625e-09
 77.57800   -116.9 1.309e+04 1.715e-09
 77.58818   -117.2 1.334e+04 1.907e-09
 77.60806   -116.4 1.339e+04 1.959e-09
 77.62906   -115.7 1.338e+04 1.966e-09
 77.64285   -115.0 1.331e+04 1.850e-09
 77.65335   -115.6 1.329e+04 1.820e-09
 77.66223   -114.8 1.304e+04 1.438e-09
 77.67273   -114.0 1.365e+04 2.200e-09
 77.69205   -113.0 1.331e+04 1.683e-09
 77.70802   -112.4 1.294e+04 1.185e-09
 77.71852   -113.9 1.255e+04 7.931e-10
 77.73405   -114.6 1.254e+04 5.765e-10
 77.74758   -114.6 1.251e+04 5.218e-10
 77.75808   -113.1 1.277e+04 5.791e-10
 77.77329   -113.1 1.291e+04 5.424e-10
 77.79439   -116.8 1.202e+04 3.962e-10
 77.82262   -115.2 1.146e+04 3.213e-10
 77.84362   -113.2 1.361e+04 4.548e-10
 77.87073   -113.5 1.201e+04 3.523e-10
 77.90374   -113.0 1.135e+04 3.236e-10
 77.92474   -113.7 1.116e+04 2.957e-10
 77.95472   -111.5 1.121e+04 2.971e-10
 77.99332   -109.4 1.130e+04 3.245e-10
 78.01432   -110.3 1.126e+04 3.213e-10
 78.03408   -108.1 1.133e+04 3.571e-10
 78.05508   -107.9 1.128e+04 3.452e-10
 78.08071   -105.9 1.131e+04 3.818e-10
 78.12271   -104.0 1.135e+04 4.124e-10
 78.16402   -102.3 1.142e+04 4.351e-10
 78.18473   -102.7 1.134e+04 3.898e-10
 78.18542   -102.9 1.127e+04 3.688e-10
 78.20670   -101.3 1.139e+04 4.086e-10
 78.24870    -99.8 1.157e+04 4.709e-10
 78.29070    -98.4 1.186e+04 6.016e-10
 78.31577    -97.1 1.231e+04 8.450e-10
 78.32617    -97.5 1.229e+04 8.250e-10
 78.34300    -97.3 1.246e+04 9.261e-10
 78.35551    -97.1 1.296e+04 1.241e-09
 78.36601    -97.5 1.306e+04 1.370e-09
 78.38075    -97.9 1.343e+04 1.646e-09
 78.39124    -98.8 1.382e+04 2.139e-09
 78.40599    -98.8 1.419e+04 2.816e-09
 78.42699    -98.7 1.446e+04 3.385e-09
 78.44086    -98.6 1.459e+04 3.756e-09
 78.44929    -98.9 1.442e+04 3.443e-09
 78.45642    -99.5 1.450e+04 3.509e-09
 78.46899    -99.4 1.444e+04 3.397e-09
 78.48998    -99.5 1.435e+04 3.151e-09
 78.51098    -99.5 1.421e+04 2.821e-09
 78.52159    -99.6 1.404e+04 2.455e-09
 78.52632   -100.6 1.390e+04 2.119e-09
 78.53671   -100.7 1.374e+04 1.939e-09
 78.55298   -100.7 1.351e+04 1.674e-09
 78.57398   -100.5 1.326e+04 1.472e-09
 78.58676   -100.3 1.301e+04 1.320e-09
 78.59726   -101.0 1.275e+04 1.189e-09
 78.61156   -100.4 1.255e+04 1.081e-09
 78.62206   -100.3 1.246e+04 9.779e-10
 78.63697    -99.6 1.233e+04 9.135e-10
 78.65193    -98.8 1.222e+04 8.608e-10
 78.66243    -99.0 1.207e+04 7.382e-10
 78.67897    -98.0 1.206e+04 6.590e-10
 78.69691    -97.2 1.208e+04 5.836e-10
 78.70741    -97.3 1.205e+04 5.959e-10
 78.71711    -96.5 1.206e+04 5.496e-10
 78.72770    -98.1 1.196e+04 4.680e-10
 78.75266    -96.3 1.177e+04 3.835e-10
 78.79465    -94.8 1.166e+04 3.432e-10
 78.83665    -93.5 1.161e+04 3.319e-10
 78.85814    -92.4 1.165e+04 3.800e-10
 78.86830    -92.9 1.129e+04 2.954e-10
 78.88880    -92.9 1.126e+04 2.759e-10
 78.92064    -91.5 1.120e+04 3.384e-10
 78.96264    -90.0 1.112e+04 3.866e-10
 78.98849    -88.5 1.105e+04 3.949e-10
 79.00949    -88.4 1.080e+04 2.820e-10
 79.03850    -86.7 1.069e+04 2.579e-10
 79.05949    -86.5 1.048e+04 1.828e-10
 79.08863    -84.8 1.042e+04 1.551e-10
 79.11883    -83.1 1.040e+04 1.301e-10
 79.13983    -83.0 1.016e+04 1.031e-10
 79.17262    -81.3 1.004e+04 9.714e-11
 79.20919    -79.5 1.001e+04 9.384e-11
 79.23019    -79.1 1.006e+04 7.022e-11
 79.24918    -77.2 1.003e+04 6.925e-11
 79.27018    -76.8 9.915e+03 6.955e-11
 79.29861    -75.0 9.959e+03 7.283e-11
 79.34061    -73.2 9.959e+03 8.228e-11
 79.37952    -71.4 9.977e+03 9.419e-11
 79.39781    -70.7 9.953e+03 9.445e-11
 79.40089    -70.5 9.945e+03 8.770e-11
 79.42460    -68.5 9.936e+03 9.971e-11
 79.46660    -66.6 9.942e+03 1.059e-10
 79.50859    -64.6 9.985e+03 1.073e-10
 79.53087    -62.7 1.003e+04 1.075e-10
 79.55186    -62.1 9.862e+03 1.042e-10
 79.59258    -59.8 9.920e+03 1.002e-10
 79.63458    -57.8 9.953e+03 9.904e-11
 79.66121    -56.0 1.007e+04 1.059e-10
 79.68221    -55.3 9.980e+03 9.923e-11
 79.71857    -53.6 1.005e+04 1.267e-10
 79.74228    -51.8 1.015e+04 1.762e-10
 79.76328    -51.8 1.025e+04 1.974e-10
 79.79155    -49.7 1.040e+04 2.760e-10
 79.81255    -49.1 1.038e+04 2.722e-10
 79.84456    -47.0 1.048e+04 3.166e-10
 79.88656    -45.2 1.046e+04 3.184e-10
 79.91298    -43.1 1.025e+04 2.483e-10
 79.92732    -43.0 1.039e+04 2.867e-10
 79.94290    -42.4 1.035e+04 2.779e-10
 79.97055    -40.5 1.018e+04 1.779e-10
 80.01255    -38.9 1.004e+04 1.193e-10
 80.05224    -37.3 9.961e+03 9.618e-11
 80.07324    -36.7 9.858e+03 9.398e-11
 80.08367    -34.8 9.892e+03 8.299e-11
 80.10467    -35.2 1.002e+04 9.196e-11
 80.13854    -33.3 9.998e+03 9.097e-11
 80.18054    -31.3 9.989e+03 9.039e-11
 80.20359    -29.3 1.003e+04 9.005e-11
 80.22458    -28.9 9.971e+03 8.672e-11
 80.25437    -27.1 9.963e+03 9.050e-11
 80.27537    -27.5 1.006e+04 9.081e-11
 80.30652    -25.7 1.011e+04 9.361e-11
 80.33393    -24.0 1.017e+04 1.056e-10
 80.35493    -23.6 1.019e+04 1.074e-10
 80.39052    -22.1 1.022e+04 1.327e-10
 80.42506    -20.1 1.022e+04 1.666e-10
 80.44606    -20.9 1.023e+04 1.670e-10
 80.46427    -18.7 1.031e+04 1.972e-10
 80.48527    -18.2 1.036e+04 2.399e-10
 80.51651    -16.3 1.042e+04 2.332e-10
 80.55850    -14.7 1.043e+04 2.033e-10
 80.59462    -13.4 1.039e+04 1.883e-10
 80.61088    -13.0 1.031e+04 1.780e-10
 80.61676    -13.5 1.047e+04 1.799e-10
 80.64250    -12.0 1.032e+04 1.774e-10
 80.68449    -10.5 1.030e+04 1.881e-10
 80.72496     -8.7 1.033e+04 2.054e-10
 80.74596     -8.1 1.031e+04 1.960e-10
 80.76646     -6.1 1.034e+04 2.036e-10
 80.78746     -6.8 1.051e+04 2.191e-10
 80.81048     -4.9 1.054e+04 2.198e-10
 80.85248     -3.1 1.054e+04 2.204e-10
 80.87631     -1.4 1.055e+04 2.290e-10
 80.89730     -0.7 1.064e+04 2.420e-10
 80.93647      1.0 1.071e+04 2.795e-10
 80.95815      2.8 1.079e+04 3.238e-10
 80.97915      2.2 1.090e+04 3.720e-10
 81.00665      4.0 1.093e+04 3.931e-10
 81.02765      4.7 1.098e+04 4.229e-10
 81.06246      6.4 1.096e+04 4.188e-10
 81.10446      8.1 1.085e+04 3.876e-10
 81.12885      9.9 1.064e+04 3.209e-10
 81.14039      9.5 1.053e+04 3.040e-10
 81.15799     10.0 1.049e+04 2.905e-10
 81.18845     11.9 1.024e+04 2.248e-10
 81.23045     13.8 1.005e+04 1.614e-10
 81.26734     15.6 9.963e+03 1.139e-10
 81.28834     16.1 9.822e+03 1.098e-10
 81.29954     17.9 9.766e+03 8.030e-11
 81.32054     17.6 9.775e+03 7.896e-11
 81.35644     19.3 9.813e+03 6.516e-11
 81.39768     21.0 9.819e+03 6.646e-11
 81.41868     21.8 9.569e+03 5.347e-11
 81.44043     23.6 9.615e+03 5.399e-11
 81.47024     25.2 9.744e+03 5.734e-11
 81.49124     24.8 9.740e+03 6.705e-11
 81.52442     26.5 9.711e+03 8.806e-11
 81.54903     28.4 9.683e+03 1.053e-10
 81.57003     29.1 9.569e+03 8.786e-11
 81.60841     31.0 9.504e+03 1.017e-10
 81.64094     33.0 9.456e+03 1.004e-10
 81.66194     33.1 9.506e+03 1.056e-10
 81.67937     34.9 9.437e+03 8.900e-11
 81.70037     35.9 9.357e+03 8.738e-11
 81.73440     37.7 9.307e+03 6.994e-11
 81.77640     39.2 9.327e+03 6.241e-11
 81.80972     40.8 9.343e+03 6.369e-11
 81.82395     42.0 9.241e+03 6.121e-11
 81.83263     42.0 9.253e+03 5.985e-11
 81.86039     43.5 9.318e+03 6.688e-11
 81.90239     44.9 9.414e+03 9.094e-11
 81.94006     46.4 9.543e+03 1.387e-10
 81.96106     47.8 9.481e+03 1.206e-10
 81.98233     49.2 9.665e+03 1.801e-10
 82.00333     49.4 9.664e+03 1.738e-10
 82.02838     50.8 9.875e+03 2.266e-10
 82.07037     51.9 1.005e+04 2.474e-10
 82.11237     54.2 1.003e+04 2.351e-10
 82.15303     55.1 1.002e+04 2.184e-10
 82.17402     55.6 9.995e+03 2.118e-10
 82.19636     56.3 1.003e+04 1.846e-10
 82.22175     56.5 1.008e+04 1.662e-10
 82.24275     58.4 1.002e+04 1.873e-10
 82.28036     58.5 1.011e+04 1.848e-10
 82.32235     57.8 1.033e+04 2.229e-10
 82.34472     56.7 1.093e+04 3.745e-10
 82.35346     56.6 1.135e+04 5.929e-10
 82.37309     59.1 1.113e+04 5.182e-10
 82.40635     58.0 1.157e+04 7.479e-10
 82.44834     56.9 1.159e+04 7.784e-10
 82.48244     56.2 1.137e+04 6.258e-10
 82.50343     58.7 1.147e+04 7.030e-10
 82.51542     58.3 1.126e+04 4.833e-10
 82.53642     58.0 1.123e+04 4.103e-10
 82.57433     57.0 1.088e+04 2.191e-10
 82.61278     55.9 1.029e+04 1.728e-10
 82.63378     58.6 1.057e+04 1.953e-10
 82.65833     58.1 1.025e+04 1.941e-10
 82.68611     58.0 1.020e+04 2.160e-10
 82.70711     56.6 1.026e+04 2.158e-10
 82.74232     49.3 1.385e+04 2.744e-10
 82.76403     49.9 1.465e+04 4.151e-10
 82.77207     55.4 1.271e+04 3.099e-10
 82.78177     50.5 1.596e+04 5.817e-10
 82.79462     43.9 1.809e+04 2.692e-09
 82.81562     40.3 1.809e+04 8.172e-09
 82.82910     38.5 1.833e+04 1.202e-08
 82.83960     40.3 1.798e+04 1.077e-08
 82.85662     38.8 1.811e+04 1.135e-08
 82.86711     37.1 1.823e+04 9.603e-09
 82.87861     33.9 1.756e+04 4.930e-09
 82.89427     28.7 1.484e+04 1.872e-09
 82.90477     31.9 1.590e+04 2.434e-09
 82.92061     26.3 1.220e+04 1.035e-09
 82.94161     23.8 1.046e+04 6.427e-10
 82.95246     23.5 1.051e+04 5.407e-10
 82.95980     22.6 1.036e+04 4.562e-10
 82.96994     24.3 1.039e+04 4.963e-10
 82.98360     23.7 1.031e+04 4.337e-10
 83.00460     23.2 1.010e+04 3.930e-10
 83.02462     22.5 1.016e+04 4.115e-10
 83.03512     24.1 1.017e+04 4.209e-10
 83.03781     23.8 1.013e+04 4.224e-10
 83.04831     23.2 1.010e+04 3.921e-10
 83.06760     23.2 1.009e+04 4.547e-10
 83.08859     23.1 1.008e+04 4.690e-10
 83.12019     24.7 1.001e+04 5.446e-10
 83.15516     25.8 9.875e+03 5.007e-10
 83.17616     27.7 1.040e+04 6.909e-10
 83.19820     28.4 1.019e+04 5.794e-10
 83.21920     27.7 1.022e+04 5.936e-10
 83.24628     27.5 9.951e+03 4.607e-10
 83.28550     27.3 9.641e+03 3.675e-10
 83.30650     29.2 1.014e+04 5.208e-10
 83.33027     28.9 9.848e+03 4.546e-10
 83.36890     29.2 9.764e+03 4.592e-10
 83.38990     28.5 9.708e+03 4.179e-10
 83.41426     28.7 9.798e+03 4.250e-10
 83.43684     29.1 9.734e+03 4.115e-10
 83.45784     30.0 9.820e+03 4.417e-10
 83.49825     29.5 9.859e+03 4.349e-10
 83.53960     27.5 1.048e+04 5.671e-10
 83.56059     25.8 1.119e+04 8.096e-10
 83.56709     24.3 1.228e+04 1.357e-09
 83.57749     24.4 1.249e+04 1.549e-09
 83.59255     23.6 1.285e+04 1.879e-09
 83.61355     23.0 1.315e+04 2.260e-09
 83.63217     21.6 1.332e+04 2.419e-09
 83.64267     22.0 1.327e+04 2.290e-09
 83.64575     20.9 1.322e+04 1.970e-09
 83.65625     20.0 1.337e+04 2.085e-09
 83.67654     16.9 1.321e+04 1.838e-09
 83.69734     13.7 1.298e+04 1.753e-09
 83.70784     13.7 1.279e+04 1.592e-09
 83.71854     10.7 1.290e+04 1.806e-09
 83.73110      9.2 1.263e+04 2.044e-09
 83.74159      8.7 1.257e+04 2.030e-09
 83.76054      8.4 1.215e+04 1.943e-09
 83.77301      8.8 1.170e+04 1.426e-09
 83.78351      9.4 1.146e+04 1.232e-09
 83.80253      7.8 1.131e+04 6.582e-10
 83.82778      3.2 1.002e+04 2.983e-10
 83.84888      3.7 9.499e+03 2.257e-10
 83.87622     -1.8 9.203e+03 1.761e-10
 83.90199     -8.9 1.201e+04 5.518e-10
 83.90822    -10.0 1.242e+04 8.831e-10
 83.91385     -9.2 1.229e+04 8.545e-10
 83.92852    -11.5 1.385e+04 1.978e-09
 83.94952    -12.1 1.548e+04 4.317e-09
 83.96853    -12.7 1.643e+04 7.285e-09
 83.97903    -11.9 1.629e+04 6.810e-09
 83.98714    -11.9 1.707e+04 8.564e-09
 83.99764    -13.2 1.760e+04 9.864e-09
 84.01251    -15.6 1.719e+04 7.825e-09
 84.03351    -19.0 1.597e+04 5.049e-09
 84.04420    -22.5 1.419e+04 3.224e-09
 84.05470    -21.7 1.426e+04 3.311e-09
 84.07249    -23.3 1.328e+04 2.512e-09
 84.08299    -24.8 1.313e+04 2.444e-09
 84.09651    -25.8 1.275e+04 2.011e-09
 84.10937    -27.4 1.247e+04 1.705e-09
 84.11987    -27.0 1.242e+04 1.688e-09
 84.13850    -28.8 1.228e+04 1.559e-09
 84.17010    -30.8 1.245e+04 1.533e-09
 84.21219    -35.3 1.271e+04 1.714e-09
 84.23991    -39.2 1.279e+04 1.919e-09
 84.25010    -37.6 1.247e+04 1.626e-09
 84.26438    -39.2 1.214e+04 1.559e-09
 84.29619    -41.2 1.174e+04 1.425e-09
 84.32759    -41.3 1.112e+04 1.062e-09
 84.33903    -42.9 1.045e+04 6.404e-10
 84.34953    -43.5 1.012e+04 4.902e-10
 84.36948    -45.1 9.731e+03 3.298e-10
 84.38056    -45.7 9.643e+03 3.027e-10
 84.39106    -45.3 9.668e+03 3.175e-10
 84.41398    -45.9 9.655e+03 2.957e-10
 84.43507    -45.3 9.560e+03 2.820e-10
 84.46417    -46.3 9.352e+03 2.553e-10
 84.50060    -47.3 9.321e+03 2.517e-10
 84.52160    -47.1 9.535e+03 2.867e-10
 84.54816    -48.8 9.649e+03 2.979e-10
 84.58477    -50.8 9.982e+03 3.586e-10
 84.60577    -50.0 9.894e+03 3.950e-10
 84.62156    -51.1 1.015e+04 4.786e-10
 84.64125    -52.2 1.021e+04 5.237e-10
 84.65175    -52.8 1.013e+04 5.366e-10
 84.66346    -53.7 1.011e+04 5.652e-10
 84.68042    -54.3 1.006e+04 5.497e-10
 84.69092    -53.8 1.007e+04 5.423e-10
 84.70546    -54.6 1.004e+04 4.558e-10
 84.71692    -54.9 1.003e+04 4.379e-10
 84.72742    -55.1 9.997e+03 4.346e-10
 84.75537    -55.7 9.887e+03 3.787e-10
 84.77647    -54.9 9.762e+03 3.476e-10
 84.78229    -55.3 9.550e+03 3.015e-10
 84.80328    -55.7 9.624e+03 3.274e-10
 84.84214    -55.9 9.534e+03 3.160e-10
 84.88414    -56.0 9.458e+03 2.997e-10
 84.91263    -56.1 9.384e+03 2.771e-10
 84.93363    -56.7 9.374e+03 2.757e-10
 84.96813    -55.8 9.303e+03 2.583e-10
 85.01013    -56.3 9.470e+03 2.717e-10
 85.03241    -57.0 9.880e+03 3.542e-10
 85.04282    -56.4 9.839e+03 3.387e-10
 85.05328    -57.8 1.008e+04 4.698e-10
 85.06378    -58.1 1.010e+04 4.939e-10
 85.08342    -58.7 1.042e+04 7.197e-10
 85.10442    -59.5 1.104e+04 9.860e-10
 85.11766    -61.1 1.212e+04 1.411e-09
 85.12119    -59.9 1.178e+04 1.256e-09
 85.12895    -60.3 1.195e+04 1.307e-09
 85.14642    -63.2 1.321e+04 1.969e-09
 85.16742    -66.3 1.419e+04 3.016e-09
 85.18362    -68.9 1.475e+04 4.120e-09
 85.19412    -69.0 1.487e+04 4.340e-09
 85.20301    -70.9 1.511e+04 4.781e-09
 85.21351    -70.2 1.514e+04 4.853e-09
 85.23041    -72.1 1.518e+04 4.869e-09
 85.24880    -74.2 1.474e+04 3.219e-09
 85.25929    -74.2 1.479e+04 3.197e-09
 85.27241    -77.0 1.329e+04 1.475e-09
 85.28846    -79.7 1.139e+04 7.681e-10
 85.30912    -78.1 1.196e+04 8.652e-10
 85.32456    -79.2 1.152e+04 7.580e-10
 85.34600    -80.7 1.024e+04 5.001e-10
 85.38809    -80.6 9.811e+03 3.830e-10
 85.43009    -79.6 9.556e+03 3.118e-10
 85.45501    -78.4 9.447e+03 2.757e-10
 85.46317    -78.4 9.499e+03 3.086e-10
 85.48025    -77.5 9.390e+03 2.930e-10
 85.51408    -76.1 9.376e+03 2.871e-10
 85.55608    -74.6 9.391e+03 2.903e-10
 85.58535    -73.1 9.528e+03 3.048e-10
 85.60635    -73.0 9.506e+03 3.141e-10
 85.62995    -71.5 9.679e+03 3.341e-10
 85.65095    -70.9 9.740e+03 3.544e-10
 85.68207    -69.4 9.915e+03 3.765e-10
 85.71570    -68.0 1.001e+04 3.767e-10
 85.73669    -67.6 1.033e+04 4.449e-10
 85.76606    -66.4 1.045e+04 4.421e-10
 85.80065    -65.4 1.054e+04 4.501e-10
 85.82155    -65.5 1.077e+04 5.598e-10
 85.83936    -65.1 1.081e+04 5.854e-10
 85.85634    -64.7 1.084e+04 6.097e-10
 85.86684    -65.1 1.109e+04 8.262e-10
 85.88136    -64.7 1.118e+04 8.648e-10
 85.89630    -64.4 1.129e+04 8.939e-10
 85.90680    -64.5 1.142e+04 1.007e-09
 85.92152    -64.4 1.154e+04 1.035e-09
 85.93201    -64.8 1.196e+04 1.332e-09
 85.94435    -64.9 1.200e+04 1.345e-09
 85.96535    -64.7 1.200e+04 1.319e-09
 85.98165    -64.4 1.188e+04 1.231e-09
 85.99214    -64.2 1.190e+04 1.234e-09
 85.99719    -63.7 1.171e+04 1.044e-09
 86.00769    -63.8 1.172e+04 1.034e-09
 86.02834    -63.3 1.148e+04 7.885e-10
 86.04934    -63.1 1.128e+04 5.760e-10
 86.06236    -63.2 1.108e+04 4.360e-10
 86.06951    -63.4 1.100e+04 4.028e-10
 86.07749    -63.6 1.093e+04 3.893e-10
 86.10194    -63.1 1.082e+04 3.476e-10
 86.12773    -61.8 1.040e+04 2.886e-10
 86.14673    -61.6 1.048e+04 2.978e-10
 86.16304    -61.4 1.044e+04 2.957e-10
 86.18603    -59.8 1.023e+04 2.713e-10
 86.22802    -58.2 1.017e+04 2.676e-10
 86.25807    -56.6 1.016e+04 2.756e-10
 86.27907    -56.8 1.044e+04 3.631e-10
 86.31202    -55.6 1.045e+04 4.134e-10
 86.33373    -54.4 1.053e+04 5.013e-10
 86.35473    -54.4 1.036e+04 5.308e-10
 86.38842    -52.9 1.034e+04 5.953e-10
 86.40941    -53.3 1.048e+04 6.976e-10
 86.43800    -51.7 1.044e+04 6.883e-10
 86.46399    -50.0 1.035e+04 6.216e-10
 86.47439    -50.2 1.034e+04 6.335e-10
 86.49030    -50.0 1.026e+04 5.971e-10
 86.50433    -49.0 1.014e+04 5.483e-10
 86.52219    -48.9 9.989e+03 4.902e-10
 86.53976    -49.2 9.972e+03 4.783e-10
 86.56399    -47.3 9.692e+03 3.926e-10
 86.60599    -45.2 9.358e+03 3.095e-10
 86.64799    -42.9 9.092e+03 2.460e-10
 86.67010    -40.8 8.951e+03 2.063e-10
 86.67624    -40.8 8.907e+03 1.968e-10
 86.69612    -40.2 8.793e+03 1.861e-10
 86.73198    -38.1 8.776e+03 1.742e-10
 86.77398    -35.9 8.782e+03 1.698e-10
 86.80045    -33.7 8.808e+03 1.669e-10
 86.82145    -33.5 8.814e+03 1.728e-10
 86.84582    -31.3 8.827e+03 1.706e-10
 86.86682    -30.9 8.812e+03 1.708e-10
 86.89997    -28.8 8.834e+03 1.685e-10
 86.93079    -26.7 8.868e+03 1.635e-10
 86.95179    -26.3 8.855e+03 1.603e-10
 86.98396    -24.2 8.872e+03 1.537e-10
 87.01652    -22.1 8.892e+03 1.458e-10
 87.03752    -22.0 8.864e+03 1.478e-10
 87.06114    -20.0 8.885e+03 1.477e-10
 87.08213    -19.6 8.922e+03 1.515e-10
 87.10995    -17.5 8.963e+03 1.566e-10
 87.15194    -15.4 9.014e+03 1.586e-10
 87.18721    -13.2 9.031e+03 1.563e-10
 87.20575    -13.1 8.982e+03 1.618e-10
 87.21248    -12.6 9.052e+03 1.745e-10
 87.23594    -10.5 9.109e+03 1.653e-10
 87.27793     -8.4 9.172e+03 1.504e-10
 87.31993     -6.3 9.211e+03 1.400e-10
 87.34282     -4.3 9.222e+03 1.385e-10
 87.35981     -3.9 9.374e+03 1.761e-10
 87.37891     -4.0 9.375e+03 1.938e-10
 87.40392     -1.9 9.462e+03 2.094e-10
 87.44592      0.3 9.594e+03 2.216e-10
 87.47317      2.2 9.724e+03 2.270e-10
 87.49417      2.5 9.952e+03 2.749e-10
 87.52861      4.2 1.005e+04 2.785e-10
 87.54961      4.0 1.007e+04 2.823e-10
 87.57191      5.6 1.014e+04 2.873e-10
 87.60351      7.6 1.021e+04 2.924e-10
 87.62451      7.6 1.021e+04 2.928e-10
 87.65590      9.6 1.025e+04 2.873e-10
 87.69790     11.8 1.016e+04 2.640e-10
 87.72030     14.0 1.014e+04 2.260e-10
 87.73526     13.7 1.012e+04 1.900e-10
 87.75486     13.9 1.005e+04 1.520e-10
 87.78189     15.7 1.017e+04 1.180e-10
 87.82389     17.4 1.014e+04 1.089e-10
 87.86420     19.0 1.014e+04 1.212e-10
 87.88520     19.3 1.008e+04 8.876e-11
 87.89100     21.5 9.973e+03 1.086e-10
 87.91200     21.2 1.002e+04 8.639e-11
 87.94988     23.7 9.985e+03 1.010e-10
 87.99187     26.1 1.002e+04 1.060e-10
 88.01554     28.3 1.002e+04 1.061e-10
 88.03654     28.6 1.001e+04 8.405e-11
 88.06169     30.8 1.001e+04 8.786e-11
 88.08269     30.7 1.001e+04 8.042e-11
 88.11786     32.6 1.003e+04 8.730e-11
 88.14589     34.5 1.003e+04 1.014e-10
 88.16689     34.8 1.005e+04 8.559e-11
 88.20185     36.8 1.007e+04 1.054e-10
 88.23239     38.8 1.010e+04 1.335e-10
 88.25339     38.7 1.008e+04 1.196e-10
 88.27623     40.8 1.016e+04 1.411e-10
 88.29723     41.1 1.017e+04 1.073e-10
 88.32784     43.0 1.025e+04 1.146e-10
 88.36984     44.7 1.029e+04 1.194e-10
 88.40309     46.3 1.030e+04 1.272e-10
 88.41883     46.1 1.026e+04 1.164e-10
 88.42758     46.4 1.025e+04 1.165e-10
 88.45383     48.0 1.027e+04 1.326e-10
 88.49583     49.6 1.032e+04 1.559e-10
 88.53692     51.2 1.040e+04 1.921e-10
 88.55792     51.6 1.045e+04 2.202e-10
 88.57378     53.2 1.058e+04 2.812e-10
 88.59478     53.3 1.047e+04 2.437e-10
 88.62182     54.9 1.061e+04 2.980e-10
 88.66382     56.4 1.076e+04 3.519e-10
 88.68827     57.9 1.089e+04 4.050e-10
 88.70926     57.9 1.089e+04 4.290e-10
 88.74448     59.2 1.103e+04 4.838e-10
 88.76548     59.5 1.091e+04 4.407e-10
 88.78980     60.8 1.103e+04 4.873e-10
 88.81861     62.0 1.111e+04 5.043e-10
 88.83961     61.5 1.105e+04 4.894e-10
 88.87380     62.5 1.106e+04 4.801e-10
 88.91518     63.6 1.104e+04 4.576e-10
 88.93618     64.2 1.093e+04 4.129e-10
 88.94895     65.2 1.092e+04 3.903e-10
 88.96995     64.8 1.068e+04 2.824e-10
 88.99979     65.8 1.071e+04 2.525e-10
 89.04178     66.9 1.075e+04 2.446e-10
 89.07930     67.8 1.081e+04 2.539e-10
 89.10030     67.4 1.037e+04 1.710e-10
 89.10687     68.0 1.064e+04 2.477e-10
 89.12787     68.1 1.075e+04 2.824e-10
 89.16777     69.0 1.112e+04 4.189e-10
 89.20964     69.8 1.152e+04 5.148e-10
 89.25164     70.7 1.143e+04 4.489e-10
 89.27757     71.3 1.157e+04 4.337e-10
 89.29857     71.1 1.146e+04 3.920e-10
 89.33576     71.7 1.163e+04 4.258e-10
 89.36099     72.6 1.166e+04 4.810e-10
 89.38198     72.8 1.164e+04 4.893e-10
 89.40915     74.1 1.171e+04 5.592e-10
 89.42596     74.5 1.176e+04 5.935e-10
 89.43646     74.5 1.176e+04 6.091e-10
 89.44807     75.3 1.185e+04 6.763e-10
 89.45857     75.6 1.185e+04 6.960e-10
 89.47205     76.2 1.197e+04 7.661e-10
 89.49113     76.0 1.217e+04 8.476e-10
 89.50163     75.4 1.240e+04 9.181e-10
 89.51405     71.4 1.463e+04 1.574e-09
 89.53342     64.3 1.813e+04 5.846e-09
 89.54392     62.4 1.932e+04 9.953e-09
 89.55604     59.1 1.974e+04 2.049e-08
 89.56681     57.1 1.928e+04 1.911e-08
 89.57731     56.8 1.919e+04 1.920e-08
 89.59804     55.5 1.802e+04 1.134e-08
 89.61877     52.3 1.658e+04 5.281e-09
 89.62926     50.5 1.679e+04 4.943e-09
 89.63198     45.2 1.494e+04 2.712e-09
 89.64248     44.8 1.475e+04 2.959e-09
 89.66104     43.5 1.424e+04 2.844e-09
 89.68203     43.7 1.418e+04 2.850e-09
 89.69715     44.3 1.410e+04 2.719e-09
 89.70765     44.7 1.432e+04 3.124e-09
 89.71461     45.0 1.418e+04 2.646e-09
 89.72511     45.1 1.443e+04 3.427e-09
 89.74503     45.1 1.420e+04 2.518e-09
 89.76232     44.6 1.393e+04 1.982e-09
 89.77282     44.7 1.411e+04 2.080e-09
 89.78703     44.1 1.379e+04 1.956e-09
 89.79996     43.5 1.385e+04 2.003e-09
 89.81046     42.9 1.385e+04 2.041e-09
 89.82750     41.6 1.424e+04 2.302e-09
 89.83799     41.7 1.430e+04 2.427e-09
 89.85002     39.8 1.487e+04 3.266e-09
 89.87102     38.4 1.534e+04 4.671e-09
 89.88531     37.4 1.528e+04 4.990e-09
 89.89581     37.4 1.485e+04 4.156e-09
 89.90317     37.2 1.458e+04 3.797e-09
 89.91367     37.8 1.469e+04 4.127e-09
 89.93401     37.1 1.460e+04 3.052e-09
 89.95501     34.7 1.422e+04 1.908e-09
 89.96834     33.5 1.368e+04 1.621e-09
 89.97349     34.2 1.376e+04 1.642e-09
 89.98116     34.7 1.373e+04 1.653e-09
 90.00760     33.2 1.308e+04 1.307e-09
 90.03371     32.8 1.250e+04 1.035e-09
 90.05470     33.8 1.264e+04 1.167e-09
 90.09169     34.4 1.258e+04 1.018e-09
 90.13105     34.1 1.247e+04 9.231e-10
 90.15195     34.3 1.239e+04 8.832e-10
 90.16386     34.3 1.205e+04 7.898e-10
 90.17435     34.8 1.209e+04 7.984e-10
 90.18599     34.3 1.185e+04 7.491e-10
 90.21759     35.7 1.136e+04 5.994e-10
 90.25968     35.8 1.071e+04 4.532e-10
 90.29440     36.8 1.030e+04 2.752e-10
 90.31539     37.8 1.040e+04 3.005e-10
 90.34367     39.3 1.027e+04 1.879e-10
 90.38567     39.3 1.018e+04 1.062e-10
 90.42474     39.6 9.776e+03 9.198e-11
 90.44574     40.2 9.832e+03 1.168e-10
 90.46966     41.2 9.728e+03 1.223e-10
 90.49344     42.7 9.618e+03 1.292e-10
 90.51444     43.4 9.666e+03 1.390e-10
 90.55366     44.9 9.640e+03 1.232e-10
 90.57608     46.1 9.627e+03 1.058e-10
 90.59708     46.7 9.662e+03 1.147e-10
 90.63765     47.6 9.624e+03 9.902e-11
 90.66414     48.6 9.594e+03 9.571e-11
 90.68514     49.1 9.636e+03 8.748e-11
 90.70643     50.1 9.641e+03 9.143e-11
 90.72743     50.8 9.635e+03 9.158e-11
 90.76364     51.9 9.660e+03 1.033e-10
 90.80563     52.9 9.699e+03 1.283e-10
 90.83483     53.9 9.786e+03 1.698e-10
 90.84497     54.7 9.832e+03 1.630e-10
 90.85777     55.7 9.812e+03 1.483e-10
 90.88963     56.7 9.919e+03 1.917e-10
 90.93162     57.6 1.007e+04 2.494e-10
 90.96712     58.5 1.029e+04 3.106e-10
 90.98811     59.5 1.046e+04 3.315e-10
 91.00553     59.9 1.079e+04 4.160e-10
 91.02653     60.9 1.081e+04 3.834e-10
 91.04269     60.2 1.092e+04 4.360e-10
 91.05309     60.6 1.093e+04 4.512e-10
 91.06792     60.2 1.103e+04 5.130e-10
 91.08891     60.0 1.122e+04 6.280e-10
 91.10118     60.0 1.135e+04 7.425e-10
 91.10953     60.4 1.143e+04 7.811e-10
 91.11826     60.7 1.155e+04 8.707e-10
 91.13091     60.8 1.163e+04 9.675e-10
 91.15191     60.7 1.169e+04 9.742e-10
 91.17291     60.5 1.163e+04 9.429e-10
 91.18653     60.2 1.167e+04 9.539e-10
 91.19703     60.9 1.188e+04 1.049e-09
 91.22550     60.6 1.132e+04 8.049e-10
 91.24880     60.1 1.079e+04 5.960e-10
 91.26980     60.5 1.104e+04 7.131e-10
 91.30959     60.6 1.054e+04 4.637e-10
 91.34692     61.0 1.012e+04 2.687e-10
 91.36792     62.1 1.022e+04 3.069e-10
 91.37915     62.5 9.890e+03 1.737e-10
 91.40015     62.8 9.953e+03 1.792e-10
 91.43558     63.2 9.611e+03 1.281e-10
 91.47758     64.4 9.364e+03 1.205e-10
 91.50949     66.1 9.260e+03 1.151e-10
 91.52854     66.6 9.265e+03 1.182e-10
 91.53862     67.5 9.330e+03 1.206e-10
 91.56157     69.2 9.252e+03 1.164e-10
 91.60357     71.1 9.165e+03 1.096e-10
 91.63984     72.9 9.096e+03 1.021e-10
 91.66083     73.4 9.123e+03 1.117e-10
 91.68756     75.3 9.085e+03 1.062e-10
 91.70931     77.2 9.051e+03 9.933e-11
 91.73031     78.0 9.077e+03 1.003e-10
 91.77018     79.9 9.048e+03 9.268e-11
 91.79118     80.5 9.086e+03 9.912e-11
 91.81355     82.4 9.052e+03 8.711e-11
 91.85554     84.1 9.024e+03 7.850e-11
 91.88001     85.9 9.024e+03 7.757e-11
 91.90101     86.7 9.066e+03 7.956e-11
 91.92152     88.5 9.078e+03 8.107e-11
 91.94252     89.0 9.124e+03 8.407e-11
 91.98153     90.8 9.165e+03 9.315e-11
 92.02353     92.5 9.236e+03 1.086e-10
 92.05071     94.3 9.319e+03 1.263e-10
 92.05805     95.0 9.327e+03 1.263e-10
 92.07287     95.5 9.425e+03 1.357e-10
 92.10752     97.1 9.512e+03 1.499e-10
 92.14952     98.7 9.574e+03 1.594e-10
 92.18221    100.1 9.600e+03 1.654e-10
 92.20321    100.3 9.684e+03 1.699e-10
 92.22140    101.6 9.731e+03 1.714e-10
 92.24240    102.2 9.834e+03 1.899e-10
 92.27551    103.5 9.905e+03 2.057e-10
 92.31256    104.7 9.957e+03 2.113e-10
 92.33356    104.8 9.963e+03 2.109e-10
 92.35950    106.0 9.952e+03 2.086e-10
 92.39210    107.3 9.901e+03 1.944e-10
 92.41310    107.7 1.004e+04 2.252e-10
 92.44290    109.1 9.929e+03 1.830e-10
 92.46390    109.3 9.930e+03 1.769e-10
 92.48549    110.7 9.825e+03 1.378e-10
 92.52749    112.1 9.742e+03 1.068e-10
 92.56280    113.5 9.674e+03 8.726e-11
 92.58379    113.4 9.760e+03 9.309e-11
 92.59424    114.8 9.745e+03 8.905e-11
 92.61524    115.2 9.812e+03 1.036e-10
 92.65348    116.7 9.849e+03 1.031e-10
 92.69547    118.2 9.878e+03 1.050e-10
 92.72459    119.6 9.960e+03 1.112e-10
 92.74161    120.0 1.002e+04 1.219e-10
 92.75449    119.6 1.013e+04 1.388e-10
 92.77947    120.8 1.026e+04 1.485e-10
 92.82146    121.9 1.043e+04 1.793e-10
 92.85493    123.0 1.071e+04 2.430e-10
 92.87593    123.5 1.067e+04 2.346e-10
 92.90419    124.5 1.104e+04 3.337e-10
 92.92519    123.3 1.127e+04 3.979e-10
 92.94745    124.3 1.174e+04 5.541e-10
 92.97885    125.0 1.187e+04 6.380e-10
 92.99558    125.1 1.201e+04 7.499e-10
 93.00608    125.2 1.196e+04 6.971e-10
 93.02075    124.6 1.203e+04 7.267e-10
 93.04175    124.9 1.202e+04 7.172e-10
 93.06075    125.3 1.203e+04 6.459e-10
 93.07125    125.3 1.197e+04 5.727e-10
 93.08375    125.4 1.197e+04 5.323e-10
 93.09569    125.6 1.198e+04 4.568e-10
 93.11678    125.1 1.180e+04 3.733e-10
 93.15743    126.1 1.164e+04 3.193e-10
 93.19943    126.6 1.160e+04 3.140e-10
 93.24143    127.1 1.161e+04 3.172e-10
 93.26658    127.6 1.161e+04 3.130e-10
 93.27112    127.7 1.160e+04 3.146e-10
 93.28796    127.9 1.155e+04 3.052e-10
 93.32542    128.0 1.160e+04 2.863e-10
 93.36742    127.9 1.155e+04 2.708e-10
 93.39731    127.7 1.156e+04 2.778e-10
 93.41831    128.0 1.154e+04 2.780e-10
 93.43728    127.6 1.165e+04 3.274e-10
 93.45827    127.0 1.179e+04 4.102e-10
 93.49341    126.3 1.201e+04 5.506e-10
 93.52765    125.9 1.215e+04 6.990e-10
 93.54865    126.4 1.210e+04 6.581e-10
 93.57740    126.2 1.208e+04 7.839e-10
 93.60797    126.2 1.208e+04 8.341e-10
 93.62897    125.7 1.183e+04 6.818e-10
 93.65800    125.9 1.192e+04 6.822e-10
 93.67900    126.8 1.179e+04 6.194e-10
 93.69279    126.6 1.197e+04 6.690e-10
 93.70362    126.4 1.205e+04 6.877e-10
 93.71412    126.0 1.185e+04 5.728e-10
 93.73347    125.6 1.181e+04 5.472e-10
 93.74397    126.0 1.179e+04 5.303e-10
 93.75569    125.8 1.176e+04 5.223e-10
 93.77669    125.8 1.163e+04 4.757e-10
 93.78897    125.7 1.158e+04 4.549e-10
 93.79957    126.0 1.148e+04 4.205e-10
 93.80934    126.5 1.123e+04 3.416e-10
 93.83034    127.4 1.124e+04 3.449e-10
 93.87137    128.1 1.099e+04 2.711e-10
 93.91337    128.8 1.085e+04 2.307e-10
 93.93969    129.6 1.083e+04 2.290e-10
 93.95468    130.3 1.084e+04 2.296e-10
 93.97036    130.9 1.086e+04 2.264e-10
 93.99736    131.8 1.087e+04 2.285e-10
 94.03936    132.7 1.093e+04 2.318e-10
 94.07003    133.7 1.099e+04 2.402e-10
 94.09103    134.6 1.096e+04 2.302e-10
 94.12006    135.6 1.106e+04 2.445e-10
 94.14106    135.9 1.103e+04 2.214e-10
 94.16535    137.0 1.109e+04 2.292e-10
 94.20037    138.2 1.118e+04 2.463e-10
 94.22137    139.2 1.115e+04 2.451e-10
 94.24934    140.5 1.126e+04 2.765e-10
 94.29076    142.0 1.139e+04 3.066e-10
 94.31176    142.3 1.120e+04 2.541e-10
 94.33072    143.8 1.128e+04 2.721e-10
 94.35172    144.9 1.133e+04 2.913e-10
 94.37533    146.4 1.151e+04 3.167e-10
 94.41733    147.9 1.170e+04 3.436e-10
 94.45932    148.7 1.180e+04 3.635e-10
 94.48196    148.9 1.190e+04 4.075e-10
 94.48400    149.3 1.188e+04 4.585e-10
 94.49276    148.9 1.201e+04 5.344e-10
 94.51162    148.7 1.229e+04 8.160e-10
 94.53262    148.6 1.272e+04 1.294e-09
 94.54704    148.6 1.323e+04 1.993e-09
 94.55754    149.3 1.336e+04 2.134e-09
 94.56761    149.2 1.384e+04 2.941e-09
 94.57810    148.8 1.377e+04 2.789e-09
 94.59562    148.3 1.413e+04 3.124e-09
 94.61221    147.3 1.422e+04 3.158e-09
 94.62271    147.3 1.435e+04 3.311e-09
 94.63761    145.7 1.444e+04 3.488e-09
 94.65295    143.8 1.440e+04 3.622e-09
 94.66345    143.2 1.427e+04 3.601e-09
 94.67738    141.6 1.426e+04 3.566e-09
 94.68788    141.8 1.465e+04 4.590e-09
 94.70061    140.6 1.450e+04 4.417e-09
 94.72161    139.8 1.404e+04 3.710e-09
 94.73830    139.2 1.340e+04 2.490e-09
 94.74875    139.6 1.353e+04 2.796e-09
 94.76355    139.4 1.327e+04 1.774e-09
 94.78460    137.4 1.243e+04 7.682e-10
 94.80560    134.4 1.112e+04 4.227e-10
 94.81823    132.4 1.065e+04 4.041e-10
 94.82578    132.2 1.064e+04 4.410e-10
 94.83415    133.1 1.090e+04 4.899e-10
 94.84760    131.9 1.079e+04 4.892e-10
 94.87300    132.6 1.079e+04 4.952e-10
 94.89409    132.3 1.129e+04 7.025e-10
 94.92128    132.2 1.115e+04 6.769e-10
 94.96328    132.8 1.090e+04 5.631e-10
 94.99454    133.3 1.057e+04 4.386e-10
 95.01370    134.1 1.054e+04 4.388e-10
 95.02444    133.7 1.057e+04 4.382e-10
 95.04727    134.3 1.015e+04 3.472e-10
 95.08927    135.3 9.876e+03 3.098e-10
 95.13127    136.5 9.682e+03 2.901e-10
 95.15478    138.0 9.526e+03 2.742e-10
 95.16776    138.3 9.595e+03 2.838e-10
 95.18624    139.0 9.586e+03 2.850e-10
 95.21526    140.5 9.548e+03 2.826e-10
 95.25726    141.7 9.563e+03 2.919e-10
 95.28513    142.8 9.624e+03 3.197e-10
 95.30613    143.1 9.829e+03 3.706e-10
 95.33593    143.9 9.866e+03 3.915e-10
 95.35693    144.3 9.781e+03 3.764e-10
 95.38325    145.1 9.636e+03 3.534e-10
 95.41547    146.2 9.358e+03 2.878e-10
 95.43647    146.1 9.416e+03 2.962e-10
 95.46724    147.2 9.054e+03 2.063e-10
 95.50663    148.3 8.740e+03 1.407e-10
 95.52763    148.6 8.666e+03 1.256e-10
 95.54582    149.5 8.483e+03 9.804e-11
 95.56681    149.8 8.476e+03 1.002e-10
 95.59323    151.0 8.425e+03 9.556e-11
 95.63522    152.1 8.421e+03 9.514e-11
 95.67616    153.2 8.414e+03 9.620e-11
 95.69716    153.6 8.396e+03 9.804e-11
 95.71922    154.9 8.371e+03 9.542e-11
 95.76121    155.6 8.371e+03 1.038e-10
 95.80321    156.1 8.428e+03 1.239e-10
 95.82750    156.3 8.577e+03 1.600e-10
 95.84850    156.7 8.624e+03 1.716e-10
 95.86902    156.5 8.904e+03 2.297e-10
 95.89002    156.4 8.939e+03 2.296e-10
 95.92920    155.9 9.167e+03 2.772e-10
 95.95427    155.7 9.294e+03 3.076e-10
 95.96182    155.5 9.302e+03 3.036e-10
 95.96815    155.2 9.420e+03 3.294e-10
 95.98150    154.7 9.509e+03 3.432e-10
 96.00250    153.0 9.917e+03 4.078e-10
 96.02282    149.1 1.103e+04 7.089e-10
 96.03332    149.1 1.079e+04 6.790e-10
 96.03952    145.4 1.215e+04 1.391e-09
 96.05002    144.9 1.206e+04 1.383e-09
 96.06549    142.3 1.306e+04 2.510e-09
 96.08649    140.3 1.364e+04 3.183e-09
 96.09850    138.2 1.365e+04 3.135e-09
 96.10899    138.8 1.312e+04 2.501e-09
 96.12487    136.8 1.299e+04 2.237e-09
 96.13537    136.6 1.274e+04 1.956e-09
 96.14949    134.7 1.230e+04 1.501e-09
 96.16367    132.7 1.169e+04 1.155e-09
 96.17417    133.4 1.160e+04 1.204e-09
 96.19148    132.2 1.141e+04 1.156e-09
 96.21022    131.4 1.143e+04 1.174e-09
 96.22072    131.7 1.139e+04 1.196e-09
 96.22884    131.3 1.155e+04 1.326e-09
 96.23934    132.2 1.170e+04 1.428e-09
 96.25448    131.7 1.203e+04 1.683e-09
 96.27547    131.2 1.238e+04 2.052e-09
 96.29401    130.7 1.276e+04 2.438e-09
 96.30361    130.9 1.292e+04 2.548e-09
 96.30607    130.8 1.295e+04 2.514e-09
 96.31747    130.0 1.329e+04 2.934e-09
 96.33847    129.0 1.336e+04 3.017e-09
 96.35918    128.1 1.330e+04 2.959e-09
 96.36968    128.0 1.344e+04 3.174e-09
 96.38047    127.0 1.321e+04 2.893e-09
 96.39141    125.9 1.287e+04 2.462e-09
 96.40191    125.4 1.311e+04 2.727e-09
 96.42246    124.1 1.282e+04 2.349e-09
 96.43486    122.8 1.263e+04 2.156e-09
 96.44536    122.0 1.282e+04 2.365e-09
 96.46446    120.9 1.271e+04 2.356e-09
 96.47676    120.6 1.267e+04 2.389e-09
 96.48726    120.1 1.265e+04 2.349e-09
 96.50003    120.1 1.255e+04 2.235e-09
 96.51053    119.4 1.268e+04 2.324e-09
 96.52745    119.6 1.244e+04 1.975e-09
 96.54845    119.7 1.217e+04 1.606e-09
 96.56211    119.7 1.185e+04 1.275e-09
 96.56836    118.9 1.160e+04 1.058e-09
 96.57570    117.8 1.145e+04 9.267e-10
 96.59045    117.9 1.116e+04 7.539e-10
 96.61145    117.7 1.098e+04 6.411e-10
 96.63047    118.6 1.083e+04 5.229e-10
 96.65157    117.5 1.062e+04 4.771e-10
 96.68514    119.6 1.035e+04 4.026e-10
 96.72250    121.6 1.011e+04 3.481e-10
 96.74350    122.0 9.955e+03 3.042e-10
 96.76091    123.9 9.848e+03 2.694e-10
 96.78191    123.6 9.860e+03 2.699e-10
 96.81112    125.4 9.870e+03 2.523e-10
 96.85312    127.2 9.899e+03 2.506e-10
 96.89126    129.0 9.936e+03 2.537e-10
 96.91034    128.5 1.007e+04 2.724e-10
 96.91420    129.1 1.003e+04 2.361e-10
 96.93711    130.7 1.010e+04 2.413e-10
 96.97911    132.2 1.024e+04 2.552e-10
 97.02111    133.5 1.042e+04 2.802e-10
 97.04260    134.6 1.059e+04 3.083e-10
 97.06360    134.3 1.081e+04 3.609e-10
 97.08489    135.4 1.099e+04 3.797e-10
 97.10589    136.3 1.101e+04 4.098e-10
 97.14710    137.5 1.124e+04 4.148e-10
 97.17294    138.6 1.143e+04 4.117e-10
 97.19394    138.2 1.166e+04 5.038e-10
 97.23109    139.2 1.176e+04 5.019e-10
 97.25559    140.0 1.185e+04 5.167e-10
 97.27659    140.9 1.188e+04 5.384e-10
 97.30329    141.6 1.210e+04 6.163e-10
 97.32429    140.6 1.249e+04 8.369e-10
 97.35708    140.5 1.299e+04 1.230e-09
 97.39907    140.0 1.364e+04 1.796e-09
 97.42619    138.8 1.433e+04 2.353e-09
 97.43659    139.6 1.446e+04 2.541e-09
 97.44394    138.0 1.497e+04 2.959e-09
 97.45444    136.7 1.509e+04 2.958e-09
 97.47237    134.5 1.509e+04 2.930e-09
 97.49337    132.7 1.485e+04 2.621e-09
 97.50911    131.0 1.438e+04 2.023e-09
 97.51668    130.1 1.410e+04 1.716e-09
 97.52194    130.8 1.434e+04 2.027e-09
 97.53537    129.1 1.382e+04 1.425e-09
 97.55637    127.2 1.342e+04 1.020e-09
 97.57428    125.0 1.309e+04 7.947e-10
 97.58478    124.5 1.288e+04 7.852e-10
 97.59679    122.8 1.267e+04 7.307e-10
 97.60729    123.2 1.272e+04 7.484e-10
 97.61936    121.7 1.256e+04 7.437e-10
 97.63945    120.3 1.258e+04 7.657e-10
 97.64995    120.4 1.263e+04 8.296e-10
 97.66136    118.4 1.295e+04 9.958e-10
 97.69295    116.8 1.295e+04 1.052e-09
 97.71532    114.6 1.290e+04 1.003e-09
 97.73632    114.4 1.300e+04 1.083e-09
 97.76768    113.0 1.246e+04 6.632e-10
 97.78868    113.7 1.239e+04 6.428e-10
 97.81904    112.8 1.188e+04 2.696e-10
 97.84566    111.5 1.161e+04 9.575e-11
 97.86666    111.1 1.141e+04 8.068e-11
 97.90303    110.0 1.079e+04 6.436e-11
 97.93838    110.1 1.069e+04 6.284e-11
 97.95937    111.0 1.068e+04 5.741e-11
 97.97601    111.7 1.066e+04 5.797e-11
 97.99701    112.0 1.063e+04 5.868e-11
 98.02902    112.7 1.065e+04 6.657e-11
 98.07102    113.1 1.070e+04 9.010e-11
 98.10635    113.1 1.071e+04 1.247e-10
 98.12341    113.6 1.068e+04 1.247e-10
 98.13007    114.7 1.065e+04 1.137e-10
 98.15501    114.7 1.062e+04 1.406e-10
 98.19701    114.5 1.078e+04 1.481e-10
 98.23670    114.0 1.096e+04 1.538e-10
 98.25770    114.5 1.059e+04 1.415e-10
 98.27977    113.5 1.079e+04 1.429e-10
 98.30077    114.5 1.096e+04 1.788e-10
 98.32300    112.8 1.124e+04 2.530e-10
 98.36499    111.0 1.141e+04 3.527e-10
 98.38804    109.3 1.133e+04 3.809e-10
 98.40904    109.8 1.116e+04 3.334e-10
 98.44899    108.4 1.105e+04 3.163e-10
 98.47146    107.3 1.074e+04 2.629e-10
 98.49246    107.7 1.078e+04 2.790e-10
 98.51839    106.7 1.043e+04 2.147e-10
 98.53938    107.3 1.042e+04 2.175e-10
 98.57497    106.7 1.023e+04 1.938e-10
 98.61697    106.3 1.018e+04 1.915e-10
 98.64216    105.9 1.016e+04 1.944e-10
 98.65292    105.7 1.011e+04 1.855e-10
 98.66973    106.3 1.001e+04 1.705e-10
 98.70096    105.9 9.983e+03 1.880e-10
 98.74296    105.6 9.944e+03 2.146e-10
 98.77907    105.3 9.989e+03 2.463e-10
 98.80007    106.0 9.984e+03 2.452e-10
 98.81286    105.4 1.008e+04 2.883e-10
 98.83386    105.0 9.998e+03 2.743e-10
 98.86895    104.3 1.012e+04 3.098e-10
 98.90942    103.4 1.029e+04 3.616e-10
 98.93042    103.8 1.026e+04 3.407e-10
 98.95294    102.7 1.037e+04 3.719e-10
 98.98355    101.6 1.037e+04 3.709e-10
 99.00455    101.0 1.041e+04 3.682e-10
 99.03694    100.2 1.039e+04 3.544e-10
 99.06076     99.5 1.019e+04 3.154e-10
 99.08176     99.4 1.050e+04 3.661e-10
 99.12093     98.9 1.016e+04 3.052e-10
 99.15425     98.4 9.802e+03 2.421e-10
 99.17525     98.3 9.845e+03 2.476e-10
 99.19111     97.7 9.630e+03 2.072e-10
 99.21210     97.9 9.689e+03 2.227e-10
 99.24692     97.2 9.652e+03 2.128e-10
 99.28891     96.6 9.741e+03 2.259e-10
 99.32145     96.0 1.004e+04 2.812e-10
 99.33648     96.2 1.019e+04 3.019e-10
 99.34594     96.9 1.059e+04 4.095e-10
 99.36231     96.4 1.063e+04 4.126e-10
 99.38321     96.3 1.064e+04 4.153e-10
 99.39693     95.7 1.068e+04 4.198e-10
 99.40743     95.6 1.074e+04 4.330e-10
 99.42060     95.4 1.073e+04 4.328e-10
 99.43110     95.1 1.077e+04 4.798e-10
 99.44621     94.5 1.078e+04 4.810e-10
 99.46210     94.0 1.080e+04 4.881e-10
 99.47260     93.5 1.083e+04 5.325e-10
 99.48820     92.9 1.082e+04 5.399e-10
 99.50595     92.4 1.080e+04 5.410e-10
 99.51645     92.1 1.090e+04 6.646e-10
 99.52727     91.7 1.085e+04 6.524e-10
 99.53777     91.4 1.087e+04 6.853e-10
 99.55120     90.7 1.088e+04 6.634e-10
 99.57219     89.6 1.095e+04 6.666e-10
 99.59129     88.0 1.115e+04 7.066e-10
 99.60104     87.9 1.125e+04 7.506e-10
 99.60294     87.1 1.145e+04 8.687e-10
 99.61419     85.4 1.160e+04 9.938e-10
 99.63519     84.1 1.171e+04 1.140e-09
 99.65619     83.0 1.182e+04 1.197e-09
 99.66811     81.7 1.202e+04 1.164e-09
 99.67807     81.0 1.216e+04 1.188e-09
 99.68714     80.6 1.226e+04 1.193e-09
 99.69818     75.0 1.340e+04 1.365e-09
 99.71918     64.9 1.611e+04 2.373e-09
 99.73329     56.5 1.689e+04 4.670e-09
 99.74379     54.0 1.670e+04 5.695e-09
 99.76118     52.1 1.642e+04 6.372e-09
 99.77249     50.1 1.640e+04 5.520e-09
 99.78299     48.5 1.615e+04 3.812e-09
 99.79846     42.1 1.659e+04 1.799e-09
 99.80896     36.1 1.555e+04 1.024e-09
 99.82417     27.9 1.186e+04 7.960e-10
 99.84517     25.0 1.126e+04 8.222e-10
 99.85784     24.0 1.146e+04 9.531e-10
 99.86580     24.3 1.145e+04 9.529e-10
 99.87413     23.7 1.143e+04 9.358e-10
 99.88717     22.9 1.160e+04 9.653e-10
 99.90817     21.2 1.149e+04 9.271e-10
 99.92880     20.2 1.149e+04 9.172e-10
 99.93930     19.5 1.134e+04 8.577e-10
 99.94319     18.5 1.112e+04 7.915e-10
 99.95369     18.7 1.094e+04 7.238e-10
 99.97116     18.0 1.072e+04 6.445e-10
 99.99407     18.0 1.076e+04 5.635e-10
