# Columns:
#   distance along LOS (in CHIMPs)
#   peculiar velocity  (in km/s)
#   temperature (K)
#   HI number density
# pos=(136.816,195.221,26.7783), angles=(1.64154,3.17861)
  0.00528     26.7 1.080e+04 1.002e-08
  0.02036     27.8 1.084e+04 1.042e-08
  0.03995     28.8 1.088e+04 1.064e-08
  0.05628     30.1 1.079e+04 1.016e-08
  0.06608     30.1 1.066e+04 9.980e-09
  0.07914     31.1 1.069e+04 9.823e-09
  0.09873     32.4 1.054e+04 9.060e-09
  0.11832     33.4 1.041e+04 8.325e-09
  0.13792     34.8 1.014e+04 6.858e-09
  0.15751     35.8 9.979e+03 5.903e-09
  0.17711     37.3 9.716e+03 4.692e-09
  0.19670     38.6 9.542e+03 3.858e-09
  0.22619     40.4 9.313e+03 3.039e-09
  0.26547     43.4 9.082e+03 2.082e-09
  0.30466     46.4 8.959e+03 1.499e-09
  0.34385     49.4 8.965e+03 1.258e-09
  0.38303     52.5 9.073e+03 1.229e-09
  0.42222     55.6 9.183e+03 1.313e-09
  0.46141     58.6 9.354e+03 1.521e-09
  0.50060     61.4 9.574e+03 1.812e-09
  0.53978     64.0 9.922e+03 2.382e-09
  0.57897     66.3 1.018e+04 2.956e-09
  0.60710     68.9 1.045e+04 3.505e-09
  0.62670     69.1 1.042e+04 3.139e-09
  0.64745     70.2 1.050e+04 3.538e-09
  0.66695     71.3 1.044e+04 3.840e-09
  0.68654     72.4 1.033e+04 4.125e-09
  0.70613     73.6 1.019e+04 4.379e-09
  0.72573     74.8 1.004e+04 4.492e-09
  0.74532     75.9 9.937e+03 4.475e-09
  0.76491     77.2 9.758e+03 4.291e-09
  0.78451     78.0 9.641e+03 4.178e-09
  0.80410     79.7 9.409e+03 3.798e-09
  0.82370     80.3 9.306e+03 3.619e-09
  0.85318     83.3 9.206e+03 3.627e-09
  0.89247     86.1 8.978e+03 3.370e-09
  0.92401     88.7 8.816e+03 3.222e-09
  0.94360     87.0 8.590e+03 2.986e-09
  0.97084     89.4 8.559e+03 3.258e-09
  1.01003     91.7 8.633e+03 3.749e-09
  1.04922     93.9 8.695e+03 4.194e-09
  1.08841     96.0 8.636e+03 4.344e-09
  1.12759     98.3 8.473e+03 4.110e-09
  1.15773    100.5 8.212e+03 3.600e-09
  1.17732    101.5 8.396e+03 3.969e-09
  1.20597    103.8 8.155e+03 3.542e-09
  1.24515    106.1 7.879e+03 3.123e-09
  1.28434    108.2 7.644e+03 2.848e-09
  1.32353    110.3 7.584e+03 2.796e-09
  1.36272    112.4 7.628e+03 2.848e-09
  1.40190    114.3 7.702e+03 2.906e-09
  1.43120    115.3 7.735e+03 2.938e-09
  1.44264    116.0 7.768e+03 3.046e-09
  1.45244    117.1 7.750e+03 2.982e-09
  1.46264    117.7 7.767e+03 3.177e-09
  1.47244    115.8 8.216e+03 4.106e-09
  1.48988    116.2 8.863e+03 5.409e-09
  1.50947    116.5 9.615e+03 7.260e-09
  1.52907    117.0 1.031e+04 9.477e-09
  1.54866    117.5 1.086e+04 1.172e-08
  1.56825    118.1 1.127e+04 1.359e-08
  1.58785    118.8 1.154e+04 1.486e-08
  1.60744    119.5 1.168e+04 1.530e-08
  1.62704    120.1 1.167e+04 1.488e-08
  1.64663    120.9 1.158e+04 1.403e-08
  1.66622    121.6 1.147e+04 1.313e-08
  1.68582    122.3 1.141e+04 1.245e-08
  1.70541    123.1 1.142e+04 1.234e-08
  1.71796    123.8 1.146e+04 1.243e-08
  1.72776    126.1 1.159e+04 1.274e-08
  1.74460    126.8 1.184e+04 1.342e-08
  1.76419    127.6 1.220e+04 1.477e-08
  1.78378    128.2 1.261e+04 1.635e-08
  1.80338    128.6 1.309e+04 1.788e-08
  1.82297    128.2 1.356e+04 1.912e-08
  1.84257    126.8 1.417e+04 2.007e-08
  1.86216    123.4 1.495e+04 2.196e-08
  1.88175    118.1 1.528e+04 2.408e-08
  1.90135    112.2 1.581e+04 2.515e-08
  1.92094    104.2 1.826e+04 2.494e-08
  1.93559     92.3 2.132e+04 2.374e-08
  1.94533     88.5 2.022e+04 2.349e-08
  1.95513     80.4 2.146e+04 2.752e-08
  1.96493     72.8 2.036e+04 3.205e-08
  1.97472     66.0 1.931e+04 3.728e-08
  1.98452     60.1 1.833e+04 3.890e-08
  1.99158     52.7 2.232e+04 4.395e-08
  1.99533     56.1 1.752e+04 3.739e-08
  1.99807     58.4 1.745e+04 3.479e-08
  2.00412     50.3 2.325e+04 4.424e-08
  2.01391     23.9 3.042e+04 3.037e-07
  2.02371     -2.0 2.048e+04 4.251e-06
  2.03351    -16.2 1.912e+04 4.246e-06
  2.04330    -22.7 2.015e+04 1.508e-06
  2.05310    -28.9 2.963e+04 1.389e-07
  2.06290    -43.1 4.360e+04 1.014e-08
  2.07764    -47.2 4.059e+04 8.307e-09
  2.09728    -67.6 1.569e+04 1.332e-08
  2.11688    -69.9 1.332e+04 1.452e-08
  2.13647    -69.3 1.358e+04 1.821e-08
  2.15606    -69.1 1.395e+04 2.037e-08
  2.17566    -69.1 1.404e+04 2.155e-08
  2.19525    -69.0 1.400e+04 2.224e-08
  2.21484    -68.9 1.389e+04 2.273e-08
  2.23444    -68.5 1.381e+04 2.318e-08
  2.25403    -67.8 1.371e+04 2.321e-08
  2.26859    -67.0 1.365e+04 2.142e-08
  2.27838    -68.0 1.372e+04 2.249e-08
  2.29322    -67.1 1.343e+04 1.904e-08
  2.31281    -66.3 1.306e+04 1.551e-08
  2.33241    -65.6 1.269e+04 1.228e-08
  2.35200    -65.0 1.232e+04 9.750e-09
  2.37159    -64.4 1.196e+04 7.923e-09
  2.39119    -63.7 1.163e+04 6.660e-09
  2.41078    -62.9 1.137e+04 5.774e-09
  2.43037    -62.0 1.120e+04 5.130e-09
  2.44997    -61.1 1.108e+04 4.662e-09
  2.46956    -60.3 1.099e+04 4.282e-09
  2.48916    -59.5 1.091e+04 3.928e-09
  2.50875    -58.7 1.088e+04 3.598e-09
  2.52071    -58.0 1.087e+04 3.328e-09
  2.53050    -57.8 1.090e+04 3.839e-09
  2.54390    -57.2 1.088e+04 3.491e-09
  2.55370    -57.4 1.080e+04 3.679e-09
  2.56753    -56.7 1.082e+04 3.475e-09
  2.58712    -56.1 1.081e+04 3.387e-09
  2.60672    -55.4 1.081e+04 3.349e-09
  2.62631    -54.9 1.083e+04 3.402e-09
  2.64590    -54.3 1.088e+04 3.631e-09
  2.66550    -53.7 1.100e+04 3.780e-09
  2.69499    -53.2 1.113e+04 3.720e-09
  2.73427    -52.2 1.115e+04 4.090e-09
  2.77346    -51.8 1.107e+04 3.896e-09
  2.80961    -51.3 1.076e+04 2.866e-09
  2.82921    -51.4 1.081e+04 2.939e-09
  2.85183    -51.0 1.051e+04 2.066e-09
  2.89102    -50.3 1.038e+04 1.820e-09
  2.93021    -49.0 1.035e+04 1.801e-09
  2.96940    -47.7 1.035e+04 1.848e-09
  3.00858    -46.5 1.041e+04 2.005e-09
  3.04014    -45.2 1.040e+04 2.194e-09
  3.05973    -44.7 1.029e+04 1.907e-09
  3.08696    -43.4 1.021e+04 1.909e-09
  3.12614    -41.9 1.019e+04 1.921e-09
  3.16533    -40.4 1.028e+04 1.911e-09
  3.20452    -38.8 1.028e+04 1.935e-09
  3.24371    -37.2 1.026e+04 1.914e-09
  3.28289    -35.5 1.019e+04 1.820e-09
  3.32208    -33.7 1.012e+04 1.605e-09
  3.36024    -31.8 1.006e+04 1.327e-09
  3.37983    -31.6 9.998e+03 1.052e-09
  3.40046    -29.6 1.001e+04 8.129e-10
  3.43964    -27.7 1.007e+04 7.118e-10
  3.47883    -26.0 1.028e+04 7.578e-10
  3.51802    -24.5 1.036e+04 1.199e-09
  3.55720    -22.8 1.041e+04 1.969e-09
  3.59639    -20.9 1.053e+04 2.550e-09
  3.63558    -19.2 1.055e+04 2.592e-09
  3.67477    -17.6 1.045e+04 2.273e-09
  3.71395    -16.0 1.041e+04 2.067e-09
  3.75314    -14.2 1.036e+04 1.996e-09
  3.79233    -12.1 1.032e+04 1.953e-09
  3.83152     -9.7 1.027e+04 1.848e-09
  3.87070     -7.3 1.021e+04 1.666e-09
  3.90989     -5.0 1.018e+04 1.562e-09
  3.93046     -2.6 1.026e+04 1.626e-09
  3.95006     -1.2 1.021e+04 1.617e-09
  3.98827      0.7 1.034e+04 2.098e-09
  4.02745      3.1 1.065e+04 2.966e-09
  4.05675      4.5 1.075e+04 3.998e-09
  4.07624      5.4 1.108e+04 4.235e-09
  4.09583      6.6 1.107e+04 4.876e-09
  4.10780      7.3 1.138e+04 4.516e-09
  4.11760      7.7 1.128e+04 4.545e-09
  4.13502      8.3 1.131e+04 4.719e-09
  4.15462      8.5 1.149e+04 4.895e-09
  4.17421      8.7 1.163e+04 5.602e-09
  4.19380      8.6 1.189e+04 6.594e-09
  4.20558      8.5 1.209e+04 9.047e-09
  4.21538      9.5 1.173e+04 7.189e-09
  4.23299      9.3 1.238e+04 8.609e-09
  4.25258      8.8 1.276e+04 1.199e-08
  4.27218      8.6 1.318e+04 1.542e-08
  4.29177      8.6 1.313e+04 1.704e-08
  4.31137      8.7 1.305e+04 1.621e-08
  4.34085      8.4 1.274e+04 1.245e-08
  4.37024      9.3 1.230e+04 9.072e-09
  4.38974      9.3 1.211e+04 8.725e-09
  4.40933     10.2 1.208e+04 6.288e-09
  4.42893     10.2 1.189e+04 5.663e-09
  4.44852     11.1 1.143e+04 5.162e-09
  4.46811     12.3 1.125e+04 4.776e-09
  4.48089     13.2 1.138e+04 4.191e-09
  4.49069     14.0 1.160e+04 4.635e-09
  4.50730     14.8 1.117e+04 4.503e-09
  4.52690     15.6 1.119e+04 3.784e-09
  4.54649     16.5 1.089e+04 3.620e-09
  4.56608     17.9 1.080e+04 2.902e-09
  4.58568     18.4 1.076e+04 2.750e-09
  4.61516     20.8 1.058e+04 2.122e-09
  4.65445     23.1 1.044e+04 1.829e-09
  4.69364     25.6 1.045e+04 1.982e-09
  4.72293     27.7 1.041e+04 2.203e-09
  4.74243     27.8 1.043e+04 2.234e-09
  4.75621     29.1 1.033e+04 2.613e-09
  4.76600     29.4 1.035e+04 2.677e-09
  4.78161     30.3 1.046e+04 3.583e-09
  4.80121     31.5 1.066e+04 5.210e-09
  4.82080     33.3 1.086e+04 6.811e-09
  4.84039     34.9 1.108e+04 7.861e-09
  4.85999     36.2 1.120e+04 8.058e-09
  4.87958     37.2 1.122e+04 7.987e-09
  4.89917     38.0 1.126e+04 7.898e-09
  4.91877     38.7 1.133e+04 8.083e-09
  4.93836     38.8 1.154e+04 8.884e-09
  4.95796     38.1 1.218e+04 1.206e-08
  4.97755     36.7 1.315e+04 2.074e-08
  4.99714     35.8 1.390e+04 3.258e-08
  5.01179     35.2 1.432e+04 3.956e-08
  5.02154     34.1 1.491e+04 4.801e-08
  5.03133     31.7 1.636e+04 6.418e-08
  5.03632     28.5 1.773e+04 8.781e-08
  5.04122     28.4 1.798e+04 1.092e-07
  5.05093     25.8 1.848e+04 1.536e-07
  5.06072     24.4 1.789e+04 1.838e-07
  5.07052     23.5 1.766e+04 1.754e-07
  5.08032     22.7 1.712e+04 1.497e-07
  5.09506     21.3 1.632e+04 8.498e-08
  5.11470     19.3 1.456e+04 3.284e-08
  5.13430     15.9 1.251e+04 1.283e-08
  5.15389     13.7 1.101e+04 7.163e-09
  5.16586     13.6 1.045e+04 5.345e-09
  5.17566     15.0 1.051e+04 5.443e-09
  5.19308     15.6 9.941e+03 4.577e-09
  5.21267     16.8 9.825e+03 3.748e-09
  5.23227     17.4 1.003e+04 2.768e-09
  5.25186     17.9 9.471e+03 2.673e-09
  5.27145     18.8 9.380e+03 2.247e-09
  5.29105     19.4 9.515e+03 2.207e-09
  5.30684     19.8 9.496e+03 2.376e-09
  5.31663     20.8 9.516e+03 2.326e-09
  5.33023     21.3 9.493e+03 2.691e-09
  5.34983     21.7 9.658e+03 3.426e-09
  5.36942     22.2 9.806e+03 4.616e-09
  5.38902     23.0 9.939e+03 5.877e-09
  5.40861     24.0 1.006e+04 7.131e-09
  5.42820     25.0 9.981e+03 7.336e-09
  5.44780     26.3 9.857e+03 6.560e-09
  5.46739     26.9 9.799e+03 5.457e-09
  5.48698     26.9 9.715e+03 4.474e-09
  5.50658     26.5 9.697e+03 3.956e-09
  5.52617     26.0 9.703e+03 4.065e-09
  5.54577     25.8 9.705e+03 4.600e-09
  5.56536     26.0 9.770e+03 5.542e-09
  5.58215     26.1 1.000e+04 6.722e-09
  5.59195     26.2 9.928e+03 6.430e-09
  5.60455     26.3 1.024e+04 7.588e-09
  5.62414     26.4 1.047e+04 8.638e-09
  5.64373     26.6 1.052e+04 8.744e-09
  5.66333     26.8 1.048e+04 8.112e-09
  5.68292     26.7 1.045e+04 7.098e-09
  5.69490     26.3 1.045e+04 6.607e-09
  5.70469     27.2 1.016e+04 5.708e-09
  5.72211     26.8 1.016e+04 5.604e-09
  5.74170     26.7 1.015e+04 5.909e-09
  5.76130     26.6 1.025e+04 6.605e-09
  5.78089     26.5 1.053e+04 7.730e-09
  5.80048     26.2 1.084e+04 9.868e-09
  5.82008     26.0 1.116e+04 1.268e-08
  5.83967     25.9 1.146e+04 1.507e-08
  5.85746     25.8 1.177e+04 1.675e-08
  5.86726     25.7 1.226e+04 2.087e-08
  5.87886     25.4 1.239e+04 2.119e-08
  5.89845     25.2 1.224e+04 1.906e-08
  5.91804     25.0 1.180e+04 1.544e-08
  5.93764     24.8 1.136e+04 1.104e-08
  5.95723     24.2 1.094e+04 8.438e-09
  5.97683     24.2 1.049e+04 6.455e-09
  5.99642     24.5 1.016e+04 5.544e-09
  6.01601     25.8 9.848e+03 3.641e-09
  6.03561     26.0 9.773e+03 3.225e-09
  6.06509     27.9 9.346e+03 2.148e-09
  6.10438     30.2 9.112e+03 1.481e-09
  6.13297     32.5 9.062e+03 1.122e-09
  6.15257     32.2 9.077e+03 1.416e-09
  6.18275     34.7 9.049e+03 1.214e-09
  6.21433     37.4 9.065e+03 1.166e-09
  6.23392     37.7 9.120e+03 1.492e-09
  6.26113     40.4 9.181e+03 1.450e-09
  6.30032     43.0 9.247e+03 1.583e-09
  6.33950     45.6 9.331e+03 1.878e-09
  6.37869     48.3 9.433e+03 2.119e-09
  6.41788     50.6 9.636e+03 2.288e-09
  6.45707     52.6 9.825e+03 2.370e-09
  6.49625     54.2 1.008e+04 2.583e-09
  6.53544     55.5 1.035e+04 3.303e-09
  6.57463     57.1 1.047e+04 4.018e-09
  6.61381     59.0 1.042e+04 3.892e-09
  6.65300     61.3 1.030e+04 3.240e-09
  6.68360     63.7 1.015e+04 2.337e-09
  6.70319     64.2 1.006e+04 2.317e-09
  6.73138     66.5 9.982e+03 1.651e-09
  6.77056     69.0 9.909e+03 1.374e-09
  6.80975     71.8 9.908e+03 1.382e-09
  6.84894     74.5 9.954e+03 1.517e-09
  6.88813     77.1 1.006e+04 1.867e-09
  6.92731     79.7 1.021e+04 2.341e-09
  6.96650     82.2 1.039e+04 2.695e-09
  7.00569     84.3 1.044e+04 2.706e-09
  7.04487     86.5 1.041e+04 2.583e-09
  7.08406     88.7 1.030e+04 2.239e-09
  7.12325     91.0 1.015e+04 1.836e-09
  7.16244     93.4 1.001e+04 1.479e-09
  7.20162     96.0 9.893e+03 1.203e-09
  7.23423     98.6 9.777e+03 1.007e-09
  7.25382     99.1 9.751e+03 1.036e-09
  7.27239    101.8 9.656e+03 8.974e-10
  7.29198    101.8 9.636e+03 8.874e-10
  7.31919    104.6 9.560e+03 7.875e-10
  7.35837    107.5 9.479e+03 7.168e-10
  7.39756    110.3 9.306e+03 6.998e-10
  7.43675    113.3 9.272e+03 7.018e-10
  7.47593    116.2 9.245e+03 7.150e-10
  7.51512    119.1 9.202e+03 7.664e-10
  7.55431    121.8 9.192e+03 8.609e-10
  7.59350    124.4 9.210e+03 9.901e-10
  7.63268    126.9 9.253e+03 1.137e-09
  7.67187    129.2 9.300e+03 1.286e-09
  7.71106    131.3 9.329e+03 1.416e-09
  7.75025    133.3 9.353e+03 1.508e-09
  7.78486    135.3 9.367e+03 1.580e-09
  7.80445    135.4 9.312e+03 1.474e-09
  7.82862    137.3 9.318e+03 1.536e-09
  7.86781    139.2 9.338e+03 1.661e-09
  7.90700    141.0 9.396e+03 1.872e-09
  7.94618    142.6 9.505e+03 2.184e-09
  7.98537    144.2 9.649e+03 2.552e-09
  8.02456    145.5 9.781e+03 2.821e-09
  8.06374    146.7 9.810e+03 2.829e-09
  8.10293    147.9 9.795e+03 2.755e-09
  8.14212    149.2 9.735e+03 2.539e-09
  8.18131    150.6 9.680e+03 2.353e-09
  8.22049    151.8 9.679e+03 2.336e-09
  8.25968    152.4 9.765e+03 2.461e-09
  8.29887    152.4 9.904e+03 2.719e-09
  8.32816    151.5 1.005e+04 3.229e-09
  8.34006    150.8 1.029e+04 3.956e-09
  8.34728    150.2 1.037e+04 4.257e-09
  8.35488    150.0 1.036e+04 4.305e-09
  8.36725    148.9 1.066e+04 5.693e-09
  8.38684    147.6 1.094e+04 7.220e-09
  8.40644    146.2 1.116e+04 8.565e-09
  8.42603    144.6 1.130e+04 9.393e-09
  8.44563    142.9 1.131e+04 9.673e-09
  8.46522    141.1 1.128e+04 9.553e-09
  8.48481    139.4 1.120e+04 9.113e-09
  8.50441    137.8 1.108e+04 8.261e-09
  8.52400    136.2 1.094e+04 7.156e-09
  8.54359    134.6 1.082e+04 6.077e-09
  8.56319    132.8 1.073e+04 5.214e-09
  8.58278    131.1 1.066e+04 4.771e-09
  8.60237    129.5 1.065e+04 4.784e-09
  8.62040    127.9 1.069e+04 4.963e-09
  8.63020    127.0 1.074e+04 5.154e-09
  8.64156    125.3 1.084e+04 5.510e-09
  8.66116    123.5 1.109e+04 6.526e-09
  8.68075    121.5 1.152e+04 8.505e-09
  8.70034    119.3 1.207e+04 1.169e-08
  8.71994    117.1 1.258e+04 1.578e-08
  8.73953    114.8 1.305e+04 1.973e-08
  8.75912    110.7 1.368e+04 2.096e-08
  8.77872    106.0 1.403e+04 2.123e-08
  8.79336    100.9 1.530e+04 2.446e-08
  8.80311     94.1 1.795e+04 4.199e-08
  8.81291     86.7 1.926e+04 1.030e-07
  8.82271     81.0 1.928e+04 2.289e-07
  8.83250     77.0 1.911e+04 3.638e-07
  8.84230     73.7 1.919e+04 3.242e-07
  8.85210     69.2 1.940e+04 1.816e-07
  8.86189     65.8 1.889e+04 9.988e-08
  8.86904     61.3 1.769e+04 6.964e-08
  8.87889     56.7 1.528e+04 2.669e-08
  8.89571     50.8 1.284e+04 1.593e-08
  8.90551     50.7 1.301e+04 1.870e-08
  8.91587     48.6 1.267e+04 1.634e-08
  8.93547     47.8 1.247e+04 1.356e-08
  8.95506     47.1 1.226e+04 1.048e-08
  8.97465     46.1 1.216e+04 8.081e-09
  8.99425     44.9 1.204e+04 6.737e-09
  9.01384     44.0 1.185e+04 6.492e-09
  9.03343     43.5 1.185e+04 6.533e-09
  9.05303     43.0 1.190e+04 6.759e-09
  9.07262     42.3 1.207e+04 7.265e-09
  9.09222     40.7 1.248e+04 8.854e-09
  9.11181     36.6 1.389e+04 1.604e-08
  9.13140     32.4 1.524e+04 3.997e-08
  9.15100     29.5 1.547e+04 5.398e-08
  9.17059     28.1 1.483e+04 4.206e-08
  9.18082     24.9 1.415e+04 2.030e-08
  9.19062     24.9 1.435e+04 2.569e-08
  9.20978     20.4 1.317e+04 1.187e-08
  9.22937     16.3 1.163e+04 7.255e-09
  9.24896     14.6 1.112e+04 6.010e-09
  9.26856     13.0 1.126e+04 4.548e-09
  9.28815     11.4 1.101e+04 4.084e-09
  9.30775      9.9 1.086e+04 3.572e-09
  9.32734      8.6 1.073e+04 3.415e-09
  9.34693      7.2 1.076e+04 2.995e-09
  9.36653      6.3 1.065e+04 2.879e-09
  9.38842      4.9 1.026e+04 2.668e-09
  9.40811      6.2 1.051e+04 2.683e-09
  9.43530      5.0 1.017e+04 2.188e-09
  9.45633      4.0 1.014e+04 1.838e-09
  9.47593      4.1 1.008e+04 1.725e-09
  9.51367      3.6 1.011e+04 1.767e-09
  9.55286      3.1 1.042e+04 2.383e-09
  9.58215      2.5 1.056e+04 3.104e-09
  9.60165      1.9 1.059e+04 3.699e-09
  9.62124      1.9 1.079e+04 4.756e-09
  9.64084     -0.0 1.212e+04 6.590e-09
  9.66043     -3.7 1.374e+04 1.459e-08
  9.68003     -7.4 1.529e+04 3.605e-08
  9.69962    -10.9 1.626e+04 7.433e-08
  9.71921    -13.1 1.706e+04 1.178e-07
  9.73145    -15.7 1.724e+04 1.217e-07
  9.74125    -14.8 1.807e+04 1.744e-07
  9.75840    -18.6 1.751e+04 1.131e-07
  9.77799    -22.9 1.549e+04 4.788e-08
  9.79759    -25.8 1.395e+04 3.102e-08
  9.81718    -26.7 1.339e+04 2.659e-08
  9.83677    -27.0 1.321e+04 2.471e-08
  9.85637    -27.0 1.313e+04 2.340e-08
  9.87596    -26.9 1.294e+04 2.157e-08
  9.89556    -26.8 1.275e+04 1.902e-08
  9.91515    -26.8 1.251e+04 1.646e-08
  9.92715    -26.8 1.228e+04 1.450e-08
  9.93695    -26.2 1.249e+04 1.530e-08
  9.95434    -26.1 1.222e+04 1.351e-08
  9.97393    -25.7 1.208e+04 1.241e-08
  9.99352    -25.1 1.201e+04 1.163e-08
 10.00676    -24.5 1.197e+04 1.090e-08
 10.01656    -24.2 1.198e+04 1.026e-08
 10.03271    -23.7 1.199e+04 9.952e-09
 10.05230    -23.2 1.201e+04 9.802e-09
 10.07190    -22.6 1.216e+04 9.897e-09
 10.09149    -22.1 1.239e+04 1.027e-08
 10.11109    -21.5 1.255e+04 1.114e-08
 10.13068    -20.7 1.272e+04 1.244e-08
 10.15027    -19.9 1.284e+04 1.379e-08
 10.16987    -19.0 1.287e+04 1.485e-08
 10.18946    -18.3 1.291e+04 1.565e-08
 10.20905    -18.1 1.372e+04 1.756e-08
 10.22865    -19.6 1.576e+04 2.674e-08
 10.24824    -21.4 1.800e+04 5.706e-08
 10.26783    -22.5 1.885e+04 1.183e-07
 10.28203    -22.1 1.860e+04 1.292e-07
 10.29183    -22.4 1.824e+04 9.712e-08
 10.30702    -23.0 1.821e+04 1.274e-07
 10.32662    -23.7 1.802e+04 1.426e-07
 10.34621    -24.6 1.783e+04 1.406e-07
 10.36580    -25.7 1.761e+04 1.276e-07
 10.38540    -26.8 1.731e+04 1.150e-07
 10.40499    -28.3 1.717e+04 8.747e-08
 10.42458    -29.6 1.726e+04 6.773e-08
 10.44418    -31.6 1.627e+04 4.353e-08
 10.45618    -32.7 1.460e+04 3.308e-08
 10.46103    -29.9 1.737e+04 6.834e-08
 10.46857    -30.7 1.650e+04 5.373e-08
 10.48332    -30.9 1.584e+04 4.088e-08
 10.50296    -30.6 1.451e+04 2.638e-08
 10.52255    -30.4 1.289e+04 1.643e-08
 10.54215    -29.9 1.217e+04 1.289e-08
 10.55739    -28.6 1.202e+04 1.150e-08
 10.56719    -28.5 1.210e+04 1.145e-08
 10.58133    -27.2 1.215e+04 1.047e-08
 10.60093    -25.8 1.218e+04 1.006e-08
 10.62052    -24.4 1.223e+04 1.011e-08
 10.64011    -23.1 1.247e+04 1.048e-08
 10.65971    -21.7 1.271e+04 1.128e-08
 10.67930    -20.3 1.283e+04 1.196e-08
 10.69890    -19.4 1.287e+04 1.249e-08
 10.71849    -19.4 1.328e+04 1.324e-08
 10.73808    -23.0 1.541e+04 2.069e-08
 10.75768    -27.3 1.669e+04 4.909e-08
 10.77232    -28.1 1.725e+04 9.378e-08
 10.78207    -28.7 1.752e+04 1.078e-07
 10.79187    -29.7 1.816e+04 1.691e-07
 10.80166    -30.8 1.828e+04 2.008e-07
 10.81146    -31.8 1.817e+04 2.074e-07
 10.82126    -32.4 1.758e+04 1.694e-07
 10.83105    -33.1 1.695e+04 1.126e-07
 10.83751    -34.5 1.605e+04 6.871e-08
 10.84241    -34.2 1.649e+04 8.140e-08
 10.85065    -35.8 1.530e+04 4.855e-08
 10.86044    -37.0 1.421e+04 3.136e-08
 10.87519    -37.6 1.354e+04 2.179e-08
 10.89483    -38.3 1.236e+04 1.099e-08
 10.91443    -38.6 1.151e+04 6.710e-09
 10.93402    -38.0 1.119e+04 5.429e-09
 10.95361    -37.0 1.096e+04 4.470e-09
 10.97321    -35.9 1.083e+04 3.875e-09
 10.98522    -34.8 1.070e+04 3.388e-09
 10.99501    -34.4 1.086e+04 4.208e-09
 11.01239    -33.2 1.075e+04 3.657e-09
 11.03199    -32.2 1.064e+04 3.211e-09
 11.05158    -31.2 1.053e+04 2.880e-09
 11.07117    -30.2 1.042e+04 2.635e-09
 11.09077    -29.1 1.033e+04 2.459e-09
 11.10812    -27.7 1.032e+04 2.237e-09
 11.11791    -27.3 1.044e+04 2.565e-09
 11.12996    -27.0 1.041e+04 2.520e-09
 11.15944    -24.8 1.049e+04 2.363e-09
 11.19873    -22.8 1.056e+04 2.173e-09
 11.23792    -20.9 1.058e+04 1.955e-09
 11.27710    -19.1 1.059e+04 1.819e-09
 11.31629    -17.3 1.065e+04 1.816e-09
 11.35548    -15.6 1.089e+04 2.098e-09
 11.38343    -14.6 1.097e+04 2.401e-09
 11.39313    -14.5 1.095e+04 2.447e-09
 11.40427    -14.0 1.106e+04 2.701e-09
 11.42386    -13.3 1.128e+04 3.080e-09
 11.44345    -13.1 1.143e+04 3.497e-09
 11.46305    -13.0 1.171e+04 4.351e-09
 11.48264    -13.2 1.213e+04 6.275e-09
 11.50223    -13.7 1.271e+04 9.972e-09
 11.51425    -14.1 1.329e+04 1.595e-08
 11.52404    -13.5 1.293e+04 1.238e-08
 11.54142    -13.7 1.337e+04 1.895e-08
 11.56102    -13.7 1.369e+04 2.470e-08
 11.58061    -13.9 1.376e+04 2.620e-08
 11.60020    -14.1 1.326e+04 2.260e-08
 11.61980    -14.3 1.254e+04 1.599e-08
 11.63939    -14.3 1.202e+04 1.194e-08
 11.65865    -14.4 1.134e+04 8.020e-09
 11.66844    -13.7 1.125e+04 7.481e-09
 11.67858    -13.6 1.090e+04 6.200e-09
 11.69817    -13.3 1.041e+04 4.886e-09
 11.71776    -13.2 1.022e+04 4.615e-09
 11.73736    -12.5 9.978e+03 4.411e-09
 11.75695    -12.0 9.903e+03 4.382e-09
 11.77655    -11.4 9.841e+03 4.389e-09
 11.79614    -10.9 9.804e+03 4.424e-09
 11.81573    -10.3 9.809e+03 4.501e-09
 11.83533     -9.7 9.611e+03 4.295e-09
 11.85492     -8.8 9.488e+03 4.105e-09
 11.87451     -8.1 9.317e+03 3.654e-09
 11.90400     -6.6 9.122e+03 3.137e-09
 11.94329     -5.6 8.833e+03 2.551e-09
 11.98247     -4.2 8.528e+03 2.086e-09
 12.02166     -2.9 8.499e+03 2.015e-09
 12.06085     -1.9 8.745e+03 2.456e-09
 12.10004     -1.2 9.103e+03 3.509e-09
 12.13922     -0.6 9.556e+03 4.928e-09
 12.17841      0.1 1.000e+04 6.147e-09
 12.20770      1.1 1.028e+04 6.833e-09
 12.21907      1.1 1.027e+04 6.656e-09
 12.22887      2.0 1.028e+04 6.909e-09
 12.24679      2.0 1.021e+04 6.211e-09
 12.26639      1.8 1.027e+04 5.973e-09
 12.28598      0.4 1.089e+04 6.312e-09
 12.30557     -3.1 1.206e+04 9.343e-09
 12.32517     -5.6 1.253e+04 1.714e-08
 12.34476     -5.8 1.299e+04 2.720e-08
 12.36436     -5.3 1.328e+04 3.138e-08
 12.38395     -5.1 1.291e+04 2.604e-08
 12.40354     -6.0 1.184e+04 1.399e-08
 12.42314     -8.4 1.071e+04 7.795e-09
 12.44273     -9.9 1.001e+04 6.001e-09
 12.46232    -10.2 9.752e+03 5.486e-09
 12.48192    -10.1 9.655e+03 5.290e-09
 12.49439    -10.1 9.580e+03 5.190e-09
 12.50418     -9.7 9.580e+03 5.192e-09
 12.52110     -9.7 9.488e+03 5.121e-09
 12.54070     -9.6 9.398e+03 5.081e-09
 12.56029     -9.4 9.337e+03 5.070e-09
 12.57231     -9.2 9.311e+03 5.101e-09
 12.58211     -9.0 9.437e+03 5.366e-09
 12.59948     -8.8 9.427e+03 5.553e-09
 12.61907     -8.6 9.469e+03 5.754e-09
 12.63867     -8.4 9.522e+03 5.967e-09
 12.65826     -8.3 9.555e+03 6.126e-09
 12.67785     -8.2 9.577e+03 6.227e-09
 12.69745     -8.2 9.614e+03 6.437e-09
 12.71704     -8.1 9.690e+03 6.835e-09
 12.73663     -7.8 9.800e+03 7.369e-09
 12.75623     -7.4 9.955e+03 8.019e-09
 12.76970     -7.1 1.015e+04 8.835e-09
 12.77950     -6.6 1.015e+04 8.885e-09
 12.79542     -6.2 1.031e+04 9.584e-09
 12.81501     -6.1 1.054e+04 1.042e-08
 12.83460     -6.0 1.107e+04 1.245e-08
 12.85420     -6.2 1.191e+04 1.617e-08
 12.87379     -6.6 1.320e+04 2.287e-08
 12.89338     -8.1 1.503e+04 3.616e-08
 12.91298    -10.6 1.684e+04 6.210e-08
 12.93257    -13.6 1.786e+04 1.019e-07
 12.95216    -16.6 1.805e+04 1.321e-07
 12.97176    -19.1 1.791e+04 1.357e-07
 12.99135    -21.1 1.739e+04 1.157e-07
 13.01095    -24.2 1.654e+04 6.785e-08
 13.03054    -29.2 1.511e+04 3.357e-08
 13.04501    -32.9 1.434e+04 2.421e-08
 13.04986    -30.1 1.532e+04 3.105e-08
 13.05493    -31.1 1.506e+04 2.938e-08
 13.06968    -34.1 1.442e+04 2.774e-08
 13.08932    -38.0 1.419e+04 2.793e-08
 13.10134    -42.7 1.435e+04 2.940e-08
 13.11114    -42.1 1.373e+04 2.660e-08
 13.12851    -47.8 1.381e+04 2.571e-08
 13.14810    -55.1 1.462e+04 2.678e-08
 13.16275    -61.3 1.517e+04 2.897e-08
 13.17250    -65.7 1.635e+04 3.453e-08
 13.18229    -73.9 1.871e+04 5.195e-08
 13.18747    -81.8 2.103e+04 1.039e-07
 13.19237    -85.5 2.187e+04 1.445e-07
 13.20189    -93.1 2.154e+04 3.115e-07
 13.21168    -99.5 2.096e+04 4.638e-07
 13.22148   -105.5 2.073e+04 5.029e-07
 13.23128   -110.6 2.046e+04 4.348e-07
 13.24107   -115.0 2.041e+04 2.910e-07
 13.25087   -118.4 2.017e+04 2.003e-07
 13.26067   -120.9 1.961e+04 1.554e-07
 13.27046   -122.7 1.894e+04 1.259e-07
 13.28026   -124.1 1.812e+04 1.033e-07
 13.29006   -125.0 1.735e+04 8.663e-08
 13.29985   -125.6 1.680e+04 7.545e-08
 13.30965   -125.9 1.648e+04 6.780e-08
 13.31945   -126.2 1.625e+04 6.155e-08
 13.32513   -126.4 1.601e+04 5.566e-08
 13.33003   -127.3 1.611e+04 5.860e-08
 13.33904   -127.4 1.585e+04 5.203e-08
 13.34884   -127.4 1.556e+04 4.639e-08
 13.36358   -127.4 1.530e+04 4.264e-08
 13.38323   -127.8 1.461e+04 3.607e-08
 13.40282   -128.0 1.360e+04 2.740e-08
 13.42241   -128.3 1.277e+04 2.147e-08
 13.44201   -128.5 1.217e+04 1.778e-08
 13.46160   -128.6 1.175e+04 1.551e-08
 13.48119   -128.5 1.142e+04 1.387e-08
 13.50079   -128.4 1.116e+04 1.274e-08
 13.52038   -128.2 1.097e+04 1.199e-08
 13.53997   -128.0 1.083e+04 1.137e-08
 13.55957   -127.8 1.072e+04 1.072e-08
 13.57916   -127.8 1.060e+04 1.003e-08
 13.59564   -127.9 1.048e+04 9.306e-09
 13.60544   -128.2 1.065e+04 9.763e-09
 13.61835   -128.6 1.054e+04 8.964e-09
 13.63038   -129.2 1.046e+04 8.345e-09
 13.64017   -130.7 1.023e+04 7.244e-09
 13.65754   -131.5 1.020e+04 6.846e-09
 13.67713   -132.3 1.019e+04 6.718e-09
 13.69672   -133.1 1.018e+04 6.684e-09
 13.71632   -133.8 1.020e+04 6.724e-09
 13.73591   -135.0 1.046e+04 7.367e-09
 13.75550   -137.6 1.169e+04 9.830e-09
 13.77510   -140.3 1.306e+04 1.387e-08
 13.78974   -141.2 1.363e+04 1.667e-08
 13.79949   -143.0 1.430e+04 1.864e-08
 13.80929   -146.5 1.693e+04 3.457e-08
 13.81909   -150.7 1.910e+04 9.954e-08
 13.82888   -154.7 1.995e+04 3.006e-07
 13.83868   -158.5 2.010e+04 6.749e-07
 13.84848   -162.4 2.018e+04 1.008e-06
 13.85827   -166.6 2.035e+04 1.087e-06
 13.86807   -171.3 2.068e+04 8.269e-07
 13.87576   -176.0 2.142e+04 4.227e-07
 13.88065   -182.4 2.261e+04 1.721e-07
 13.88766   -187.5 2.305e+04 5.679e-08
 13.89479   -192.3 2.123e+04 2.978e-08
 13.89969   -190.8 2.200e+04 3.485e-08
 13.90726   -195.8 1.911e+04 2.722e-08
 13.91705   -199.8 1.695e+04 2.399e-08
 13.93180   -202.5 1.543e+04 2.157e-08
 13.95144   -204.6 1.437e+04 1.972e-08
 13.97103   -206.0 1.324e+04 1.947e-08
 13.99063   -206.3 1.289e+04 1.965e-08
 14.01022   -205.5 1.303e+04 2.022e-08
 14.02982   -204.8 1.318e+04 2.135e-08
 14.04941   -204.3 1.333e+04 2.303e-08
 14.06900   -204.1 1.378e+04 2.615e-08
 14.08860   -204.2 1.450e+04 3.187e-08
 14.10819   -204.5 1.521e+04 4.026e-08
 14.12778   -204.7 1.578e+04 5.003e-08
 14.14627   -204.9 1.620e+04 5.991e-08
 14.15607   -208.3 1.553e+04 4.898e-08
 14.15941   -208.2 1.527e+04 4.150e-08
 14.16920   -210.1 1.500e+04 3.390e-08
 14.18656   -210.3 1.419e+04 1.893e-08
 14.20616   -211.6 1.289e+04 8.462e-09
 14.22575   -213.8 1.121e+04 3.945e-09
 14.24535   -215.6 1.050e+04 2.957e-09
 14.26494   -216.4 1.033e+04 2.678e-09
 14.28453   -216.7 1.022e+04 2.379e-09
 14.30413   -216.8 1.012e+04 2.136e-09
 14.32372   -216.8 1.001e+04 2.008e-09
 14.34331   -216.3 9.975e+03 1.991e-09
 14.37280   -215.7 9.957e+03 2.042e-09
 14.41198   -215.2 9.970e+03 2.041e-09
 14.44127   -214.4 1.000e+04 2.053e-09
 14.46088   -214.7 1.024e+04 2.637e-09
 14.48047   -214.9 1.052e+04 3.875e-09
 14.50006   -215.0 1.116e+04 6.183e-09
 14.51966   -215.0 1.210e+04 1.059e-08
 14.53925   -215.1 1.318e+04 1.659e-08
 14.55884   -215.6 1.419e+04 2.450e-08
 14.57844   -216.5 1.510e+04 3.458e-08
 14.59803   -217.7 1.599e+04 4.863e-08
 14.61762   -218.9 1.674e+04 6.898e-08
 14.63722   -219.9 1.737e+04 9.413e-08
 14.65681   -220.9 1.778e+04 1.210e-07
 14.67641   -221.6 1.780e+04 1.365e-07
 14.68844   -221.9 1.776e+04 1.387e-07
 14.69824   -220.1 1.816e+04 1.571e-07
 14.70669   -220.3 1.800e+04 1.567e-07
 14.71649   -221.7 1.789e+04 1.486e-07
 14.73519   -221.6 1.727e+04 1.175e-07
 14.75478   -221.4 1.649e+04 8.555e-08
 14.77437   -220.9 1.564e+04 6.197e-08
 14.79397   -220.3 1.489e+04 4.713e-08
 14.81356   -219.5 1.430e+04 3.772e-08
 14.83316   -218.6 1.384e+04 3.092e-08
 14.85275   -217.6 1.341e+04 2.509e-08
 14.87234   -216.5 1.298e+04 1.974e-08
 14.89194   -215.5 1.253e+04 1.509e-08
 14.91153   -214.5 1.209e+04 1.141e-08
 14.93112   -213.5 1.171e+04 8.727e-09
 14.95072   -212.4 1.142e+04 6.906e-09
 14.97031   -211.3 1.121e+04 5.717e-09
 14.98201   -210.2 1.106e+04 4.950e-09
 14.99180   -210.5 1.094e+04 4.572e-09
 15.00950   -209.2 1.089e+04 4.204e-09
 15.02909   -207.8 1.085e+04 3.894e-09
 15.04869   -206.5 1.083e+04 3.626e-09
 15.06828   -205.1 1.083e+04 3.399e-09
 15.08787   -203.8 1.082e+04 3.207e-09
 15.10747   -202.5 1.081e+04 3.046e-09
 15.12706   -201.0 1.081e+04 2.907e-09
 15.15655   -199.6 1.082e+04 2.810e-09
 15.19583   -197.1 1.076e+04 2.760e-09
 15.23502   -193.7 1.070e+04 2.760e-09
 15.27421   -190.9 1.061e+04 2.978e-09
 15.31339   -188.1 1.072e+04 3.421e-09
 15.35258   -185.7 1.080e+04 3.886e-09
 15.39177   -183.5 1.085e+04 4.131e-09
 15.42106   -181.8 1.087e+04 4.353e-09
 15.44056   -180.9 1.088e+04 4.349e-09
 15.46015   -180.0 1.089e+04 4.293e-09
 15.47975   -179.0 1.086e+04 4.189e-09
 15.49934   -178.0 1.082e+04 4.056e-09
 15.51893   -177.0 1.076e+04 3.901e-09
 15.53264   -175.8 1.073e+04 3.773e-09
 15.54243   -175.7 1.080e+04 4.049e-09
 15.55812   -174.5 1.079e+04 3.982e-09
 15.57771   -173.2 1.078e+04 3.970e-09
 15.59731   -172.1 1.078e+04 3.970e-09
 15.61690   -170.9 1.079e+04 4.065e-09
 15.63649   -169.7 1.088e+04 4.344e-09
 15.65609   -168.6 1.098e+04 4.727e-09
 15.67568   -167.5 1.110e+04 5.158e-09
 15.69528   -166.4 1.122e+04 5.616e-09
 15.71487   -165.4 1.134e+04 6.078e-09
 15.73446   -164.4 1.145e+04 6.525e-09
 15.74650   -163.6 1.156e+04 6.944e-09
 15.75630   -163.0 1.135e+04 6.227e-09
 15.77365   -162.1 1.143e+04 6.531e-09
 15.79324   -161.2 1.151e+04 6.820e-09
 15.80795   -160.4 1.160e+04 7.094e-09
 15.81775   -160.8 1.217e+04 1.058e-08
 15.83243   -160.1 1.224e+04 1.092e-08
 15.85202   -159.3 1.228e+04 1.112e-08
 15.87162   -158.6 1.229e+04 1.121e-08
 15.89121   -157.7 1.224e+04 1.122e-08
 15.91081   -156.8 1.216e+04 1.108e-08
 15.93040   -155.9 1.205e+04 1.104e-08
 15.94999   -154.8 1.198e+04 1.108e-08
 15.96959   -153.7 1.189e+04 1.128e-08
 15.98918   -152.6 1.185e+04 1.156e-08
 16.00877   -151.5 1.186e+04 1.188e-08
 16.02837   -150.3 1.187e+04 1.241e-08
 16.04796   -149.3 1.184e+04 1.253e-08
 16.06756   -148.3 1.178e+04 1.226e-08
 16.08326   -147.4 1.172e+04 1.175e-08
 16.09306   -147.4 1.168e+04 1.157e-08
 16.10674   -146.5 1.159e+04 1.096e-08
 16.12634   -145.6 1.149e+04 1.034e-08
 16.14593   -144.7 1.139e+04 9.721e-09
 16.16552   -143.8 1.128e+04 9.092e-09
 16.18512   -143.0 1.117e+04 8.472e-09
 16.20471   -142.2 1.106e+04 7.890e-09
 16.22430   -141.5 1.093e+04 7.374e-09
 16.24390   -140.7 1.082e+04 6.996e-09
 16.26349   -139.8 1.076e+04 6.821e-09
 16.27554   -139.1 1.075e+04 6.792e-09
 16.28533   -139.6 1.093e+04 7.441e-09
 16.30268   -139.0 1.094e+04 7.483e-09
 16.32227   -138.4 1.106e+04 8.026e-09
 16.34187   -138.0 1.122e+04 8.832e-09
 16.35858   -137.7 1.132e+04 9.492e-09
 16.36837   -136.8 1.161e+04 1.137e-08
 16.38105   -136.5 1.165e+04 1.181e-08
 16.40065   -136.2 1.164e+04 1.183e-08
 16.42024   -135.8 1.146e+04 1.065e-08
 16.43983   -135.3 1.115e+04 8.547e-09
 16.45943   -134.9 1.080e+04 6.324e-09
 16.47902   -134.6 1.044e+04 4.490e-09
 16.49862   -134.3 1.012e+04 3.205e-09
 16.51821   -134.1 9.884e+03 2.474e-09
 16.53780   -133.7 9.772e+03 2.230e-09
 16.55740   -133.4 9.735e+03 2.163e-09
 16.57699   -133.1 9.728e+03 2.145e-09
 16.59658   -132.9 9.730e+03 2.142e-09
 16.61618   -132.9 9.722e+03 2.159e-09
 16.63389   -133.6 9.602e+03 2.562e-09
 16.64369   -133.1 9.818e+03 2.787e-09
 16.65536   -135.6 1.028e+04 4.147e-09
 16.67496   -139.2 1.204e+04 8.672e-09
 16.69455   -142.9 1.387e+04 2.038e-08
 16.71415   -146.6 1.534e+04 4.182e-08
 16.73374   -150.8 1.620e+04 6.526e-08
 16.75333   -155.5 1.639e+04 7.524e-08
 16.77293   -159.7 1.619e+04 7.534e-08
 16.79252   -162.5 1.527e+04 5.975e-08
 16.80452   -163.8 1.455e+04 4.628e-08
 16.80937   -163.7 1.480e+04 5.111e-08
 16.81691   -164.6 1.430e+04 4.198e-08
 16.83166   -165.2 1.383e+04 3.577e-08
 16.85130   -165.8 1.320e+04 2.710e-08
 16.87089   -165.9 1.232e+04 1.808e-08
 16.89049   -166.0 1.162e+04 1.275e-08
 16.90920   -165.4 1.120e+04 1.000e-08
 16.91900   -165.7 1.111e+04 9.819e-09
 16.92968   -164.5 1.094e+04 8.652e-09
 16.94927   -163.0 1.087e+04 8.203e-09
 16.96886   -161.4 1.085e+04 8.071e-09
 16.98846   -159.9 1.085e+04 8.051e-09
 17.00805   -158.6 1.092e+04 8.124e-09
 17.02764   -158.1 1.136e+04 8.892e-09
 17.04724   -158.3 1.277e+04 1.396e-08
 17.06683   -159.4 1.488e+04 3.136e-08
 17.08642   -160.7 1.661e+04 7.022e-08
 17.10602   -162.8 1.770e+04 1.253e-07
 17.12561   -165.5 1.799e+04 1.639e-07
 17.14026   -166.7 1.821e+04 1.886e-07
 17.15001   -168.0 1.811e+04 1.846e-07
 17.15980   -169.2 1.779e+04 1.639e-07
 17.16960   -170.2 1.730e+04 1.268e-07
 17.17940   -171.2 1.664e+04 8.808e-08
 17.18919   -172.2 1.582e+04 5.713e-08
 17.19422   -173.4 1.489e+04 3.730e-08
 17.19912   -172.2 1.570e+04 5.245e-08
 17.20879   -173.3 1.478e+04 3.475e-08
 17.21858   -174.1 1.411e+04 2.675e-08
 17.22838   -174.4 1.386e+04 2.421e-08
 17.24313   -175.1 1.350e+04 2.034e-08
 17.26277   -176.1 1.259e+04 1.462e-08
 17.28236   -176.4 1.204e+04 1.169e-08
 17.30196   -176.3 1.186e+04 1.024e-08
 17.32155   -176.0 1.152e+04 8.213e-09
 17.33360   -175.7 1.112e+04 6.171e-09
 17.34340   -175.9 1.101e+04 5.867e-09
 17.36074   -175.7 1.071e+04 4.574e-09
 17.38033   -175.5 1.045e+04 3.639e-09
 17.39992   -175.3 1.029e+04 3.130e-09
 17.41952   -175.0 1.023e+04 2.964e-09
 17.43911   -174.6 1.022e+04 2.940e-09
 17.45870   -174.3 1.023e+04 3.055e-09
 17.46963   -174.0 1.032e+04 3.444e-09
 17.47943   -173.4 1.039e+04 3.740e-09
 17.49789   -173.3 1.047e+04 4.246e-09
 17.51749   -173.3 1.059e+04 4.822e-09
 17.53708   -173.3 1.077e+04 5.450e-09
 17.55667   -173.8 1.103e+04 6.151e-09
 17.57627   -174.7 1.130e+04 6.864e-09
 17.59586   -175.9 1.153e+04 7.432e-09
 17.61545   -177.5 1.165e+04 7.693e-09
 17.63505   -179.2 1.167e+04 7.737e-09
 17.65464   -180.9 1.168e+04 7.405e-09
 17.67423   -182.4 1.149e+04 6.552e-09
 17.69383   -183.7 1.123e+04 5.581e-09
 17.71342   -184.8 1.098e+04 4.817e-09
 17.73302   -185.5 1.082e+04 4.349e-09
 17.74494   -186.1 1.075e+04 4.110e-09
 17.75474   -186.2 1.078e+04 4.181e-09
 17.77220   -186.5 1.077e+04 4.130e-09
 17.79180   -186.8 1.078e+04 4.142e-09
 17.81139   -187.1 1.092e+04 4.484e-09
 17.83098   -187.3 1.110e+04 5.190e-09
 17.85058   -187.3 1.126e+04 5.992e-09
 17.86263   -187.3 1.138e+04 6.671e-09
 17.87243   -187.5 1.137e+04 6.848e-09
 17.88976   -187.5 1.139e+04 6.984e-09
 17.90936   -187.5 1.139e+04 7.007e-09
 17.92895   -187.2 1.128e+04 6.703e-09
 17.94855   -186.8 1.112e+04 5.905e-09
 17.96814   -186.3 1.097e+04 4.923e-09
 17.98773   -185.7 1.083e+04 3.965e-09
 18.00733   -185.1 1.073e+04 3.183e-09
 18.02026   -184.5 1.067e+04 2.812e-09
 18.03005   -184.8 1.067e+04 2.871e-09
 18.05641   -183.9 1.060e+04 2.573e-09
 18.09569   -181.9 1.051e+04 2.330e-09
 18.13488   -180.1 1.049e+04 2.230e-09
 18.17407   -178.1 1.050e+04 2.211e-09
 18.21326   -176.0 1.063e+04 2.256e-09
 18.25244   -174.1 1.075e+04 2.290e-09
 18.28597   -172.2 1.081e+04 2.296e-09
 18.30547   -171.9 1.092e+04 2.636e-09
 18.32082   -170.7 1.097e+04 2.600e-09
 18.34042   -170.1 1.097e+04 2.564e-09
 18.36001   -168.7 1.099e+04 2.508e-09
 18.37961   -168.1 1.099e+04 2.479e-09
 18.39166   -166.6 1.099e+04 2.443e-09
 18.40146   -166.5 1.097e+04 2.456e-09
 18.41879   -165.8 1.097e+04 2.452e-09
 18.43839   -164.6 1.100e+04 2.463e-09
 18.45798   -164.3 1.103e+04 2.513e-09
 18.47757   -163.9 1.118e+04 2.613e-09
 18.49717   -163.8 1.155e+04 2.969e-09
 18.51676   -164.2 1.201e+04 4.357e-09
 18.53635   -165.0 1.268e+04 7.939e-09
 18.55595   -165.9 1.350e+04 1.538e-08
 18.57088   -167.0 1.426e+04 2.689e-08
 18.58068   -168.3 1.432e+04 3.116e-08
 18.59514   -170.0 1.456e+04 3.651e-08
 18.61473   -172.0 1.456e+04 3.767e-08
 18.63432   -174.1 1.423e+04 3.188e-08
 18.65392   -176.2 1.361e+04 2.194e-08
 18.67351   -178.4 1.284e+04 1.377e-08
 18.69310   -180.3 1.217e+04 9.546e-09
 18.71270   -181.7 1.189e+04 8.295e-09
 18.73229   -182.7 1.188e+04 7.746e-09
 18.75189   -183.6 1.189e+04 7.411e-09
 18.77148   -184.6 1.206e+04 7.083e-09
 18.79107   -185.7 1.222e+04 6.951e-09
 18.81067   -186.9 1.228e+04 6.946e-09
 18.83026   -187.9 1.216e+04 7.047e-09
 18.84620   -188.8 1.201e+04 7.057e-09
 18.85600   -189.2 1.183e+04 6.579e-09
 18.86945   -189.7 1.170e+04 6.498e-09
 18.88904   -189.8 1.162e+04 6.472e-09
 18.90863   -189.8 1.156e+04 6.431e-09
 18.92069   -189.5 1.151e+04 6.274e-09
 18.93049   -189.9 1.164e+04 7.493e-09
 18.94782   -189.2 1.154e+04 7.019e-09
 18.96742   -188.5 1.148e+04 6.432e-09
 18.98701   -187.8 1.146e+04 5.928e-09
 19.00660   -187.3 1.150e+04 5.660e-09
 19.02620   -186.9 1.156e+04 5.659e-09
 19.04579   -186.7 1.171e+04 5.910e-09
 19.06538   -186.7 1.191e+04 6.542e-09
 19.08498   -186.7 1.212e+04 7.544e-09
 19.10457   -186.7 1.234e+04 8.672e-09
 19.12151   -186.9 1.248e+04 9.419e-09
 19.13131   -186.7 1.230e+04 7.470e-09
 19.14376   -187.0 1.237e+04 7.967e-09
 19.16335   -187.5 1.236e+04 7.991e-09
 19.18295   -187.8 1.219e+04 7.367e-09
 19.20254   -187.9 1.199e+04 6.599e-09
 19.23203   -188.0 1.187e+04 5.950e-09
 19.27131   -186.3 1.183e+04 5.308e-09
 19.31050   -184.7 1.187e+04 5.149e-09
 19.34969   -183.7 1.197e+04 5.274e-09
 19.38722   -183.4 1.242e+04 6.163e-09
 19.40682   -182.3 1.228e+04 4.968e-09
 19.42806   -182.2 1.276e+04 5.744e-09
 19.46725   -182.4 1.312e+04 7.734e-09
 19.50644   -182.8 1.331e+04 1.006e-08
 19.54562   -183.3 1.337e+04 1.149e-08
 19.58481   -183.9 1.334e+04 1.176e-08
 19.62400   -184.4 1.312e+04 1.043e-08
 19.65329   -184.1 1.279e+04 8.110e-09
 19.67214   -184.2 1.269e+04 7.396e-09
 19.68194   -184.0 1.279e+04 8.078e-09
 19.69238   -184.0 1.261e+04 6.992e-09
 19.71197   -183.9 1.247e+04 6.233e-09
 19.73157   -183.6 1.233e+04 5.661e-09
 19.75116   -183.2 1.223e+04 5.363e-09
 19.77075   -182.9 1.217e+04 5.163e-09
 19.79035   -182.6 1.212e+04 4.980e-09
 19.80994   -182.3 1.202e+04 4.769e-09
 19.82954   -181.9 1.188e+04 4.388e-09
 19.84913   -181.4 1.168e+04 3.871e-09
 19.86872   -180.7 1.146e+04 3.314e-09
 19.88832   -179.8 1.128e+04 2.832e-09
 19.90791   -178.8 1.121e+04 2.516e-09
 19.93740   -177.5 1.125e+04 2.292e-09
 19.95745   -176.1 1.121e+04 2.171e-09
 19.96951   -176.4 1.108e+04 2.384e-09
 19.98865   -175.6 1.109e+04 2.461e-09
 20.01577   -174.3 1.111e+04 2.354e-09
 20.05506   -172.7 1.110e+04 2.132e-09
 20.09425   -170.9 1.101e+04 1.916e-09
 20.13343   -168.7 1.093e+04 1.775e-09
 20.17262   -166.5 1.090e+04 1.733e-09
 20.21181   -164.2 1.089e+04 1.745e-09
 20.25099   -161.9 1.090e+04 1.781e-09
 20.29018   -159.7 1.088e+04 1.840e-09
 20.32937   -157.5 1.085e+04 1.891e-09
 20.36856   -155.4 1.081e+04 1.920e-09
 20.40774   -153.3 1.084e+04 1.942e-09
 20.44693   -151.5 1.093e+04 2.052e-09
 20.48612   -149.9 1.120e+04 2.597e-09
 20.50807   -148.7 1.151e+04 3.685e-09
 20.51777   -149.1 1.145e+04 3.462e-09
 20.53491   -149.3 1.155e+04 4.105e-09
 20.55450   -149.4 1.170e+04 5.256e-09
 20.57409   -149.4 1.182e+04 5.946e-09
 20.59369   -149.4 1.193e+04 6.247e-09
 20.61328   -149.5 1.197e+04 6.324e-09
 20.63288   -149.6 1.198e+04 6.348e-09
 20.65247   -149.6 1.199e+04 6.357e-09
 20.67206   -149.6 1.200e+04 6.297e-09
 20.69166   -149.5 1.201e+04 6.139e-09
 20.71125   -149.3 1.197e+04 5.867e-09
 20.73084   -149.1 1.189e+04 5.594e-09
 20.75044   -149.0 1.176e+04 5.406e-09
 20.77003   -149.0 1.163e+04 5.335e-09
 20.78319   -149.0 1.159e+04 5.325e-09
 20.79299   -149.8 1.161e+04 4.703e-09
 20.80922   -150.1 1.155e+04 5.632e-09
 20.82881   -150.4 1.160e+04 6.888e-09
 20.84841   -150.8 1.172e+04 8.771e-09
 20.86800   -151.2 1.190e+04 1.111e-08
 20.88759   -151.7 1.209e+04 1.351e-08
 20.90719   -152.4 1.222e+04 1.537e-08
 20.92678   -153.5 1.226e+04 1.631e-08
 20.94637   -154.7 1.225e+04 1.660e-08
 20.96597   -156.1 1.219e+04 1.673e-08
 20.98556   -157.5 1.211e+04 1.684e-08
 21.00515   -158.8 1.204e+04 1.697e-08
 21.02475   -160.0 1.196e+04 1.709e-08
 21.03682   -161.1 1.170e+04 1.673e-08
 21.04662   -160.3 1.184e+04 1.704e-08
 21.05851   -161.4 1.155e+04 1.598e-08
 21.06830   -161.3 1.135e+04 1.424e-08
 21.08353   -162.2 1.097e+04 1.207e-08
 21.10312   -162.9 1.055e+04 9.887e-09
 21.12272   -163.3 1.016e+04 8.166e-09
 21.14231   -163.5 9.864e+03 7.030e-09
 21.16190   -163.6 9.694e+03 6.404e-09
 21.18150   -163.6 9.651e+03 6.172e-09
 21.20109   -163.6 9.650e+03 6.143e-09
 21.22068   -163.7 9.695e+03 6.281e-09
 21.24028   -163.8 9.775e+03 6.779e-09
 21.25987   -163.9 9.828e+03 7.423e-09
 21.27947   -163.9 9.829e+03 8.010e-09
 21.29906   -163.8 9.803e+03 8.299e-09
 21.31865   -163.7 9.718e+03 8.050e-09
 21.33382   -163.5 9.614e+03 7.493e-09
 21.34362   -163.2 9.776e+03 8.154e-09
 21.35784   -163.1 9.688e+03 7.739e-09
 21.37743   -163.0 9.586e+03 7.245e-09
 21.39703   -162.9 9.495e+03 6.782e-09
 21.41662   -162.7 9.416e+03 6.466e-09
 21.43622   -162.5 9.362e+03 6.262e-09
 21.45581   -162.3 9.322e+03 6.107e-09
 21.47540   -161.9 9.275e+03 5.993e-09
 21.49500   -161.5 9.231e+03 5.857e-09
 21.51459   -161.0 9.185e+03 5.623e-09
 21.53418   -160.5 9.145e+03 5.236e-09
 21.55378   -159.8 9.095e+03 4.752e-09
 21.56585   -159.1 9.072e+03 4.397e-09
 21.57565   -160.2 9.260e+03 5.213e-09
 21.59296   -159.6 9.284e+03 5.133e-09
 21.60913   -159.0 9.327e+03 5.113e-09
 21.61893   -159.0 9.334e+03 4.816e-09
 21.63215   -158.5 9.432e+03 4.904e-09
 21.65175   -157.9 9.530e+03 5.082e-09
 21.67134   -157.3 9.607e+03 5.296e-09
 21.69093   -156.7 9.663e+03 5.513e-09
 21.71053   -156.0 9.708e+03 5.672e-09
 21.73012   -155.3 9.730e+03 5.741e-09
 21.74971   -154.7 9.748e+03 5.709e-09
 21.76931   -154.1 9.766e+03 5.605e-09
 21.78890   -153.5 9.804e+03 5.504e-09
 21.80849   -153.1 9.855e+03 5.443e-09
 21.82809   -152.8 9.972e+03 5.392e-09
 21.84768   -152.7 1.005e+04 5.496e-09
 21.86728   -153.0 1.027e+04 5.817e-09
 21.88445   -153.5 1.070e+04 6.811e-09
 21.89424   -153.9 1.089e+04 7.382e-09
 21.90646   -154.7 1.153e+04 1.007e-08
 21.92606   -155.4 1.211e+04 1.408e-08
 21.94565   -156.0 1.253e+04 1.864e-08
 21.96524   -156.3 1.280e+04 2.218e-08
 21.98484   -156.6 1.291e+04 2.336e-08
 22.00443   -156.9 1.282e+04 2.109e-08
 22.02402   -157.1 1.264e+04 1.865e-08
 22.04362   -157.2 1.234e+04 1.491e-08
 22.06321   -157.3 1.199e+04 1.165e-08
 22.08281   -157.2 1.160e+04 9.116e-09
 22.09489   -157.0 1.124e+04 7.465e-09
 22.10468   -158.3 1.076e+04 6.152e-09
 22.12199   -157.5 1.064e+04 5.800e-09
 22.14159   -156.4 1.062e+04 5.729e-09
 22.15976   -155.3 1.063e+04 5.719e-09
 22.16956   -156.3 1.122e+04 7.430e-09
 22.18077   -155.6 1.157e+04 8.290e-09
 22.20037   -155.0 1.201e+04 9.873e-09
 22.21996   -154.4 1.253e+04 1.258e-08
 22.23955   -153.9 1.307e+04 1.664e-08
 22.25915   -153.4 1.352e+04 2.155e-08
 22.27874   -152.7 1.382e+04 2.635e-08
 22.29834   -151.8 1.398e+04 2.972e-08
 22.31793   -150.9 1.405e+04 3.082e-08
 22.33752   -149.9 1.392e+04 2.794e-08
 22.35712   -149.0 1.372e+04 2.417e-08
 22.37671   -148.0 1.346e+04 2.064e-08
 22.39630   -146.9 1.326e+04 1.757e-08
 22.41590   -145.8 1.307e+04 1.480e-08
 22.43508   -144.8 1.288e+04 1.242e-08
 22.44487   -146.3 1.233e+04 8.587e-09
 22.45508   -145.2 1.203e+04 7.573e-09
 22.47468   -143.9 1.182e+04 7.003e-09
 22.49427   -142.4 1.171e+04 6.653e-09
 22.52376   -140.5 1.166e+04 6.290e-09
 22.56305   -137.1 1.152e+04 5.634e-09
 22.60223   -134.1 1.144e+04 5.016e-09
 22.64142   -131.1 1.135e+04 4.617e-09
 22.68061   -128.3 1.125e+04 4.395e-09
 22.71058   -125.7 1.113e+04 4.270e-09
 22.73018   -126.9 1.068e+04 3.081e-09
 22.75898   -124.6 1.056e+04 2.940e-09
 22.79817   -122.6 1.046e+04 2.718e-09
 22.83736   -120.8 1.040e+04 2.457e-09
 22.87654   -119.5 1.040e+04 2.295e-09
 22.91573   -119.0 1.041e+04 2.416e-09
 22.95492   -119.0 1.057e+04 3.371e-09
 22.99411   -119.2 1.069e+04 4.806e-09
 23.03329   -119.3 1.096e+04 7.050e-09
 23.07248   -119.3 1.122e+04 8.871e-09
 23.10177   -119.9 1.133e+04 9.825e-09
 23.12127   -120.4 1.128e+04 9.833e-09
 23.14086   -120.6 1.099e+04 8.801e-09
 23.15295   -120.7 1.074e+04 6.763e-09
 23.16275   -121.0 1.074e+04 6.800e-09
 23.18005   -121.4 1.053e+04 5.323e-09
 23.19964   -121.6 1.035e+04 4.431e-09
 23.21924   -121.8 1.015e+04 3.841e-09
 23.23883   -121.7 9.950e+03 3.443e-09
 23.25842   -120.9 9.812e+03 3.155e-09
 23.27081   -120.0 9.795e+03 2.974e-09
 23.28061   -121.0 9.860e+03 3.473e-09
 23.29761   -120.1 9.868e+03 3.364e-09
 23.31721   -119.4 9.887e+03 3.310e-09
 23.33680   -118.6 9.914e+03 3.260e-09
 23.35639   -118.0 9.927e+03 3.193e-09
 23.37599   -117.0 9.931e+03 3.069e-09
 23.39558   -116.3 9.944e+03 2.963e-09
 23.41517   -115.1 9.934e+03 2.786e-09
 23.43477   -114.6 9.942e+03 2.691e-09
 23.45436   -113.4 9.940e+03 2.532e-09
 23.47395   -112.9 9.986e+03 2.483e-09
 23.49355   -111.9 1.001e+04 2.408e-09
 23.51314   -111.5 1.019e+04 2.598e-09
 23.53274   -111.1 1.042e+04 3.016e-09
 23.54613   -110.6 1.066e+04 4.017e-09
 23.55592   -110.6 1.043e+04 3.557e-09
 23.57192   -110.2 1.066e+04 4.884e-09
 23.59152   -109.5 1.088e+04 6.776e-09
 23.61111   -108.6 1.111e+04 9.000e-09
 23.63070   -107.6 1.130e+04 1.100e-08
 23.65030   -106.7 1.142e+04 1.181e-08
 23.66989   -105.8 1.149e+04 1.161e-08
 23.68198   -105.2 1.151e+04 1.129e-08
 23.69178   -106.6 1.130e+04 8.636e-09
 23.70908   -106.3 1.115e+04 6.755e-09
 23.72867   -106.1 1.094e+04 5.221e-09
 23.74827   -106.0 1.070e+04 4.275e-09
 23.76786   -105.9 1.046e+04 3.773e-09
 23.78745   -105.4 1.031e+04 3.608e-09
 23.81174   -104.5 1.032e+04 3.720e-09
 23.83134   -104.7 1.038e+04 4.259e-09
 23.85613   -103.6 1.042e+04 4.410e-09
 23.89541   -101.1 9.869e+03 2.750e-09
 23.93460    -98.6 9.645e+03 1.880e-09
 23.97379    -95.8 9.420e+03 1.215e-09
 24.01298    -93.0 9.352e+03 8.110e-10
 24.05216    -90.0 9.368e+03 5.629e-10
 24.09135    -87.2 9.456e+03 4.730e-10
 24.13054    -84.5 9.474e+03 4.273e-10
 24.16972    -81.8 9.478e+03 4.158e-10
 24.20141    -79.2 9.583e+03 4.256e-10
 24.22101    -79.8 9.593e+03 5.881e-10
 24.24810    -77.3 9.655e+03 7.041e-10
 24.28729    -75.0 9.725e+03 9.055e-10
 24.32647    -72.7 9.835e+03 1.176e-09
 24.36247    -70.5 9.970e+03 1.417e-09
 24.38206    -70.9 1.004e+04 1.659e-09
 24.40485    -69.1 1.012e+04 1.796e-09
 24.44404    -67.3 1.022e+04 1.710e-09
 24.48322    -65.4 1.024e+04 1.400e-09
 24.52241    -63.5 1.031e+04 1.045e-09
 24.56160    -61.6 1.037e+04 8.029e-10
 24.60078    -59.7 1.031e+04 7.154e-10
 24.63997    -57.6 1.038e+04 6.780e-10
 24.67916    -55.7 1.060e+04 6.883e-10
 24.71835    -54.3 1.086e+04 1.037e-09
 24.75753    -52.7 1.088e+04 1.906e-09
 24.79672    -51.0 1.103e+04 3.091e-09
 24.83591    -49.3 1.124e+04 3.967e-09
 24.87510    -47.7 1.134e+04 4.197e-09
 24.91310    -46.1 1.140e+04 4.093e-09
 24.93269    -46.2 1.156e+04 4.271e-09
 24.95347    -44.4 1.164e+04 3.502e-09
 24.99266    -42.6 1.168e+04 3.264e-09
 25.03185    -40.7 1.185e+04 3.346e-09
 25.07103    -38.8 1.212e+04 3.956e-09
 25.10033    -37.7 1.226e+04 4.506e-09
 25.11982    -36.8 1.237e+04 4.681e-09
 25.13941    -35.9 1.255e+04 4.965e-09
 25.15901    -35.2 1.261e+04 5.218e-09
 25.17860    -34.3 1.270e+04 5.546e-09
 25.19801    -33.6 1.282e+04 5.869e-09
 25.20781    -33.3 1.287e+04 6.299e-09
 25.21779    -33.4 1.324e+04 7.233e-09
 25.23738    -37.6 1.528e+04 1.281e-08
 25.25698    -43.8 1.714e+04 6.031e-08
 25.26903    -47.0 1.791e+04 1.764e-07
 25.27388    -48.1 1.839e+04 4.354e-07
 25.28137    -48.9 1.825e+04 6.432e-07
 25.29117    -49.8 1.814e+04 6.791e-07
 25.30096    -50.9 1.835e+04 2.922e-07
 25.31076    -53.7 1.832e+04 8.122e-08
 25.32056    -58.2 1.673e+04 2.610e-08
 25.33530    -61.3 1.486e+04 1.407e-08
 25.35495    -61.6 1.417e+04 6.250e-09
 25.37454    -61.8 1.372e+04 4.110e-09
 25.39413    -60.3 1.346e+04 3.511e-09
 25.41373    -59.1 1.339e+04 3.075e-09
 25.43332    -57.9 1.335e+04 2.699e-09
 25.46281    -56.8 1.330e+04 2.296e-09
 25.48332    -53.9 1.312e+04 1.636e-09
 25.50291    -54.3 1.307e+04 1.553e-09
 25.54128    -51.7 1.314e+04 1.120e-09
 25.58047    -49.4 1.317e+04 8.529e-10
 25.61965    -47.3 1.300e+04 7.464e-10
 25.65884    -45.2 1.291e+04 7.359e-10
 25.69803    -43.1 1.278e+04 8.124e-10
 25.73722    -41.2 1.268e+04 9.981e-10
 25.77640    -39.2 1.259e+04 1.171e-09
 25.81559    -37.4 1.253e+04 1.212e-09
 25.85478    -35.6 1.243e+04 1.097e-09
 25.89397    -33.9 1.256e+04 8.779e-10
 25.93315    -32.4 1.260e+04 7.995e-10
 25.97234    -30.9 1.260e+04 8.166e-10
 26.01153    -29.4 1.242e+04 9.912e-10
 26.03394    -27.5 1.227e+04 1.170e-09
 26.05354    -27.7 1.239e+04 1.626e-09
 26.08990    -25.6 1.229e+04 1.472e-09
 26.12909    -23.4 1.231e+04 1.124e-09
 26.16828    -21.4 1.233e+04 8.528e-10
 26.20746    -19.3 1.221e+04 7.436e-10
 26.24665    -17.1 1.218e+04 7.252e-10
 26.28584    -15.0 1.206e+04 8.158e-10
 26.31754    -12.7 1.189e+04 1.018e-09
 26.33713    -12.5 1.191e+04 1.146e-09
 26.36421    -10.0 1.187e+04 1.231e-09
 26.40340     -7.6 1.188e+04 1.168e-09
 26.44259     -5.6 1.213e+04 9.457e-10
 26.48178     -3.8 1.222e+04 9.081e-10
 26.52096     -2.0 1.206e+04 1.080e-09
 26.56015     -0.0 1.180e+04 1.458e-09
 26.58457      2.2 1.172e+04 2.024e-09
 26.60417      2.1 1.178e+04 2.102e-09
 26.63852      4.6 1.180e+04 2.387e-09
 26.67771      7.0 1.188e+04 2.074e-09
 26.71690      9.7 1.198e+04 1.328e-09
 26.75609     11.7 1.224e+04 7.644e-10
 26.79527     13.6 1.212e+04 6.398e-10
 26.83446     15.9 1.211e+04 6.689e-10
 26.87365     18.2 1.214e+04 7.867e-10
 26.91284     20.7 1.210e+04 9.491e-10
 26.95202     23.1 1.202e+04 1.148e-09
 26.99121     25.5 1.196e+04 1.388e-09
 27.03040     27.8 1.191e+04 1.632e-09
 27.06958     30.2 1.189e+04 1.798e-09
 27.10877     32.5 1.184e+04 1.887e-09
 27.13520     34.7 1.178e+04 1.989e-09
 27.15479     34.5 1.149e+04 2.410e-09
 27.18715     36.8 1.144e+04 2.925e-09
 27.22633     39.1 1.149e+04 3.561e-09
 27.26552     41.4 1.158e+04 3.976e-09
 27.30471     43.4 1.162e+04 3.915e-09
 27.34390     45.4 1.163e+04 3.694e-09
 27.37560     47.1 1.154e+04 3.577e-09
 27.39520     47.6 1.171e+04 4.854e-09
 27.42227     49.3 1.163e+04 5.080e-09
 27.46146     50.9 1.158e+04 5.416e-09
 27.50065     52.7 1.143e+04 5.578e-09
 27.53983     54.6 1.132e+04 5.404e-09
 27.57902     56.8 1.114e+04 4.902e-09
 27.61821     59.1 1.095e+04 4.261e-09
 27.65739     61.4 1.078e+04 3.671e-09
 27.68583     63.8 1.066e+04 3.209e-09
 27.70542     63.8 1.061e+04 2.544e-09
 27.73577     66.2 1.049e+04 2.327e-09
 27.77496     68.7 1.036e+04 2.195e-09
 27.81414     71.1 1.025e+04 2.114e-09
 27.85333     73.6 1.017e+04 2.129e-09
 27.89252     76.0 1.007e+04 2.153e-09
 27.93171     78.4 1.001e+04 2.120e-09
 27.97089     80.7 9.944e+03 2.038e-09
 28.01008     82.9 9.886e+03 1.864e-09
 28.04927     85.2 9.823e+03 1.643e-09
 28.08845     87.4 9.771e+03 1.420e-09
 28.12764     89.6 9.748e+03 1.244e-09
 28.16683     91.8 9.709e+03 1.138e-09
 28.20602     94.0 9.630e+03 1.134e-09
 28.23646     96.4 9.621e+03 1.146e-09
 28.25605     96.6 9.745e+03 1.705e-09
 28.28439     99.0 9.735e+03 1.995e-09
 28.32358    101.3 9.799e+03 2.511e-09
 28.36277    103.4 9.956e+03 3.357e-09
 28.40195    105.3 1.032e+04 5.027e-09
 28.43367    106.1 1.094e+04 7.946e-09
 28.45326    106.2 1.037e+04 6.368e-09
 28.48033    107.0 1.087e+04 9.420e-09
 28.51951    107.7 1.123e+04 1.247e-08
 28.55870    108.4 1.128e+04 1.276e-08
 28.58800    108.5 1.118e+04 1.202e-08
 28.60749    108.7 1.094e+04 1.030e-08
 28.63698    110.3 1.057e+04 8.197e-09
 28.67626    111.9 9.958e+03 4.947e-09
 28.71545    113.5 9.399e+03 2.963e-09
 28.75464    115.3 8.938e+03 2.235e-09
 28.78708    117.7 8.829e+03 2.212e-09
 28.80668    117.1 8.733e+03 1.862e-09
 28.83301    119.8 8.740e+03 1.934e-09
 28.87220    122.3 8.772e+03 2.082e-09
 28.91139    124.7 8.857e+03 2.305e-09
 28.95058    127.0 9.023e+03 2.609e-09
 28.98976    128.9 9.170e+03 2.965e-09
 29.01906    129.7 9.234e+03 3.183e-09
 29.03855    130.5 9.275e+03 3.463e-09
 29.05814    131.3 9.341e+03 3.993e-09
 29.07200    132.0 9.484e+03 4.838e-09
 29.08180    131.1 9.640e+03 5.122e-09
 29.09733    131.7 9.847e+03 5.960e-09
 29.11693    131.7 1.014e+04 6.420e-09
 29.13652    131.6 1.028e+04 6.362e-09
 29.15611    131.0 1.033e+04 6.235e-09
 29.17571    130.1 1.030e+04 6.104e-09
 29.19530    128.7 1.030e+04 6.128e-09
 29.21489    127.1 1.039e+04 6.532e-09
 29.23449    125.5 1.067e+04 7.761e-09
 29.25408    124.2 1.090e+04 9.210e-09
 29.27368    123.2 1.095e+04 9.384e-09
 29.29327    122.5 1.086e+04 8.766e-09
 29.31286    122.2 1.064e+04 7.018e-09
 29.33246    122.0 1.040e+04 4.939e-09
 29.34731    121.7 1.024e+04 3.326e-09
 29.35711    121.8 1.014e+04 3.135e-09
 29.37164    121.7 1.008e+04 2.474e-09
 29.39124    121.7 9.992e+03 2.283e-09
 29.42073    122.6 9.925e+03 2.199e-09
 29.46001    124.6 9.949e+03 2.283e-09
 29.49173    126.7 1.003e+04 2.494e-09
 29.51123    126.8 1.018e+04 3.193e-09
 29.52839    128.0 1.027e+04 3.549e-09
 29.54799    129.1 1.040e+04 4.086e-09
 29.56758    130.3 1.059e+04 4.851e-09
 29.58717    131.0 1.070e+04 5.306e-09
 29.61666    132.3 1.102e+04 7.048e-09
 29.65595    133.9 1.138e+04 9.287e-09
 29.69513    135.1 1.176e+04 1.077e-08
 29.73432    135.7 1.201e+04 1.105e-08
 29.77351    136.1 1.205e+04 1.091e-08
 29.81270    136.9 1.214e+04 1.076e-08
 29.85188    137.8 1.227e+04 1.098e-08
 29.88118    137.9 1.243e+04 1.155e-08
 29.89794    138.1 1.262e+04 1.274e-08
 29.90774    138.3 1.255e+04 1.220e-08
 29.92027    138.6 1.273e+04 1.397e-08
 29.93986    138.9 1.298e+04 1.675e-08
 29.95945    139.1 1.325e+04 2.045e-08
 29.97905    139.3 1.352e+04 2.435e-08
 29.99864    139.6 1.374e+04 2.656e-08
 30.01823    139.7 1.377e+04 2.660e-08
 30.03036    139.9 1.374e+04 2.595e-08
 30.04016    140.3 1.375e+04 2.684e-08
 30.05742    140.8 1.364e+04 2.495e-08
 30.07701    141.3 1.351e+04 2.268e-08
 30.09661    141.9 1.342e+04 2.104e-08
 30.12610    142.9 1.311e+04 1.603e-08
 30.16538    144.5 1.312e+04 1.548e-08
 30.20457    145.9 1.315e+04 1.403e-08
 30.24376    147.1 1.309e+04 1.161e-08
 30.28294    148.5 1.290e+04 8.867e-09
 30.32213    150.0 1.268e+04 6.175e-09
 30.36132    151.9 1.246e+04 3.845e-09
 30.40051    154.1 1.226e+04 2.258e-09
 30.43897    156.4 1.212e+04 1.387e-09
 30.45856    157.1 1.212e+04 2.246e-09
 30.47888    159.5 1.197e+04 1.452e-09
 30.51807    162.1 1.188e+04 1.032e-09
 30.54980    164.6 1.179e+04 8.167e-10
 30.56939    165.0 1.177e+04 7.696e-10
 30.59644    167.6 1.165e+04 6.913e-10
 30.63563    170.2 1.153e+04 6.343e-10
 30.67482    172.8 1.142e+04 5.806e-10
 30.71400    175.3 1.133e+04 5.274e-10
 30.75319    177.8 1.125e+04 4.818e-10
 30.79238    180.3 1.115e+04 4.543e-10
 30.83157    182.8 1.101e+04 4.521e-10
 30.87075    185.3 1.099e+04 4.534e-10
 30.90994    187.9 1.095e+04 4.604e-10
 30.94913    190.4 1.091e+04 4.738e-10
 30.98831    192.8 1.087e+04 4.935e-10
 31.00919    195.3 1.084e+04 5.173e-10
 31.02878    195.8 1.081e+04 4.401e-10
 31.06669    198.1 1.078e+04 4.470e-10
 31.10588    200.5 1.076e+04 4.564e-10
 31.14506    202.8 1.073e+04 4.712e-10
 31.18425    205.2 1.069e+04 4.951e-10
 31.22344    207.5 1.064e+04 5.312e-10
 31.26263    209.9 1.061e+04 5.813e-10
 31.30181    212.1 1.058e+04 6.516e-10
 31.34100    214.3 1.058e+04 7.588e-10
 31.38019    216.5 1.061e+04 9.296e-10
 31.41938    218.6 1.073e+04 1.242e-09
 31.45856    220.5 1.094e+04 1.754e-09
 31.49775    221.6 1.108e+04 2.258e-09
 31.52704    222.5 1.122e+04 3.054e-09
 31.54654    223.4 1.137e+04 4.345e-09
 31.55962    224.3 1.160e+04 6.026e-09
 31.56942    224.4 1.167e+04 6.567e-09
 31.58573    224.9 1.195e+04 8.363e-09
 31.60532    225.2 1.218e+04 9.414e-09
 31.61746    225.4 1.224e+04 9.452e-09
 31.62726    225.7 1.230e+04 1.065e-08
 31.64451    225.9 1.231e+04 1.061e-08
 31.66410    226.0 1.228e+04 1.036e-08
 31.68369    226.1 1.218e+04 9.974e-09
 31.70329    226.1 1.213e+04 9.888e-09
 31.72288    226.0 1.215e+04 1.005e-08
 31.74247    225.6 1.228e+04 1.111e-08
 31.76207    224.5 1.266e+04 1.513e-08
 31.78166    223.0 1.331e+04 2.359e-08
 31.80126    221.2 1.398e+04 3.549e-08
 31.82085    219.1 1.439e+04 4.155e-08
 31.83493    216.3 1.439e+04 4.070e-08
 31.84473    216.4 1.475e+04 4.157e-08
 31.86004    213.3 1.425e+04 2.893e-08
 31.87963    210.1 1.324e+04 1.736e-08
 31.89922    206.9 1.177e+04 1.172e-08
 31.91882    205.3 1.106e+04 1.106e-08
 31.93841    205.3 1.103e+04 1.110e-08
 31.95801    205.3 1.099e+04 1.148e-08
 31.97760    205.4 1.095e+04 1.221e-08
 31.99719    205.7 1.096e+04 1.280e-08
 32.01679    206.0 1.101e+04 1.306e-08
 32.03638    206.2 1.109e+04 1.314e-08
 32.05597    206.2 1.120e+04 1.327e-08
 32.07557    206.1 1.153e+04 1.387e-08
 32.09516    204.9 1.269e+04 1.704e-08
 32.11025    203.3 1.358e+04 2.145e-08
 32.12004    206.3 1.232e+04 2.353e-08
 32.13435    204.3 1.411e+04 3.833e-08
 32.14649    199.7 1.722e+04 8.335e-08
 32.15629    197.2 1.821e+04 1.105e-07
 32.17354    191.0 1.915e+04 1.570e-07
 32.19313    184.2 1.893e+04 1.489e-07
 32.21272    178.7 1.766e+04 1.000e-07
 32.23232    174.6 1.533e+04 4.179e-08
 32.25191    170.6 1.136e+04 1.178e-08
 32.27150    166.3 9.249e+03 4.852e-09
 32.29110    164.9 9.043e+03 4.607e-09
 32.31069    164.9 9.037e+03 4.598e-09
 32.33028    165.4 9.050e+03 4.620e-09
 32.34988    166.2 9.127e+03 4.772e-09
 32.36947    166.9 9.304e+03 5.301e-09
 32.38556    167.6 9.572e+03 6.352e-09
 32.39536    165.8 9.693e+03 6.126e-09
 32.40866    166.3 1.006e+04 7.361e-09
 32.42825    166.3 1.042e+04 8.939e-09
 32.44785    166.0 1.075e+04 1.066e-08
 32.46744    165.4 1.104e+04 1.218e-08
 32.48703    163.9 1.119e+04 1.324e-08
 32.50663    161.5 1.116e+04 1.381e-08
 32.52622    158.2 1.117e+04 1.427e-08
 32.54581    153.8 1.129e+04 1.520e-08
 32.56541    148.6 1.164e+04 1.767e-08
 32.58500    143.2 1.216e+04 2.264e-08
 32.60460    138.3 1.265e+04 2.909e-08
 32.62419    134.4 1.284e+04 3.171e-08
 32.64378    131.3 1.279e+04 3.104e-08
 32.66088    129.1 1.245e+04 2.686e-08
 32.67067    131.2 1.233e+04 2.721e-08
 32.67552    129.7 1.181e+04 2.109e-08
 32.68532    130.0 1.159e+04 1.980e-08
 32.70256    128.8 1.093e+04 1.401e-08
 32.72216    127.6 1.044e+04 1.071e-08
 32.74175    126.6 1.040e+04 1.049e-08
 32.76134    126.0 1.047e+04 1.080e-08
 32.78094    125.6 1.072e+04 1.211e-08
 32.80053    125.4 1.106e+04 1.436e-08
 32.82013    125.4 1.144e+04 1.736e-08
 32.83972    125.5 1.167e+04 2.159e-08
 32.85931    125.7 1.191e+04 2.459e-08
 32.87891    125.9 1.195e+04 2.473e-08
 32.89850    126.0 1.192e+04 2.398e-08
 32.91809    126.0 1.176e+04 2.063e-08
 32.93619    125.8 1.148e+04 1.542e-08
 32.94599    126.4 1.172e+04 1.968e-08
 32.95728    126.1 1.141e+04 1.479e-08
 32.97687    125.5 1.103e+04 1.021e-08
 32.99647    124.4 1.060e+04 7.504e-09
 33.01606    123.3 1.026e+04 6.854e-09
 33.03566    122.7 1.024e+04 6.857e-09
 33.05525    122.3 1.026e+04 6.963e-09
 33.07484    122.1 1.037e+04 7.268e-09
 33.09444    121.9 1.052e+04 7.640e-09
 33.11403    121.8 1.069e+04 8.025e-09
 33.13362    121.6 1.087e+04 8.476e-09
 33.15322    121.4 1.107e+04 9.144e-09
 33.17281    121.0 1.132e+04 1.013e-08
 33.19241    120.6 1.163e+04 1.148e-08
 33.20456    120.0 1.205e+04 1.326e-08
 33.21386    118.5 1.219e+04 1.391e-08
 33.22130    118.3 1.186e+04 1.366e-08
 33.23159    117.6 1.216e+04 1.469e-08
 33.25119    116.8 1.241e+04 1.558e-08
 33.27078    116.0 1.247e+04 1.619e-08
 33.29037    115.4 1.241e+04 1.620e-08
 33.30997    115.0 1.227e+04 1.587e-08
 33.32956    115.0 1.208e+04 1.508e-08
 33.34915    115.0 1.193e+04 1.435e-08
 33.37864    115.2 1.157e+04 1.187e-08
 33.41793    114.9 1.124e+04 1.040e-08
 33.45711    115.0 1.087e+04 8.785e-09
 33.49630    115.4 1.042e+04 6.811e-09
 33.53549    116.1 9.913e+03 4.846e-09
 33.57468    117.3 9.434e+03 3.343e-09
 33.61386    118.7 9.085e+03 2.433e-09
 33.65305    120.3 8.881e+03 1.917e-09
 33.69224    122.0 8.810e+03 1.644e-09
 33.72399    123.9 8.824e+03 1.600e-09
 33.74358    124.5 9.053e+03 2.274e-09
 33.76233    126.4 9.187e+03 2.382e-09
 33.78192    126.8 8.756e+03 1.651e-09
 33.80980    128.6 9.035e+03 1.905e-09
 33.84899    129.9 9.345e+03 2.520e-09
 33.88817    130.9 9.749e+03 3.724e-09
 33.92736    131.4 1.022e+04 5.437e-09
 33.96655    131.7 1.060e+04 6.899e-09
 34.00574    131.4 1.112e+04 8.139e-09
 34.03503    130.6 1.139e+04 8.390e-09
 34.04724    130.0 1.147e+04 8.470e-09
 34.05704    130.4 1.152e+04 8.752e-09
 34.07412    129.9 1.161e+04 8.896e-09
 34.09371    129.4 1.173e+04 9.251e-09
 34.11331    129.0 1.190e+04 1.002e-08
 34.13290    128.6 1.213e+04 1.131e-08
 34.15249    128.4 1.240e+04 1.312e-08
 34.17209    128.4 1.270e+04 1.524e-08
 34.19168    128.4 1.300e+04 1.728e-08
 34.21127    128.5 1.328e+04 1.872e-08
 34.23087    128.7 1.355e+04 1.867e-08
 34.25046    128.8 1.369e+04 1.793e-08
 34.26262    128.9 1.385e+04 1.636e-08
 34.27242    128.7 1.367e+04 1.244e-08
 34.28965    128.8 1.376e+04 1.099e-08
 34.30924    129.1 1.386e+04 1.018e-08
 34.32256    129.5 1.393e+04 1.016e-08
 34.33235    129.4 1.434e+04 1.305e-08
 34.34843    129.6 1.442e+04 1.252e-08
 34.36802    130.0 1.449e+04 1.260e-08
 34.38762    130.3 1.468e+04 1.315e-08
 34.40721    130.7 1.489e+04 1.458e-08
 34.42681    131.1 1.506e+04 1.680e-08
 34.44640    131.3 1.519e+04 1.971e-08
 34.46599    131.3 1.525e+04 2.298e-08
 34.48559    131.2 1.528e+04 2.646e-08
 34.50518    131.0 1.533e+04 2.942e-08
 34.52477    130.4 1.536e+04 2.974e-08
 34.54437    129.5 1.531e+04 2.923e-08
 34.56396    128.5 1.513e+04 2.756e-08
 34.58355    127.6 1.490e+04 2.516e-08
 34.59787    126.9 1.472e+04 2.269e-08
 34.60767    126.4 1.476e+04 2.487e-08
 34.62274    126.0 1.460e+04 2.251e-08
 34.64234    125.6 1.441e+04 1.916e-08
 34.66193    125.5 1.424e+04 1.549e-08
 34.68152    125.5 1.409e+04 1.186e-08
 34.71101    125.7 1.405e+04 9.090e-09
 34.75030    125.6 1.387e+04 5.936e-09
 34.78205    125.6 1.360e+04 5.008e-09
 34.80164    125.2 1.329e+04 3.085e-09
 34.82867    125.8 1.326e+04 3.230e-09
 34.86358    126.3 1.325e+04 3.737e-09
 34.88318    125.0 1.329e+04 5.227e-09
 34.90704    125.2 1.322e+04 5.063e-09
 34.94623    125.5 1.301e+04 4.298e-09
 34.98542    125.9 1.275e+04 3.200e-09
 35.02461    126.2 1.252e+04 2.289e-09
 35.06379    126.6 1.234e+04 1.730e-09
 35.10298    127.0 1.215e+04 1.470e-09
 35.14217    127.5 1.194e+04 1.374e-09
 35.18136    128.1 1.173e+04 1.324e-09
 35.22054    128.9 1.156e+04 1.242e-09
 35.25973    129.7 1.142e+04 1.090e-09
 35.29892    130.6 1.133e+04 8.921e-10
 35.33811    131.6 1.129e+04 7.014e-10
 35.37729    132.7 1.131e+04 5.548e-10
 35.41421    133.8 1.124e+04 4.898e-10
 35.43380    134.0 1.130e+04 5.048e-10
 35.45567    135.3 1.125e+04 5.038e-10
 35.49485    136.6 1.124e+04 5.061e-10
 35.53404    137.9 1.119e+04 5.207e-10
 35.57323    139.0 1.112e+04 5.515e-10
 35.61242    140.1 1.108e+04 5.996e-10
 35.65160    141.2 1.105e+04 6.789e-10
 35.69079    142.4 1.104e+04 8.240e-10
 35.72998    143.5 1.105e+04 1.084e-09
 35.76917    144.4 1.111e+04 1.526e-09
 35.80835    144.5 1.117e+04 2.107e-09
 35.83765    144.6 1.123e+04 2.460e-09
 35.84972    144.7 1.125e+04 3.046e-09
 35.85951    144.8 1.127e+04 2.792e-09
 35.87674    144.8 1.127e+04 3.873e-09
 35.89633    144.8 1.134e+04 5.462e-09
 35.91592    144.8 1.147e+04 7.185e-09
 35.93552    144.6 1.164e+04 8.444e-09
 35.95511    144.2 1.172e+04 8.670e-09
 35.97444    143.7 1.170e+04 8.578e-09
 35.98424    144.3 1.165e+04 8.449e-09
 35.99430    143.7 1.162e+04 8.320e-09
 36.01389    143.2 1.153e+04 8.056e-09
 36.03348    142.8 1.146e+04 7.949e-09
 36.05308    142.5 1.146e+04 7.991e-09
 36.07267    142.2 1.148e+04 8.256e-09
 36.09227    141.9 1.154e+04 8.937e-09
 36.11186    141.8 1.165e+04 9.966e-09
 36.13145    141.8 1.178e+04 1.118e-08
 36.15105    141.8 1.191e+04 1.260e-08
 36.17064    141.8 1.214e+04 1.429e-08
 36.19023    141.8 1.248e+04 1.629e-08
 36.20983    141.7 1.293e+04 1.897e-08
 36.22942    141.3 1.345e+04 2.283e-08
 36.24901    140.5 1.405e+04 2.878e-08
 36.25955    139.2 1.470e+04 3.793e-08
 36.26935    140.6 1.589e+04 7.180e-08
 36.28820    138.8 1.663e+04 9.088e-08
 36.30780    136.6 1.705e+04 1.070e-07
 36.32739    134.3 1.729e+04 1.213e-07
 36.34698    131.9 1.748e+04 1.314e-07
 36.36658    129.5 1.747e+04 1.355e-07
 36.37875    127.3 1.739e+04 1.336e-07
 36.38854    127.4 1.668e+04 9.447e-08
 36.40576    125.9 1.643e+04 8.664e-08
 36.42536    124.8 1.618e+04 7.591e-08
 36.44495    123.6 1.588e+04 6.284e-08
 36.46454    122.6 1.548e+04 5.141e-08
 36.48414    121.9 1.526e+04 4.891e-08
 36.50373    121.4 1.532e+04 5.126e-08
 36.52333    121.0 1.564e+04 6.420e-08
 36.53486    121.1 1.620e+04 8.976e-08
 36.54466    122.1 1.660e+04 1.039e-07
 36.56251    122.0 1.683e+04 1.174e-07
 36.58211    121.5 1.686e+04 1.168e-07
 36.60170    120.9 1.673e+04 1.078e-07
 36.62129    120.4 1.629e+04 8.800e-08
 36.64089    119.9 1.571e+04 6.746e-08
 36.66048    119.4 1.517e+04 5.368e-08
 36.68007    118.9 1.480e+04 4.595e-08
 36.69967    118.3 1.456e+04 4.147e-08
 36.71926    117.9 1.425e+04 3.712e-08
 36.73886    117.5 1.387e+04 3.098e-08
 36.75845    116.9 1.345e+04 2.377e-08
 36.77804    115.7 1.303e+04 1.672e-08
 36.79764    113.8 1.254e+04 1.138e-08
 36.81018    111.1 1.222e+04 9.810e-09
 36.81997    113.2 1.271e+04 1.176e-08
 36.83682    109.2 1.277e+04 1.207e-08
 36.85642    103.6 1.320e+04 1.586e-08
 36.87601     98.0 1.413e+04 2.969e-08
 36.89560     93.7 1.481e+04 4.691e-08
 36.90778     89.9 1.493e+04 4.810e-08
 36.91758     90.7 1.480e+04 4.584e-08
 36.93479     87.2 1.466e+04 4.095e-08
 36.95439     83.5 1.406e+04 2.971e-08
 36.97398     79.7 1.306e+04 1.985e-08
 36.99357     76.6 1.195e+04 1.406e-08
 37.01317     75.2 1.116e+04 1.115e-08
 37.03276     75.0 1.081e+04 9.576e-09
 37.05235     75.1 1.063e+04 8.306e-09
 37.07195     75.3 1.045e+04 7.314e-09
 37.08549     75.7 1.028e+04 6.646e-09
 37.09529     75.9 1.024e+04 6.562e-09
 37.11114     76.6 1.014e+04 6.422e-09
 37.13073     77.5 1.014e+04 6.445e-09
 37.15032     78.4 1.019e+04 6.658e-09
 37.16992     79.3 1.033e+04 7.345e-09
 37.18951     80.0 1.056e+04 8.599e-09
 37.20910     80.7 1.086e+04 1.053e-08
 37.22870     81.3 1.121e+04 1.310e-08
 37.24829     81.8 1.153e+04 1.611e-08
 37.26788     82.0 1.172e+04 1.803e-08
 37.28748     82.0 1.172e+04 1.799e-08
 37.30707     81.9 1.156e+04 1.696e-08
 37.32667     81.8 1.115e+04 1.438e-08
 37.34626     81.8 1.064e+04 1.143e-08
 37.36080     81.6 1.017e+04 9.060e-09
 37.37060     82.2 1.028e+04 9.652e-09
 37.38545     82.0 9.907e+03 8.137e-09
 37.40504     82.0 9.688e+03 7.705e-09
 37.42463     82.2 9.668e+03 7.710e-09
 37.43681     82.6 9.688e+03 7.876e-09
 37.44661     82.6 9.740e+03 8.180e-09
 37.46382     83.0 9.845e+03 8.783e-09
 37.48341     83.4 9.991e+03 9.545e-09
 37.50301     83.8 1.015e+04 1.037e-08
 37.52260     84.1 1.032e+04 1.131e-08
 37.54220     84.5 1.051e+04 1.244e-08
 37.56179     84.8 1.073e+04 1.373e-08
 37.58138     85.2 1.091e+04 1.505e-08
 37.60098     85.6 1.103e+04 1.608e-08
 37.62057     86.2 1.108e+04 1.660e-08
 37.63612     86.8 1.113e+04 1.683e-08
 37.64592     87.0 1.130e+04 1.775e-08
 37.65976     87.4 1.139e+04 1.839e-08
 37.67935     87.8 1.153e+04 1.930e-08
 37.69894     88.2 1.176e+04 2.093e-08
 37.71854     88.1 1.212e+04 2.360e-08
 37.73813     87.8 1.323e+04 3.443e-08
 37.75278     87.6 1.387e+04 4.351e-08
 37.76253     87.6 1.422e+04 4.945e-08
 37.77232     87.5 1.482e+04 6.253e-08
 37.77858     87.7 1.548e+04 8.173e-08
 37.78347     87.7 1.589e+04 9.587e-08
 37.79192     87.8 1.657e+04 1.268e-07
 37.80171     87.8 1.723e+04 1.692e-07
 37.81151     87.5 1.772e+04 2.154e-07
 37.82131     87.1 1.793e+04 2.389e-07
 37.83110     86.7 1.796e+04 2.384e-07
 37.84090     86.5 1.797e+04 2.316e-07
 37.85070     86.3 1.805e+04 2.141e-07
 37.86049     85.9 1.822e+04 1.956e-07
 37.87029     85.5 1.829e+04 1.941e-07
 37.88009     85.1 1.847e+04 1.970e-07
 37.88988     84.5 1.874e+04 2.113e-07
 37.89968     84.0 1.909e+04 2.411e-07
 37.90948     83.2 1.948e+04 3.198e-07
 37.91623     81.3 2.005e+04 5.440e-07
 37.92113     82.7 2.102e+04 5.050e-07
 37.92660     80.0 2.151e+04 8.669e-07
 37.93147     74.6 2.065e+04 1.914e-06
 37.93637     65.7 1.810e+04 9.774e-06
 37.94127     58.1 1.412e+04 1.456e-04
 37.94617     51.1 1.169e+04 1.559e-03
 37.95107     44.4 1.253e+04 6.982e-04
 37.95844     40.3 1.685e+04 1.416e-05
 37.96575     33.6 2.207e+04 1.182e-06
 37.97064     25.9 2.303e+04 7.863e-07
 37.97806     22.3 2.125e+04 3.143e-07
 37.98785     21.4 2.015e+04 2.049e-07
 37.99765     21.0 1.928e+04 1.551e-07
 38.00745     20.6 1.820e+04 1.330e-07
 38.01724     20.1 1.740e+04 1.124e-07
 38.03199     19.5 1.603e+04 8.023e-08
 38.05163     20.0 1.459e+04 4.987e-08
 38.07122     20.1 1.337e+04 3.043e-08
 38.09082     19.9 1.217e+04 1.895e-08
 38.11041     19.9 1.131e+04 1.334e-08
 38.13000     20.2 1.085e+04 1.114e-08
 38.14960     20.9 1.055e+04 9.932e-09
 38.16919     21.7 1.039e+04 9.507e-09
 38.18675     22.3 1.055e+04 1.018e-08
 38.19654     22.7 1.057e+04 1.011e-08
 38.20838     23.1 1.092e+04 1.229e-08
 38.22797     23.7 1.125e+04 1.485e-08
 38.24757     24.4 1.164e+04 1.772e-08
 38.26716     25.1 1.192e+04 2.003e-08
 38.28675     25.8 1.205e+04 2.062e-08
 38.30635     26.2 1.201e+04 1.955e-08
 38.32594     26.3 1.199e+04 1.844e-08
 38.34553     26.4 1.189e+04 1.713e-08
 38.36513     26.4 1.173e+04 1.563e-08
 38.38472     26.3 1.155e+04 1.415e-08
 38.40432     25.9 1.141e+04 1.303e-08
 38.42391     25.6 1.128e+04 1.203e-08
 38.44350     25.2 1.118e+04 1.135e-08
 38.46206     24.8 1.112e+04 1.117e-08
 38.47186     24.5 1.101e+04 1.073e-08
 38.48269     24.3 1.117e+04 1.153e-08
 38.49488     24.0 1.138e+04 1.324e-08
 38.50467     23.8 1.134e+04 1.241e-08
 38.52188     23.6 1.168e+04 1.547e-08
 38.54147     23.6 1.212e+04 2.005e-08
 38.56107     23.6 1.258e+04 2.465e-08
 38.58066     23.7 1.297e+04 2.890e-08
 38.60025     24.0 1.317e+04 3.153e-08
 38.61985     24.0 1.312e+04 3.090e-08
 38.63944     24.1 1.297e+04 2.903e-08
 38.65903     24.3 1.268e+04 2.581e-08
 38.67863     24.6 1.240e+04 2.243e-08
 38.69822     25.4 1.208e+04 1.889e-08
 38.71781     25.9 1.186e+04 1.601e-08
 38.73737     26.5 1.157e+04 1.234e-08
 38.75697     26.6 1.139e+04 1.018e-08
 38.77660     26.8 1.134e+04 8.545e-09
 38.79619     27.1 1.133e+04 8.223e-09
 38.81578     27.5 1.145e+04 8.444e-09
 38.83538     27.9 1.161e+04 9.377e-09
 38.85497     28.3 1.172e+04 1.088e-08
 38.87456     29.0 1.172e+04 1.261e-08
 38.89416     29.8 1.182e+04 1.380e-08
 38.91375     30.8 1.193e+04 1.418e-08
 38.93334     31.6 1.214e+04 1.348e-08
 38.95294     32.4 1.252e+04 1.152e-08
 38.97253     33.1 1.270e+04 9.308e-09
 38.99213     33.6 1.249e+04 7.485e-09
 39.01172     34.4 1.188e+04 5.941e-09
 39.02248     34.9 1.131e+04 5.093e-09
 39.02488     35.1 1.187e+04 6.910e-09
 39.03370     32.6 1.100e+04 3.511e-09
 39.05091     34.2 1.083e+04 2.159e-09
 39.07050     34.8 1.125e+04 1.648e-09
 39.09999     36.0 1.088e+04 1.082e-09
 39.13927     38.3 1.044e+04 9.532e-10
 39.17846     41.0 1.040e+04 9.979e-10
 39.21765     44.0 1.039e+04 1.167e-09
 39.25684     46.9 1.046e+04 1.337e-09
 39.28820     49.8 1.059e+04 1.352e-09
 39.30779     49.4 1.056e+04 1.282e-09
 39.33521     52.2 1.064e+04 1.188e-09
 39.37440     54.9 1.071e+04 1.054e-09
 39.41358     57.5 1.069e+04 1.012e-09
 39.45277     59.8 1.078e+04 1.039e-09
 39.49196     61.7 1.102e+04 1.225e-09
 39.53115     63.2 1.116e+04 2.136e-09
 39.57033     65.0 1.124e+04 4.262e-09
 39.60952     67.0 1.151e+04 7.449e-09
 39.63881     67.8 1.179e+04 8.647e-09
 39.65831     68.1 1.169e+04 8.802e-09
 39.67790     68.8 1.157e+04 8.044e-09
 39.69750     69.3 1.139e+04 7.344e-09
 39.71709     70.1 1.114e+04 5.924e-09
 39.73668     70.6 1.089e+04 5.020e-09
 39.75628     71.7 1.066e+04 4.100e-09
 39.77587     72.3 1.042e+04 3.414e-09
 39.80536     74.6 1.051e+04 3.410e-09
 39.83475     75.7 1.053e+04 3.418e-09
 39.84843     76.3 1.045e+04 3.206e-09
 39.85822     76.6 1.060e+04 4.437e-09
 39.87384     77.7 1.063e+04 4.656e-09
 39.89343     78.7 1.064e+04 4.896e-09
 39.91303     79.8 1.068e+04 5.213e-09
 39.93262     80.8 1.079e+04 5.726e-09
 39.95221     81.8 1.099e+04 6.528e-09
 39.97181     82.6 1.126e+04 7.787e-09
 39.99140     83.2 1.163e+04 1.004e-08
 40.01100     83.7 1.188e+04 1.211e-08
 40.03059     84.5 1.222e+04 1.491e-08
 40.05018     85.1 1.250e+04 1.645e-08
 40.06978     85.5 1.256e+04 1.641e-08
 40.08197     85.7 1.253e+04 1.595e-08
 40.09187     85.1 1.207e+04 1.298e-08
 40.11896     85.9 1.193e+04 1.174e-08
 40.15814     87.1 1.155e+04 8.790e-09
 40.19733     88.8 1.109e+04 5.722e-09
 40.23652     90.9 1.069e+04 3.536e-09
 40.27570     93.1 1.045e+04 2.292e-09
 40.31489     95.5 1.038e+04 1.752e-09
 40.35408     98.2 1.033e+04 1.647e-09
 40.38945    101.1 1.030e+04 1.650e-09
 40.40905    101.0 1.019e+04 1.634e-09
 40.43245    103.9 1.024e+04 1.715e-09
 40.47164    106.8 1.029e+04 1.858e-09
 40.51083    109.7 1.036e+04 2.050e-09
 40.55002    112.4 1.046e+04 2.274e-09
 40.58920    114.7 1.051e+04 2.467e-09
 40.61110    116.2 1.050e+04 2.686e-09
 40.62080    116.1 1.048e+04 2.436e-09
 40.63799    117.2 1.046e+04 2.438e-09
 40.65759    118.5 1.045e+04 2.564e-09
 40.67437    119.9 1.055e+04 2.913e-09
 40.68416    119.8 1.046e+04 2.815e-09
 40.69677    121.1 1.061e+04 3.280e-09
 40.71637    122.2 1.078e+04 3.876e-09
 40.73596    123.2 1.093e+04 4.593e-09
 40.75555    124.2 1.108e+04 5.416e-09
 40.77515    125.2 1.125e+04 6.245e-09
 40.79474    126.2 1.141e+04 6.922e-09
 40.81433    127.2 1.153e+04 7.365e-09
 40.83393    128.3 1.163e+04 7.743e-09
 40.85352    129.2 1.189e+04 8.438e-09
 40.87312    129.5 1.264e+04 1.143e-08
 40.89271    129.4 1.362e+04 1.693e-08
 40.90736    129.1 1.414e+04 2.082e-08
 40.91710    128.0 1.511e+04 2.862e-08
 40.92690    126.0 1.645e+04 5.008e-08
 40.93670    124.2 1.739e+04 9.525e-08
 40.94649    123.0 1.793e+04 1.679e-07
 40.95448    122.1 1.835e+04 2.731e-07
 40.95938    122.6 1.837e+04 2.572e-07
 40.96609    121.8 1.869e+04 3.875e-07
 40.97588    120.4 1.893e+04 4.289e-07
 40.98568    118.5 1.887e+04 3.896e-07
 40.99548    117.0 1.857e+04 2.805e-07
 41.00528    116.2 1.793e+04 1.653e-07
 41.01507    115.8 1.738e+04 1.132e-07
 41.02982    115.2 1.645e+04 5.476e-08
 41.04946    112.4 1.376e+04 1.548e-08
 41.06905    110.2 1.245e+04 1.114e-08
 41.08865    110.1 1.209e+04 1.029e-08
 41.10824    110.3 1.209e+04 1.022e-08
 41.12783    110.6 1.214e+04 1.011e-08
 41.14003    111.0 1.219e+04 9.561e-09
 41.14983    110.4 1.269e+04 1.136e-08
 41.16702    109.8 1.259e+04 9.342e-09
 41.18167    109.9 1.260e+04 9.291e-09
 41.19141    109.9 1.276e+04 8.580e-09
 41.20121    109.2 1.349e+04 8.444e-09
 41.21101    108.0 1.496e+04 8.550e-09
 41.22081    106.0 1.731e+04 1.062e-08
 41.22980    104.2 1.848e+04 1.454e-08
 41.23469    102.4 2.245e+04 2.424e-08
 41.24040    101.3 2.159e+04 4.198e-08
 41.25020    100.8 2.048e+04 6.492e-08
 41.25999    100.6 1.949e+04 9.239e-08
 41.26979    100.4 1.884e+04 1.197e-07
 41.27959    100.2 1.845e+04 1.415e-07
 41.28938    100.3 1.848e+04 1.492e-07
 41.29918    100.7 1.851e+04 1.548e-07
 41.30898    101.0 1.883e+04 1.451e-07
 41.31877    100.7 1.918e+04 1.191e-07
 41.32857     99.8 1.919e+04 8.733e-08
 41.33837     98.0 1.858e+04 6.061e-08
 41.34816     95.8 1.714e+04 4.393e-08
 41.35796     94.0 1.566e+04 3.695e-08
 41.36745     92.9 1.496e+04 3.480e-08
 41.37235     92.3 1.501e+04 3.371e-08
 41.37755     91.8 1.492e+04 3.415e-08
 41.38735     91.4 1.492e+04 3.508e-08
 41.39715     91.1 1.509e+04 3.580e-08
 41.40445     90.7 1.514e+04 3.571e-08
 41.40935     90.8 1.516e+04 3.505e-08
 41.41674     90.1 1.530e+04 3.523e-08
 41.42654     89.7 1.531e+04 3.486e-08
 41.44128     89.0 1.532e+04 3.133e-08
 41.46093     86.7 1.571e+04 2.840e-08
 41.48052     84.1 1.574e+04 3.274e-08
 41.50011     82.5 1.560e+04 3.761e-08
 41.51011     81.6 1.546e+04 4.120e-08
 41.51990     80.8 1.518e+04 3.460e-08
 41.53930     80.2 1.516e+04 3.741e-08
 41.55889     79.9 1.529e+04 4.101e-08
 41.57849     79.8 1.540e+04 4.456e-08
 41.59808     79.6 1.538e+04 4.585e-08
 41.61767     79.5 1.523e+04 4.475e-08
 41.63727     79.4 1.476e+04 3.890e-08
 41.65686     79.2 1.417e+04 2.890e-08
 41.66907     78.4 1.365e+04 1.899e-08
 41.67886     77.6 1.445e+04 2.692e-08
 41.69605     76.5 1.426e+04 2.573e-08
 41.71564     75.6 1.399e+04 2.375e-08
 41.73524     75.0 1.364e+04 2.116e-08
 41.75483     74.8 1.329e+04 1.878e-08
 41.77442     74.8 1.300e+04 1.685e-08
 41.78542     75.0 1.279e+04 1.522e-08
 41.79522     74.6 1.325e+04 2.045e-08
 41.81361     75.1 1.311e+04 1.953e-08
 41.83320     75.8 1.306e+04 1.898e-08
 41.85280     76.5 1.310e+04 1.907e-08
 41.87239     76.9 1.329e+04 1.967e-08
 41.89199     76.8 1.373e+04 2.232e-08
 41.91158     76.3 1.437e+04 2.965e-08
 41.93117     75.8 1.495e+04 4.346e-08
 41.95077     75.4 1.565e+04 6.244e-08
 41.97036     75.0 1.611e+04 7.535e-08
 41.98995     74.5 1.609e+04 7.279e-08
 42.00955     74.0 1.594e+04 6.333e-08
 42.02914     73.4 1.561e+04 5.090e-08
 42.04873     72.7 1.534e+04 4.303e-08
 42.06073     72.1 1.515e+04 4.043e-08
 42.07053     72.7 1.560e+04 6.192e-08
 42.08792     72.5 1.546e+04 5.786e-08
 42.10752     72.0 1.546e+04 5.491e-08
 42.12711     71.2 1.571e+04 5.891e-08
 42.14670     70.3 1.624e+04 7.423e-08
 42.16630     69.4 1.666e+04 9.076e-08
 42.18589     68.3 1.664e+04 9.125e-08
 42.19810     67.7 1.627e+04 8.045e-08
 42.20790     68.1 1.634e+04 8.683e-08
 42.22508     68.0 1.542e+04 5.658e-08
 42.24467     67.8 1.429e+04 3.179e-08
 42.26426     67.3 1.326e+04 1.826e-08
 42.28386     66.8 1.251e+04 1.244e-08
 42.30345     66.8 1.203e+04 1.032e-08
 42.32305     67.3 1.176e+04 9.549e-09
 42.33605     68.2 1.161e+04 9.120e-09
 42.34584     68.9 1.157e+04 8.846e-09
 42.36223     69.7 1.147e+04 8.342e-09
 42.38183     70.6 1.137e+04 7.887e-09
 42.40142     71.4 1.127e+04 7.543e-09
 42.42101     72.2 1.116e+04 7.294e-09
 42.44061     73.1 1.109e+04 7.179e-09
 42.46020     74.1 1.107e+04 7.135e-09
 42.47980     75.0 1.106e+04 7.061e-09
 42.49939     76.0 1.105e+04 6.967e-09
 42.51898     76.9 1.105e+04 6.937e-09
 42.53858     77.7 1.104e+04 6.993e-09
 42.55817     78.6 1.105e+04 7.188e-09
 42.57776     79.5 1.108e+04 7.568e-09
 42.59736     80.4 1.112e+04 8.124e-09
 42.61136     81.4 1.119e+04 8.848e-09
 42.62116     81.9 1.108e+04 8.188e-09
 42.63654     82.9 1.120e+04 9.342e-09
 42.65614     84.0 1.134e+04 1.048e-08
 42.67573     85.1 1.148e+04 1.135e-08
 42.69533     86.1 1.163e+04 1.192e-08
 42.71492     86.9 1.177e+04 1.246e-08
 42.72713     87.4 1.196e+04 1.342e-08
 42.73693     87.1 1.158e+04 1.084e-08
 42.75411     87.4 1.175e+04 1.189e-08
 42.77370     87.7 1.199e+04 1.381e-08
 42.79329     88.1 1.226e+04 1.627e-08
 42.81289     88.4 1.250e+04 1.868e-08
 42.83248     88.8 1.270e+04 2.063e-08
 42.85207     89.1 1.286e+04 2.223e-08
 42.87167     89.3 1.295e+04 2.304e-08
 42.88668     89.3 1.301e+04 2.330e-08
 42.89647     90.4 1.309e+04 2.432e-08
 42.91086     90.5 1.320e+04 2.528e-08
 42.93045     90.2 1.350e+04 2.835e-08
 42.95004     89.5 1.400e+04 3.437e-08
 42.96964     88.4 1.461e+04 4.345e-08
 42.98923     87.2 1.516e+04 5.332e-08
 43.00882     85.8 1.525e+04 5.499e-08
 43.02842     84.5 1.507e+04 5.181e-08
 43.04801     83.6 1.450e+04 4.077e-08
 43.06760     82.7 1.378e+04 2.740e-08
 43.08720     81.4 1.333e+04 2.151e-08
 43.10679     79.8 1.342e+04 2.225e-08
 43.12639     77.9 1.403e+04 2.872e-08
 43.14598     76.6 1.479e+04 4.504e-08
 43.16199     75.5 1.498e+04 5.381e-08
 43.17179     76.6 1.497e+04 5.108e-08
 43.18517     75.4 1.483e+04 5.036e-08
 43.20476     75.0 1.409e+04 3.741e-08
 43.22435     74.2 1.303e+04 1.971e-08
 43.24395     72.2 1.177e+04 8.879e-09
 43.25616     70.6 1.100e+04 5.903e-09
 43.26596     71.3 1.111e+04 5.694e-09
 43.28313     71.1 1.070e+04 4.230e-09
 43.30273     71.2 1.070e+04 4.197e-09
 43.33222     72.2 1.052e+04 3.383e-09
 43.37150     73.5 1.039e+04 3.093e-09
 43.41069     75.2 1.042e+04 3.122e-09
 43.44988     76.8 1.059e+04 3.288e-09
 43.48906     77.7 1.101e+04 4.034e-09
 43.52825     79.0 1.138e+04 5.619e-09
 43.56744     79.7 1.174e+04 7.909e-09
 43.60663     80.0 1.218e+04 9.740e-09
 43.64581     80.1 1.240e+04 9.716e-09
 43.68500     80.1 1.241e+04 9.421e-09
 43.71281     80.4 1.235e+04 8.594e-09
 43.73241     81.4 1.237e+04 9.342e-09
 43.76337     81.7 1.213e+04 7.457e-09
 43.80256     82.4 1.182e+04 5.182e-09
 43.84175     83.3 1.154e+04 3.119e-09
 43.88094     84.4 1.147e+04 2.307e-09
 43.92012     85.6 1.173e+04 2.489e-09
 43.95931     86.4 1.237e+04 3.557e-09
 43.98803     84.9 1.356e+04 8.910e-09
 43.99773     86.5 1.277e+04 4.576e-09
 44.00810     86.1 1.323e+04 7.273e-09
 44.02769     86.3 1.386e+04 1.351e-08
 44.04729     86.2 1.436e+04 2.369e-08
 44.06688     86.2 1.458e+04 3.019e-08
 44.08647     86.2 1.460e+04 2.883e-08
 44.10607     86.3 1.440e+04 2.442e-08
 44.12566     86.3 1.424e+04 1.981e-08
 44.14526     86.1 1.418e+04 1.615e-08
 44.16485     86.3 1.409e+04 1.514e-08
 44.18444     86.6 1.408e+04 1.528e-08
 44.20404     86.7 1.417e+04 1.611e-08
 44.22363     86.7 1.435e+04 1.798e-08
 44.24322     86.4 1.458e+04 2.156e-08
 44.26282     85.9 1.477e+04 2.706e-08
 44.27304     85.0 1.483e+04 3.257e-08
 44.28284     86.9 1.523e+04 3.823e-08
 44.30200     85.7 1.509e+04 3.992e-08
 44.31423     84.6 1.485e+04 3.665e-08
 44.32402     84.3 1.488e+04 3.807e-08
 44.34119     83.5 1.419e+04 2.519e-08
 44.36079     82.4 1.347e+04 1.380e-08
 44.38038     80.9 1.291e+04 7.691e-09
 44.39997     79.4 1.259e+04 5.151e-09
 44.41957     78.5 1.211e+04 4.405e-09
 44.43916     78.3 1.186e+04 4.274e-09
 44.45875     78.4 1.175e+04 4.183e-09
 44.47835     78.5 1.167e+04 4.051e-09
 44.49794     78.7 1.158e+04 3.841e-09
 44.51753     78.9 1.147e+04 3.633e-09
 44.53713     79.2 1.144e+04 3.420e-09
 44.54836     79.3 1.145e+04 3.242e-09
 44.55815     80.0 1.133e+04 3.367e-09
 44.58621     80.5 1.123e+04 2.965e-09
 44.62550     81.5 1.100e+04 2.545e-09
 44.66468     82.7 1.081e+04 2.390e-09
 44.70387     84.0 1.083e+04 2.590e-09
 44.74306     85.2 1.090e+04 2.979e-09
 44.78224     86.5 1.095e+04 3.430e-09
 44.81407     87.8 1.092e+04 3.605e-09
 44.83366     88.6 1.055e+04 2.603e-09
 44.86062     90.1 1.055e+04 2.729e-09
 44.89981     91.6 1.056e+04 2.881e-09
 44.93899     92.9 1.070e+04 3.052e-09
 44.97818     94.3 1.073e+04 3.182e-09
 45.01737     95.7 1.074e+04 3.319e-09
 45.05656     97.1 1.066e+04 3.273e-09
 45.09574     98.8 1.055e+04 3.078e-09
 45.13493    100.7 1.043e+04 2.745e-09
 45.17412    102.5 1.032e+04 2.438e-09
 45.21330    104.4 1.028e+04 2.244e-09
 45.25249    106.3 1.032e+04 2.145e-09
 45.29168    108.1 1.030e+04 2.124e-09
 45.33087    110.0 1.028e+04 2.121e-09
 45.36269    112.0 1.026e+04 2.131e-09
 45.37692    112.6 1.020e+04 2.334e-09
 45.38429    112.4 1.026e+04 2.998e-09
 45.40924    114.4 1.023e+04 2.958e-09
 45.44843    116.2 1.025e+04 2.982e-09
 45.48762    117.7 1.038e+04 3.094e-09
 45.52680    119.3 1.051e+04 3.353e-09
 45.55610    120.1 1.062e+04 3.661e-09
 45.57559    120.8 1.076e+04 3.998e-09
 45.59519    121.4 1.091e+04 4.418e-09
 45.61478    121.9 1.106e+04 4.894e-09
 45.63437    122.4 1.125e+04 5.517e-09
 45.64961    122.8 1.148e+04 6.336e-09
 45.65941    122.6 1.150e+04 6.714e-09
 45.67356    122.7 1.177e+04 7.801e-09
 45.69315    122.7 1.203e+04 9.090e-09
 45.71275    122.6 1.233e+04 1.065e-08
 45.73234    122.3 1.266e+04 1.245e-08
 45.75193    121.8 1.298e+04 1.403e-08
 45.77153    120.9 1.323e+04 1.522e-08
 45.79112    119.9 1.324e+04 1.563e-08
 45.81072    118.9 1.319e+04 1.538e-08
 45.83031    118.1 1.304e+04 1.389e-08
 45.84990    117.3 1.288e+04 1.199e-08
 45.87939    116.4 1.261e+04 9.224e-09
 45.90142    115.1 1.213e+04 6.547e-09
 45.91112    115.1 1.210e+04 6.533e-09
 45.92492    114.8 1.180e+04 5.450e-09
 45.93482    114.3 1.181e+04 5.537e-09
 45.94797    114.1 1.153e+04 4.503e-09
 45.96746    114.3 1.140e+04 4.016e-09
 45.98706    114.7 1.124e+04 3.429e-09
 46.00665    115.0 1.112e+04 3.002e-09
 46.03614    115.3 1.099e+04 2.701e-09
 46.07543    116.6 1.078e+04 2.456e-09
 46.11461    117.9 1.066e+04 2.435e-09
 46.15380    119.4 1.060e+04 2.445e-09
 46.19299    120.7 1.056e+04 2.481e-09
 46.23217    122.1 1.054e+04 2.554e-09
 46.27136    123.4 1.062e+04 2.714e-09
 46.31055    124.7 1.073e+04 2.869e-09
 46.34974    126.0 1.077e+04 3.003e-09
 46.38892    127.4 1.072e+04 2.932e-09
 46.42075    129.0 1.065e+04 2.751e-09
 46.44035    129.1 1.060e+04 2.962e-09
 46.46595    130.8 1.058e+04 2.686e-09
 46.48554    130.7 1.062e+04 3.096e-09
 46.50649    132.2 1.059e+04 2.867e-09
 46.54567    133.4 1.054e+04 2.740e-09
 46.57497    134.5 1.055e+04 2.673e-09
 46.59446    135.6 1.063e+04 2.937e-09
 46.61406    136.4 1.086e+04 3.644e-09
 46.63365    136.7 1.112e+04 4.725e-09
 46.65324    136.7 1.135e+04 6.206e-09
 46.67284    136.7 1.167e+04 8.136e-09
 46.69243    136.6 1.201e+04 1.056e-08
 46.71202    136.1 1.234e+04 1.267e-08
 46.73162    135.4 1.261e+04 1.335e-08
 46.75087    134.4 1.265e+04 1.309e-08
 46.76066    134.8 1.275e+04 1.378e-08
 46.77080    133.2 1.290e+04 1.376e-08
 46.79040    131.4 1.303e+04 1.400e-08
 46.80999    129.4 1.321e+04 1.515e-08
 46.82959    127.0 1.355e+04 1.832e-08
 46.84918    124.0 1.418e+04 2.540e-08
 46.86877    120.4 1.492e+04 3.643e-08
 46.88837    116.3 1.533e+04 4.277e-08
 46.90796    112.2 1.528e+04 4.002e-08
 46.92755    108.4 1.478e+04 2.877e-08
 46.94715    104.5 1.383e+04 1.739e-08
 46.95939    100.4 1.292e+04 1.399e-08
 46.96918     98.5 1.289e+04 1.415e-08
 46.98633     95.6 1.272e+04 1.574e-08
 47.00593     94.3 1.285e+04 1.993e-08
 47.02552     93.8 1.307e+04 2.327e-08
 47.03598     93.3 1.307e+04 2.260e-08
 47.04577     91.9 1.325e+04 2.344e-08
 47.06471     91.2 1.270e+04 1.760e-08
 47.09420     90.4 1.222e+04 1.170e-08
 47.13348     89.7 1.133e+04 5.736e-09
 47.17267     89.6 1.053e+04 2.701e-09
 47.21186     89.8 9.741e+03 1.415e-09
 47.25104     90.7 9.235e+03 1.061e-09
 47.29023     92.1 9.089e+03 1.007e-09
 47.32942     93.8 9.063e+03 1.061e-09
 47.36861     95.5 9.108e+03 1.169e-09
 47.40779     97.2 9.180e+03 1.326e-09
 47.44698     98.6 9.307e+03 1.537e-09
 47.47882     99.8 9.477e+03 1.806e-09
 47.49841     98.5 9.337e+03 1.610e-09
 47.52536     99.1 9.542e+03 2.039e-09
 47.56454     99.6 9.826e+03 2.787e-09
 47.58680    100.0 1.019e+04 3.860e-09
 47.60639     99.9 9.517e+03 1.945e-09
 47.64292    100.1 9.727e+03 2.423e-09
 47.68210     99.9 9.947e+03 2.696e-09
 47.71140     99.5 9.935e+03 2.763e-09
 47.73089     98.7 1.018e+04 2.859e-09
 47.75049     96.6 1.050e+04 3.272e-09
 47.77008     93.8 1.112e+04 5.628e-09
 47.78967     91.5 1.237e+04 1.105e-08
 47.80927     89.9 1.302e+04 1.734e-08
 47.82886     88.4 1.322e+04 1.952e-08
 47.84846     86.8 1.312e+04 1.777e-08
 47.86192     85.2 1.289e+04 1.417e-08
 47.87172     86.2 1.252e+04 1.255e-08
 47.88764     84.6 1.228e+04 1.023e-08
 47.90724     83.1 1.204e+04 9.375e-09
 47.92683     82.0 1.203e+04 9.466e-09
 47.94642     81.1 1.210e+04 1.001e-08
 47.96602     80.2 1.221e+04 1.045e-08
 47.98561     79.3 1.219e+04 1.026e-08
 48.00520     78.7 1.209e+04 9.292e-09
 48.01745     78.3 1.192e+04 7.614e-09
 48.02725     78.0 1.185e+04 6.823e-09
 48.04439     77.4 1.172e+04 5.401e-09
 48.06399     76.9 1.154e+04 4.626e-09
 48.08358     76.5 1.132e+04 4.393e-09
 48.10317     76.3 1.119e+04 4.333e-09
 48.12277     76.3 1.112e+04 4.297e-09
 48.13723     76.2 1.101e+04 4.085e-09
 48.14703     76.5 1.099e+04 3.733e-09
 48.16195     76.5 1.094e+04 3.611e-09
 48.19144     77.0 1.067e+04 2.952e-09
 48.23073     77.1 1.035e+04 2.013e-09
 48.26991     77.1 1.009e+04 1.438e-09
 48.30910     77.2 1.008e+04 1.425e-09
 48.34829     76.9 1.015e+04 1.598e-09
 48.38748     75.6 1.054e+04 2.322e-09
 48.41264     74.0 1.086e+04 4.231e-09
 48.42234     73.7 1.094e+04 4.523e-09
 48.43626     73.0 1.122e+04 6.978e-09
 48.45586     72.5 1.141e+04 7.798e-09
 48.47545     71.7 1.140e+04 7.439e-09
 48.49505     70.6 1.131e+04 6.071e-09
 48.51464     69.0 1.115e+04 4.414e-09
 48.53423     67.2 1.094e+04 3.692e-09
 48.54648     65.2 1.102e+04 3.891e-09
 48.55628     64.2 1.112e+04 3.883e-09
 48.57342     59.1 1.243e+04 7.325e-09
 48.59301     54.8 1.388e+04 2.089e-08
 48.61261     52.5 1.462e+04 3.638e-08
 48.63220     49.7 1.513e+04 3.656e-08
 48.65179     44.6 1.561e+04 3.234e-08
 48.67139     38.6 1.521e+04 3.200e-08
 48.68786     34.4 1.457e+04 3.376e-08
 48.69766     32.7 1.416e+04 3.167e-08
 48.71058     32.4 1.340e+04 2.422e-08
 48.73017     32.0 1.267e+04 1.293e-08
 48.74976     30.1 1.212e+04 5.731e-09
 48.76936     27.2 1.144e+04 2.927e-09
 48.78895     25.6 1.077e+04 2.248e-09
 48.80854     25.4 1.063e+04 2.050e-09
 48.82814     25.5 1.056e+04 2.000e-09
 48.85763     24.7 1.088e+04 2.281e-09
 48.89691     24.2 1.121e+04 2.527e-09
 48.93610     24.2 1.139e+04 2.794e-09
 48.97529     24.8 1.144e+04 2.866e-09
 49.01447     25.8 1.151e+04 2.582e-09
 49.05366     26.3 1.151e+04 2.231e-09
 49.09285     26.3 1.140e+04 2.192e-09
 49.13203     26.6 1.129e+04 2.523e-09
 49.16133     26.8 1.113e+04 2.355e-09
 49.18082     26.9 1.113e+04 2.349e-09
 49.20042     27.2 1.113e+04 2.290e-09
 49.22001     27.2 1.111e+04 2.277e-09
 49.23849     27.0 1.096e+04 2.239e-09
 49.24828     25.4 1.093e+04 2.146e-09
 49.25920     25.5 1.086e+04 2.251e-09
 49.27879     25.7 1.072e+04 2.682e-09
 49.29839     26.2 1.075e+04 3.265e-09
 49.31798     26.0 1.103e+04 4.256e-09
 49.33757     26.4 1.099e+04 4.204e-09
 49.36706     26.8 1.093e+04 3.197e-09
 49.40635     26.5 1.076e+04 2.097e-09
 49.44553     26.2 1.061e+04 1.563e-09
 49.48472     26.6 1.044e+04 1.417e-09
 49.52391     27.7 1.037e+04 1.382e-09
 49.56309     29.1 1.036e+04 1.402e-09
 49.59494     30.4 1.040e+04 1.494e-09
 49.61454     30.4 1.038e+04 1.494e-09
 49.64147     31.5 1.050e+04 1.829e-09
 49.68066     31.6 1.067e+04 2.362e-09
 49.70995     31.0 1.075e+04 3.653e-09
 49.72945     31.5 1.086e+04 5.556e-09
 49.74904     32.3 1.113e+04 7.639e-09
 49.76863     33.1 1.144e+04 9.237e-09
 49.78823     33.5 1.180e+04 1.076e-08
 49.79891     33.5 1.193e+04 1.119e-08
 49.80871     31.6 1.151e+04 9.104e-09
 49.82741     31.2 1.152e+04 8.963e-09
 49.84701     30.8 1.143e+04 8.835e-09
 49.86660     30.3 1.140e+04 8.936e-09
 49.88619     29.8 1.132e+04 9.240e-09
 49.90579     29.7 1.122e+04 9.170e-09
 49.92538     30.2 1.102e+04 8.663e-09
 49.95487     29.8 1.061e+04 6.430e-09
 49.99416     30.2 1.020e+04 4.938e-09
 50.03334     30.8 9.672e+03 3.430e-09
 50.07253     31.5 9.189e+03 2.580e-09
 50.11172     32.6 8.880e+03 2.272e-09
 50.15090     33.9 8.819e+03 2.230e-09
 50.19009     35.2 8.880e+03 2.511e-09
 50.22928     36.1 9.035e+03 2.962e-09
 50.26847     36.0 9.106e+03 3.313e-09
 50.29776     35.3 9.359e+03 3.917e-09
 50.31726     35.6 9.200e+03 3.738e-09
 50.33984     35.8 8.817e+03 2.878e-09
 50.35943     35.0 9.019e+03 3.724e-09
 50.37604     34.9 8.805e+03 3.221e-09
 50.39563     34.8 8.683e+03 2.881e-09
 50.41522     34.7 8.608e+03 2.775e-09
 50.43482     34.7 8.603e+03 2.787e-09
 50.46431     34.7 8.573e+03 2.978e-09
 50.50359     35.0 8.507e+03 2.980e-09
 50.54278     36.0 8.315e+03 2.711e-09
 50.58196     36.9 8.104e+03 2.339e-09
 50.62115     37.9 8.010e+03 2.231e-09
 50.65301     38.8 8.097e+03 2.318e-09
 50.67260     40.0 7.859e+03 1.960e-09
 50.69953     40.9 8.122e+03 2.244e-09
 50.73871     41.1 8.267e+03 2.534e-09
 50.76801     40.5 8.270e+03 2.792e-09
 50.78750     40.7 8.453e+03 3.307e-09
 50.80710     40.6 8.920e+03 4.356e-09
 50.82669     40.2 9.615e+03 6.101e-09
 50.84628     39.6 1.034e+04 8.579e-09
 50.86588     39.4 1.091e+04 1.135e-08
 50.88547     39.4 1.129e+04 1.343e-08
 50.90017     39.3 1.162e+04 1.425e-08
 50.90996     38.2 1.174e+04 1.393e-08
 50.92466     37.0 1.188e+04 1.266e-08
 50.94425     35.3 1.181e+04 1.246e-08
 50.96385     34.0 1.173e+04 1.270e-08
 50.98344     33.8 1.166e+04 1.312e-08
 51.00303     34.1 1.164e+04 1.297e-08
 51.02263     34.5 1.163e+04 1.247e-08
 51.04222     34.4 1.149e+04 1.112e-08
 51.06181     34.1 1.101e+04 9.087e-09
 51.08141     32.7 1.079e+04 7.243e-09
 51.10100     29.2 1.113e+04 7.379e-09
 51.11565     24.3 1.216e+04 9.486e-09
 51.12540     23.9 1.206e+04 9.931e-09
 51.13519     20.2 1.298e+04 1.303e-08
 51.14499     15.0 1.795e+04 1.646e-08
 51.15479     -5.0 3.154e+04 5.955e-08
 51.16458    -19.2 2.154e+04 7.882e-07
 51.17191    -20.2 1.920e+04 1.596e-06
 51.17678    -21.9 1.813e+04 2.587e-06
 51.18026    -18.9 1.642e+04 1.124e-05
 51.18518    -17.7 1.770e+04 4.546e-06
 51.19154    -17.4 1.817e+04 3.735e-06
 51.19644    -13.5 1.814e+04 3.464e-06
 51.20377    -15.1 1.913e+04 2.174e-06
 51.21357    -17.9 2.167e+04 7.951e-07
 51.22336    -20.8 2.399e+04 1.936e-07
 51.23316    -22.7 2.376e+04 6.809e-08
 51.24296    -28.0 2.100e+04 3.948e-08
 51.25770    -32.1 1.884e+04 3.418e-08
 51.27734    -37.4 1.544e+04 3.164e-08
 51.29694    -38.5 1.519e+04 3.555e-08
 51.31653    -37.9 1.554e+04 4.640e-08
 51.33612    -36.9 1.587e+04 5.366e-08
 51.35572    -36.3 1.586e+04 5.353e-08
 51.37531    -35.7 1.526e+04 3.834e-08
 51.39491    -35.8 1.429e+04 2.359e-08
 51.41450    -36.8 1.327e+04 1.629e-08
 51.43409    -37.2 1.256e+04 1.379e-08
 51.45080    -37.0 1.237e+04 1.332e-08
 51.46059    -37.1 1.234e+04 1.502e-08
 51.47328    -36.2 1.214e+04 1.474e-08
 51.49287    -35.2 1.206e+04 1.579e-08
 51.51247    -34.0 1.218e+04 1.708e-08
 51.53206    -32.8 1.228e+04 1.815e-08
 51.55166    -31.5 1.231e+04 1.852e-08
 51.57125    -30.2 1.216e+04 1.818e-08
 51.59084    -28.8 1.198e+04 1.707e-08
 51.61044    -27.7 1.195e+04 1.605e-08
 51.63003    -27.2 1.202e+04 1.583e-08
 51.64962    -27.4 1.228e+04 1.627e-08
 51.66922    -28.3 1.269e+04 1.922e-08
 51.68881    -28.6 1.309e+04 2.460e-08
 51.70840    -28.4 1.333e+04 2.768e-08
 51.72067    -28.2 1.327e+04 2.773e-08
 51.72858    -27.3 1.323e+04 2.681e-08
 51.73591    -26.8 1.369e+04 2.932e-08
 51.74759    -26.8 1.302e+04 2.518e-08
 51.76719    -27.4 1.220e+04 1.902e-08
 51.78678    -28.6 1.142e+04 1.437e-08
 51.80637    -30.0 1.105e+04 1.227e-08
 51.82597    -31.2 1.107e+04 1.198e-08
 51.84556    -33.1 1.214e+04 1.409e-08
 51.86515    -35.9 1.475e+04 2.093e-08
 51.88475    -38.8 1.724e+04 3.571e-08
 51.90434    -41.2 1.826e+04 6.135e-08
 51.92393    -42.7 1.806e+04 9.100e-08
 51.94353    -43.4 1.772e+04 1.056e-07
 51.96312    -43.8 1.702e+04 1.038e-07
 51.98272    -44.1 1.633e+04 6.999e-08
 52.00142    -45.9 1.508e+04 3.369e-08
 52.01122    -43.8 1.650e+04 5.697e-08
 52.02190    -46.9 1.474e+04 2.546e-08
 52.04150    -51.1 1.148e+04 1.136e-08
 52.06109    -53.4 9.589e+03 7.363e-09
 52.08068    -53.7 9.014e+03 6.183e-09
 52.10028    -53.5 8.772e+03 5.389e-09
 52.11987    -52.6 8.477e+03 4.626e-09
 52.13946    -51.6 8.206e+03 3.951e-09
 52.15906    -50.6 8.005e+03 3.417e-09
 52.17865    -49.6 7.935e+03 3.090e-09
 52.19825    -48.6 7.946e+03 2.935e-09
 52.21784    -47.2 7.992e+03 2.833e-09
 52.23743    -45.7 7.988e+03 2.734e-09
 52.26692    -44.0 7.985e+03 2.654e-09
 52.30621    -41.7 7.958e+03 2.612e-09
 52.34539    -39.7 8.138e+03 2.758e-09
 52.37469    -38.1 8.081e+03 2.803e-09
 52.39418    -35.9 8.541e+03 3.357e-09
 52.41378    -34.5 9.115e+03 4.316e-09
 52.43337    -33.3 9.575e+03 5.304e-09
 52.45296    -32.6 9.924e+03 6.240e-09
 52.47256    -32.1 1.039e+04 7.486e-09
 52.49215    -31.7 1.124e+04 9.443e-09
 52.51174    -31.2 1.254e+04 1.244e-08
 52.53134    -32.0 1.560e+04 1.767e-08
 52.54598    -38.8 2.798e+04 1.073e-08
 52.55573    -53.0 2.566e+04 1.304e-07
 52.56175    -60.6 1.922e+04 1.839e-06
 52.56665    -56.1 2.014e+04 1.544e-06
 52.57533    -59.7 1.660e+04 1.218e-05
 52.58265    -62.7 1.612e+04 2.346e-05
 52.58752    -64.6 1.608e+04 2.658e-05
 52.59242    -69.1 1.606e+04 2.362e-05
 52.59732    -71.2 1.781e+04 6.354e-06
 52.60222    -74.6 2.050e+04 1.473e-06
 52.60712    -76.8 2.158e+04 8.101e-07
 52.61449    -81.2 2.166e+04 3.492e-07
 52.62431    -88.4 2.019e+04 6.789e-08
 52.63411    -93.5 1.624e+04 2.897e-08
 52.64390    -94.9 1.462e+04 2.192e-08
 52.65370    -95.2 1.412e+04 1.952e-08
 52.66844    -95.5 1.366e+04 1.684e-08
 52.68809    -96.3 1.288e+04 1.458e-08
 52.70768    -97.0 1.260e+04 1.416e-08
 52.72727    -97.5 1.250e+04 1.433e-08
 52.74687    -97.8 1.243e+04 1.449e-08
 52.76646    -98.1 1.227e+04 1.432e-08
 52.77874    -98.5 1.205e+04 1.355e-08
 52.78853    -98.4 1.224e+04 1.426e-08
 52.80565    -99.0 1.207e+04 1.354e-08
 52.82524    -99.7 1.187e+04 1.275e-08
 52.83716   -100.5 1.168e+04 1.207e-08
 52.84696   -100.4 1.104e+04 9.596e-09
 52.86443   -101.1 1.093e+04 9.375e-09
 52.88402   -101.9 1.091e+04 9.345e-09
 52.90362   -102.7 1.091e+04 9.404e-09
 52.92321   -103.4 1.094e+04 9.538e-09
 52.94280   -104.1 1.097e+04 9.699e-09
 52.96240   -104.7 1.099e+04 9.897e-09
 52.98199   -105.1 1.102e+04 1.023e-08
 53.00159   -105.8 1.112e+04 1.105e-08
 53.02118   -108.9 1.225e+04 1.431e-08
 53.04077   -114.1 1.643e+04 2.949e-08
 53.05542   -118.5 1.897e+04 5.823e-08
 53.06517   -120.1 1.937e+04 9.379e-08
 53.07496   -121.2 1.958e+04 1.430e-07
 53.08476   -125.4 2.198e+04 2.382e-07
 53.09456   -133.8 2.674e+04 8.609e-07
 53.10188   -140.7 1.655e+04 2.671e-05
 53.10675   -144.4 1.157e+04 2.020e-03
 53.11165   -150.4 1.002e+04 1.082e-02
 53.11478   -159.0 9.717e+03 1.449e-02
 53.11723   -167.5 9.919e+03 1.245e-02
 53.12145   -179.5 1.218e+04 1.161e-03
 53.12635   -189.6 1.907e+04 5.875e-06
 53.13125   -194.8 2.262e+04 1.013e-06
 53.13614   -197.1 2.380e+04 5.916e-07
 53.14352   -199.9 2.312e+04 5.323e-07
 53.15334   -204.8 2.220e+04 3.860e-07
 53.16314   -210.6 2.108e+04 2.653e-07
 53.17293   -213.6 2.061e+04 2.292e-07
 53.18273   -215.2 2.007e+04 1.930e-07
 53.19253   -216.2 1.957e+04 1.596e-07
 53.20232   -216.8 1.920e+04 1.288e-07
 53.21212   -217.3 1.886e+04 1.058e-07
 53.22192   -217.9 1.846e+04 8.687e-08
 53.23171   -218.5 1.797e+04 7.158e-08
 53.24151   -218.8 1.734e+04 5.925e-08
 53.25003   -219.0 1.667e+04 5.003e-08
 53.25493   -217.8 1.714e+04 6.148e-08
 53.26110   -218.3 1.666e+04 5.280e-08
 53.27090   -218.8 1.616e+04 4.551e-08
 53.28070   -219.1 1.564e+04 3.961e-08
 53.29544   -219.3 1.509e+04 3.389e-08
 53.30777   -220.0 1.436e+04 2.789e-08
 53.31757   -221.2 1.492e+04 3.523e-08
 53.33468   -221.5 1.423e+04 2.873e-08
 53.35427   -221.6 1.337e+04 2.195e-08
 53.37386   -221.0 1.268e+04 1.754e-08
 53.38779   -220.0 1.228e+04 1.530e-08
 53.39759   -221.3 1.304e+04 1.971e-08
 53.41305   -220.0 1.269e+04 1.826e-08
 53.43265   -218.6 1.254e+04 1.784e-08
 53.45224   -217.2 1.248e+04 1.772e-08
 53.47183   -215.7 1.245e+04 1.771e-08
 53.49143   -214.1 1.243e+04 1.774e-08
 53.51102   -212.6 1.240e+04 1.763e-08
 53.53061   -211.1 1.234e+04 1.735e-08
 53.55021   -209.6 1.224e+04 1.688e-08
 53.56980   -208.2 1.212e+04 1.624e-08
 53.58939   -206.7 1.198e+04 1.559e-08
 53.60899   -205.2 1.183e+04 1.488e-08
 53.62858   -203.8 1.167e+04 1.414e-08
 53.64818   -202.3 1.151e+04 1.337e-08
 53.66310   -200.7 1.138e+04 1.261e-08
 53.67290   -201.3 1.104e+04 9.917e-09
 53.68736   -199.9 1.094e+04 9.252e-09
 53.70696   -198.5 1.087e+04 8.735e-09
 53.72655   -197.1 1.084e+04 8.352e-09
 53.74614   -195.8 1.086e+04 8.158e-09
 53.76574   -194.6 1.088e+04 8.130e-09
 53.78533   -193.4 1.100e+04 8.260e-09
 53.80492   -192.3 1.115e+04 8.642e-09
 53.82452   -191.2 1.129e+04 9.076e-09
 53.83680   -190.2 1.142e+04 9.419e-09
 53.84660   -190.7 1.122e+04 8.786e-09
 53.86371   -189.8 1.134e+04 9.157e-09
 53.88330   -188.9 1.144e+04 9.465e-09
 53.90289   -188.0 1.149e+04 9.714e-09
 53.92249   -187.2 1.153e+04 9.968e-09
 53.93842   -186.4 1.157e+04 1.030e-08
 53.94821   -186.7 1.119e+04 8.418e-09
 53.96167   -186.0 1.126e+04 8.905e-09
 53.98127   -185.4 1.137e+04 9.662e-09
 54.00086   -184.9 1.152e+04 1.077e-08
 54.02045   -184.5 1.180e+04 1.250e-08
 54.04005   -184.1 1.223e+04 1.529e-08
 54.05964   -183.8 1.276e+04 1.925e-08
 54.07924   -183.4 1.334e+04 2.424e-08
 54.09883   -183.1 1.388e+04 2.955e-08
 54.11842   -182.9 1.433e+04 3.437e-08
 54.13802   -182.8 1.463e+04 3.811e-08
 54.15761   -182.7 1.480e+04 4.096e-08
 54.17720   -182.3 1.495e+04 4.431e-08
 54.19680   -181.8 1.516e+04 4.897e-08
 54.21373   -181.1 1.543e+04 5.473e-08
 54.22353   -180.3 1.520e+04 4.901e-08
 54.23599   -179.7 1.554e+04 5.558e-08
 54.25558   -179.1 1.581e+04 6.114e-08
 54.27517   -178.5 1.593e+04 6.399e-08
 54.29477   -178.0 1.595e+04 6.462e-08
 54.31436   -177.5 1.587e+04 6.201e-08
 54.33395   -176.8 1.554e+04 5.228e-08
 54.35355   -176.3 1.507e+04 4.081e-08
 54.36583   -175.9 1.461e+04 3.150e-08
 54.37563   -175.3 1.479e+04 3.255e-08
 54.39273   -174.8 1.454e+04 2.824e-08
 54.41233   -174.3 1.444e+04 2.635e-08
 54.43192   -173.9 1.444e+04 2.603e-08
 54.45152   -173.7 1.453e+04 2.638e-08
 54.47111   -173.8 1.489e+04 2.920e-08
 54.48904   -174.3 1.538e+04 3.454e-08
 54.49884   -173.0 1.524e+04 2.816e-08
 54.51030   -173.4 1.599e+04 3.747e-08
 54.52989   -173.9 1.679e+04 5.063e-08
 54.54948   -174.6 1.741e+04 6.393e-08
 54.56908   -175.4 1.793e+04 7.604e-08
 54.58372   -175.7 1.828e+04 8.270e-08
 54.59347   -175.9 1.863e+04 9.186e-08
 54.60327   -176.3 1.918e+04 1.060e-07
 54.61307   -176.7 1.984e+04 1.210e-07
 54.62286   -177.3 2.099e+04 1.420e-07
 54.63025   -178.4 2.272e+04 1.713e-07
 54.63399   -181.3 2.427e+04 2.131e-07
 54.63640   -180.4 2.230e+04 7.627e-07
 54.64246   -182.0 2.264e+04 9.881e-07
 54.65225   -184.3 2.257e+04 1.148e-06
 54.66205   -186.9 2.237e+04 1.265e-06
 54.67185   -189.1 2.215e+04 1.291e-06
 54.68164   -190.8 2.260e+04 9.637e-07
 54.69144   -192.1 2.346e+04 6.648e-07
 54.70124   -193.2 2.429e+04 4.669e-07
 54.71103   -193.6 2.424e+04 3.917e-07
 54.72083   -193.7 2.396e+04 3.469e-07
 54.73063   -193.4 2.362e+04 3.064e-07
 54.74042   -193.0 2.328e+04 2.706e-07
 54.75022   -192.7 2.291e+04 2.427e-07
 54.76002   -192.4 2.249e+04 2.225e-07
 54.76916   -192.2 2.208e+04 2.080e-07
 54.77406   -192.0 2.251e+04 2.900e-07
 54.77961   -191.8 2.210e+04 2.807e-07
 54.78941   -191.7 2.182e+04 2.738e-07
 54.79920   -191.8 2.165e+04 2.637e-07
 54.80900   -192.5 2.153e+04 2.477e-07
 54.81880   -193.3 2.129e+04 2.252e-07
 54.82860   -193.9 2.100e+04 1.955e-07
 54.83839   -194.5 2.063e+04 1.633e-07
 54.84819   -195.0 2.019e+04 1.365e-07
 54.85799   -195.2 1.969e+04 1.151e-07
 54.86778   -195.4 1.924e+04 1.006e-07
 54.87758   -195.7 1.884e+04 9.108e-08
 54.88738   -195.8 1.852e+04 8.398e-08
 54.89477   -195.9 1.827e+04 7.973e-08
 54.90461   -196.6 1.669e+04 4.157e-08
 54.92176   -195.7 1.634e+04 3.775e-08
 54.94136   -194.5 1.605e+04 3.472e-08
 54.96095   -192.8 1.568e+04 3.126e-08
 54.98054   -190.9 1.546e+04 2.874e-08
 55.00014   -189.0 1.521e+04 2.660e-08
 55.01973   -187.2 1.500e+04 2.516e-08
 55.03932   -185.2 1.489e+04 2.477e-08
 55.04947   -183.1 1.485e+04 2.485e-08
 55.05927   -183.3 1.559e+04 2.474e-08
 55.07851   -181.2 1.544e+04 2.416e-08
 55.09811   -179.2 1.555e+04 2.473e-08
 55.11770   -177.1 1.579e+04 2.633e-08
 55.13729   -174.7 1.597e+04 2.924e-08
 55.15689   -172.4 1.633e+04 3.477e-08
 55.17648   -170.5 1.687e+04 4.355e-08
 55.19607   -168.5 1.725e+04 5.475e-08
 55.21567   -166.5 1.751e+04 7.025e-08
 55.23526   -164.5 1.772e+04 9.186e-08
 55.25485   -162.8 1.781e+04 1.162e-07
 55.27445   -161.1 1.778e+04 1.377e-07
 55.29404   -159.2 1.758e+04 1.512e-07
 55.31364   -157.1 1.749e+04 1.532e-07
 55.32478   -155.4 1.764e+04 1.346e-07
 55.32963   -155.5 1.769e+04 1.410e-07
 55.33803   -154.6 1.758e+04 1.474e-07
 55.34783   -154.0 1.768e+04 1.577e-07
 55.35762   -153.1 1.758e+04 1.572e-07
 55.36742   -152.3 1.753e+04 1.514e-07
 55.37722   -151.5 1.766e+04 1.457e-07
 55.38701   -151.1 1.785e+04 1.427e-07
 55.39681   -150.7 1.820e+04 1.398e-07
 55.40661   -150.4 1.869e+04 1.335e-07
 55.41640   -150.1 1.932e+04 1.236e-07
 55.42380   -149.4 2.023e+04 1.086e-07
 55.42870   -148.6 1.886e+04 2.242e-07
 55.43600   -147.8 1.957e+04 2.216e-07
 55.44580   -147.2 2.046e+04 2.150e-07
 55.45559   -146.7 2.128e+04 2.061e-07
 55.46234   -146.3 2.196e+04 1.916e-07
 55.46724   -143.8 2.040e+04 4.824e-07
 55.47519   -143.4 2.166e+04 4.879e-07
 55.48498   -143.2 2.333e+04 4.691e-07
 55.49478   -144.8 2.731e+04 4.120e-07
 55.50458   -152.0 2.965e+04 5.461e-07
 55.51437   -164.9 2.614e+04 1.466e-06
 55.52417   -178.0 2.096e+04 4.290e-06
 55.53397   -183.1 1.801e+04 8.440e-06
 55.54376   -183.5 1.724e+04 1.038e-05
 55.55356   -179.6 1.676e+04 1.045e-05
 55.56336   -175.2 1.662e+04 1.094e-05
 55.57315   -172.4 1.635e+04 1.466e-05
 55.58295   -171.3 1.624e+04 1.712e-05
 55.59275   -171.0 1.630e+04 1.637e-05
 55.60000   -170.0 1.647e+04 1.324e-05
 55.60490   -171.2 1.638e+04 1.457e-05
 55.61234   -169.2 1.683e+04 9.163e-06
 55.62214   -167.6 1.721e+04 6.488e-06
 55.63193   -165.5 1.780e+04 4.065e-06
 55.64173   -163.5 1.835e+04 2.555e-06
 55.65153   -161.7 1.904e+04 1.560e-06
 55.66133   -160.4 1.974e+04 9.453e-07
 55.67112   -159.6 2.034e+04 5.688e-07
 55.68092   -159.3 2.044e+04 3.688e-07
 55.68831   -159.4 2.014e+04 2.600e-07
 55.69321   -159.3 2.000e+04 2.348e-07
 55.70051   -159.4 1.964e+04 1.895e-07
 55.71031   -159.2 1.924e+04 1.622e-07
 55.72011   -158.9 1.891e+04 1.461e-07
 55.72990   -158.5 1.867e+04 1.373e-07
 55.73766   -158.4 1.851e+04 1.342e-07
 55.74255   -158.8 1.699e+04 9.210e-08
 55.74950   -158.5 1.711e+04 9.599e-08
 55.75929   -157.9 1.728e+04 1.010e-07
 55.76909   -157.4 1.736e+04 1.046e-07
 55.77889   -156.7 1.754e+04 1.074e-07
 55.78868   -156.2 1.764e+04 1.096e-07
 55.79848   -155.7 1.776e+04 1.111e-07
 55.80828   -155.4 1.787e+04 1.131e-07
 55.81807   -155.0 1.806e+04 1.160e-07
 55.82787   -154.9 1.820e+04 1.187e-07
 55.83767   -155.0 1.830e+04 1.213e-07
 55.84747   -155.1 1.838e+04 1.253e-07
 55.85726   -155.2 1.861e+04 1.333e-07
 55.86706   -155.3 1.884e+04 1.430e-07
 55.87531   -155.9 1.910e+04 1.596e-07
 55.88516   -156.3 1.834e+04 1.075e-07
 55.89650   -156.6 1.897e+04 1.609e-07
 55.90625   -157.0 1.902e+04 1.850e-07
 55.91604   -157.7 1.915e+04 2.265e-07
 55.92584   -158.4 1.919e+04 2.769e-07
 55.93564   -158.9 1.914e+04 3.402e-07
 55.94543   -159.1 1.911e+04 4.154e-07
 55.95283   -159.2 1.912e+04 4.923e-07
 55.95773   -158.4 1.908e+04 5.011e-07
 55.96503   -158.5 1.917e+04 5.470e-07
 55.97482   -158.9 1.926e+04 5.646e-07
 55.98462   -159.5 1.930e+04 5.612e-07
 55.99442   -160.0 1.929e+04 4.797e-07
 56.00421   -160.2 1.914e+04 3.709e-07
 56.01297   -160.3 1.889e+04 2.818e-07
 56.01787   -159.5 1.882e+04 2.727e-07
 56.02381   -159.5 1.848e+04 2.219e-07
 56.03360   -159.3 1.813e+04 1.837e-07
 56.04340   -159.1 1.784e+04 1.519e-07
 56.05815   -159.0 1.755e+04 1.297e-07
 56.07779   -158.0 1.714e+04 1.059e-07
 56.09738   -157.3 1.672e+04 8.570e-08
 56.11698   -156.8 1.636e+04 7.154e-08
 56.13657   -156.1 1.583e+04 5.748e-08
 56.15072   -155.2 1.519e+04 4.496e-08
 56.16052   -154.8 1.508e+04 5.336e-08
 56.17576   -153.7 1.445e+04 4.231e-08
 56.19535   -152.5 1.380e+04 3.306e-08
 56.21494   -151.4 1.318e+04 2.603e-08
 56.23454   -150.1 1.261e+04 2.102e-08
 56.25413   -149.0 1.213e+04 1.756e-08
 56.27372   -147.8 1.169e+04 1.496e-08
 56.29332   -146.6 1.127e+04 1.288e-08
 56.31291   -145.3 1.089e+04 1.116e-08
 56.33251   -144.0 1.052e+04 9.684e-09
 56.35210   -142.6 1.019e+04 8.476e-09
 56.37169   -141.1 9.933e+03 7.559e-09
 56.39129   -139.8 9.736e+03 6.906e-09
 56.41088   -138.5 9.595e+03 6.468e-09
 56.42604   -137.3 9.496e+03 6.187e-09
 56.43593   -138.3 9.612e+03 6.104e-09
 56.46006   -135.4 9.392e+03 5.751e-09
 56.48206   -134.0 9.363e+03 5.872e-09
 56.49176   -133.5 9.351e+03 5.743e-09
 56.50885   -132.5 9.347e+03 5.736e-09
 56.52844   -131.7 9.352e+03 5.755e-09
 56.54804   -131.0 9.330e+03 5.720e-09
 56.56763   -130.3 9.350e+03 5.808e-09
 56.58722   -130.0 9.416e+03 5.995e-09
 56.60682   -129.9 9.481e+03 6.196e-09
 56.62641   -129.9 9.543e+03 6.394e-09
 56.64600   -130.1 9.650e+03 6.702e-09
 56.66560   -131.1 9.807e+03 7.164e-09
 56.68519   -132.5 1.002e+04 7.765e-09
 56.70135   -134.2 1.037e+04 8.556e-09
 56.71115   -133.4 1.023e+04 7.815e-09
 56.72438   -135.0 1.043e+04 8.539e-09
 56.74397   -136.5 1.056e+04 8.885e-09
 56.76357   -138.1 1.062e+04 8.990e-09
 56.78316   -139.4 1.072e+04 9.067e-09
 56.80275   -140.5 1.087e+04 8.996e-09
 56.82235   -141.1 1.100e+04 8.826e-09
 56.84194   -141.6 1.111e+04 8.604e-09
 56.86153   -141.8 1.123e+04 8.177e-09
 56.88113   -141.8 1.139e+04 7.721e-09
 56.90072   -141.8 1.154e+04 7.421e-09
 56.92032   -141.6 1.175e+04 7.269e-09
 56.93991   -141.3 1.192e+04 7.378e-09
 56.95950   -140.9 1.203e+04 7.717e-09
 56.97667   -140.5 1.209e+04 8.052e-09
 56.98646   -140.1 1.188e+04 6.927e-09
 56.99869   -139.7 1.186e+04 7.026e-09
 57.01099   -139.2 1.182e+04 7.010e-09
 57.02079   -139.1 1.154e+04 5.960e-09
 57.03788   -138.4 1.149e+04 5.564e-09
 57.05747   -137.8 1.144e+04 4.940e-09
 57.08696   -137.2 1.137e+04 4.405e-09
 57.12624   -135.7 1.145e+04 4.512e-09
 57.16543   -134.6 1.166e+04 5.296e-09
 57.20462   -133.9 1.192e+04 6.466e-09
 57.24381   -133.9 1.219e+04 7.928e-09
 57.27310   -134.1 1.243e+04 8.587e-09
 57.29259   -135.7 1.310e+04 1.157e-08
 57.31219   -138.5 1.406e+04 1.895e-08
 57.33178   -142.2 1.479e+04 3.142e-08
 57.35138   -146.6 1.507e+04 3.914e-08
 57.37097   -151.5 1.497e+04 3.985e-08
 57.39056   -156.3 1.396e+04 2.723e-08
 57.41016   -161.0 1.239e+04 1.158e-08
 57.42975   -165.5 1.100e+04 4.919e-09
 57.44934   -168.4 1.051e+04 3.075e-09
 57.46894   -169.8 1.043e+04 2.599e-09
 57.48853   -170.4 1.048e+04 2.535e-09
 57.50812   -170.7 1.061e+04 2.763e-09
 57.52729   -170.7 1.071e+04 3.058e-09
 57.53709   -167.9 1.046e+04 2.278e-09
 57.55721   -167.7 1.063e+04 2.450e-09
 57.59649   -166.9 1.066e+04 2.745e-09
 57.63568   -165.0 1.052e+04 2.750e-09
 57.67487   -162.7 1.036e+04 2.857e-09
 57.71405   -160.3 1.030e+04 3.238e-09
 57.75324   -158.2 1.053e+04 3.832e-09
 57.79243   -156.4 1.077e+04 4.618e-09
 57.83162   -154.8 1.089e+04 5.245e-09
 57.87080   -153.2 1.087e+04 5.406e-09
 57.90999   -151.4 1.062e+04 5.109e-09
 57.94918   -149.4 1.030e+04 4.322e-09
 57.98836   -147.4 1.005e+04 3.741e-09
 58.02755   -145.8 9.961e+03 3.607e-09
 58.05945   -145.1 9.990e+03 3.992e-09
 58.07905   -146.6 9.659e+03 3.268e-09
 58.08791   -146.6 1.058e+04 6.076e-09
 58.10751   -144.9 1.020e+04 4.437e-09
 58.14511   -145.6 1.144e+04 9.560e-09
 58.18430   -147.0 1.233e+04 1.655e-08
 58.21359   -148.2 1.238e+04 1.745e-08
 58.23309   -149.3 1.240e+04 1.758e-08
 58.25268   -150.7 1.222e+04 1.634e-08
 58.27228   -152.1 1.179e+04 1.297e-08
 58.29187   -153.5 1.134e+04 1.015e-08
 58.31146   -154.7 1.097e+04 8.397e-09
 58.33106   -155.5 1.070e+04 7.294e-09
 58.35065   -156.0 1.050e+04 6.525e-09
 58.36303   -156.3 1.036e+04 6.002e-09
 58.37283   -156.2 1.044e+04 6.710e-09
 58.38984   -156.3 1.035e+04 6.294e-09
 58.40943   -156.4 1.032e+04 6.062e-09
 58.42903   -156.3 1.032e+04 6.020e-09
 58.44862   -156.2 1.037e+04 6.054e-09
 58.46821   -156.2 1.052e+04 6.305e-09
 58.48781   -156.3 1.068e+04 6.695e-09
 58.50740   -156.4 1.082e+04 7.172e-09
 58.52699   -156.5 1.096e+04 7.730e-09
 58.54659   -156.5 1.110e+04 8.351e-09
 58.56618   -156.6 1.124e+04 8.968e-09
 58.58578   -156.9 1.134e+04 9.461e-09
 58.59809   -157.4 1.137e+04 9.693e-09
 58.60788   -157.8 1.134e+04 9.511e-09
 58.62496   -158.1 1.133e+04 9.523e-09
 58.63844   -158.4 1.122e+04 9.327e-09
 58.64824   -159.0 1.141e+04 1.059e-08
 58.66415   -159.1 1.123e+04 9.900e-09
 58.68374   -159.2 1.099e+04 9.096e-09
 58.70334   -159.2 1.081e+04 8.383e-09
 58.72293   -159.1 1.058e+04 7.580e-09
 58.74252   -159.0 1.043e+04 6.903e-09
 58.76212   -158.9 1.022e+04 6.146e-09
 58.78171   -158.8 1.005e+04 5.521e-09
 58.80131   -158.6 9.795e+03 4.786e-09
 58.82090   -158.2 9.576e+03 4.153e-09
 58.84049   -157.5 9.328e+03 3.517e-09
 58.86009   -156.8 9.243e+03 3.179e-09
 58.88957   -156.4 9.163e+03 2.935e-09
 58.92886   -155.1 8.965e+03 2.639e-09
 58.96805   -153.4 8.829e+03 2.501e-09
 59.00723   -151.7 8.803e+03 2.482e-09
 59.04642   -150.2 8.865e+03 2.590e-09
 59.08561   -149.1 9.048e+03 2.878e-09
 59.11752   -148.3 9.187e+03 3.126e-09
 59.13701   -148.5 9.307e+03 3.395e-09
 59.15399   -148.6 9.343e+03 3.534e-09
 59.17358   -148.6 9.376e+03 3.615e-09
 59.18897   -148.6 9.420e+03 3.696e-09
 59.19877   -149.0 9.664e+03 4.117e-09
 59.21277   -149.0 9.726e+03 4.277e-09
 59.23237   -149.0 9.780e+03 4.426e-09
 59.25196   -149.0 9.814e+03 4.532e-09
 59.27155   -149.0 9.836e+03 4.594e-09
 59.29115   -149.2 9.891e+03 4.685e-09
 59.31074   -151.5 1.021e+04 5.229e-09
 59.33033   -155.9 1.220e+04 1.056e-08
 59.34993   -159.9 1.460e+04 2.756e-08
 59.36952   -163.5 1.597e+04 5.480e-08
 59.38911   -167.7 1.645e+04 7.180e-08
 59.40871   -172.3 1.641e+04 7.396e-08
 59.42830   -176.4 1.558e+04 5.612e-08
 59.44790   -180.2 1.419e+04 2.920e-08
 59.46429   -183.7 1.277e+04 1.527e-08
 59.47408   -184.2 1.297e+04 1.804e-08
 59.48708   -186.5 1.245e+04 1.446e-08
 59.50668   -187.8 1.230e+04 1.353e-08
 59.52627   -188.5 1.225e+04 1.317e-08
 59.54586   -189.0 1.222e+04 1.292e-08
 59.56546   -189.2 1.221e+04 1.272e-08
 59.58505   -189.3 1.218e+04 1.259e-08
 59.60465   -189.2 1.203e+04 1.224e-08
 59.62424   -188.8 1.178e+04 1.135e-08
 59.64383   -188.0 1.151e+04 1.024e-08
 59.65615   -187.1 1.130e+04 9.217e-09
 59.66595   -187.5 1.126e+04 9.072e-09
 59.68302   -186.6 1.109e+04 8.246e-09
 59.70261   -185.7 1.096e+04 7.652e-09
 59.72221   -184.7 1.087e+04 7.299e-09
 59.73960   -183.8 1.082e+04 7.170e-09
 59.74940   -183.9 1.080e+04 6.782e-09
 59.76139   -183.0 1.079e+04 6.767e-09
 59.78099   -182.1 1.083e+04 7.021e-09
 59.80058   -181.4 1.095e+04 7.622e-09
 59.82018   -180.9 1.111e+04 8.451e-09
 59.83977   -180.4 1.128e+04 9.394e-09
 59.85936   -180.0 1.143e+04 1.032e-08
 59.87896   -179.9 1.156e+04 1.107e-08
 59.89855   -180.0 1.165e+04 1.164e-08
 59.91814   -180.1 1.176e+04 1.221e-08
 59.93774   -180.6 1.195e+04 1.312e-08
 59.95733   -181.6 1.225e+04 1.477e-08
 59.97692   -182.9 1.267e+04 1.752e-08
 59.99652   -184.4 1.318e+04 2.135e-08
 60.01492   -186.2 1.368e+04 2.520e-08
 60.02471   -188.0 1.341e+04 2.040e-08
 60.03571   -190.7 1.352e+04 2.078e-08
 60.05530   -194.1 1.358e+04 1.957e-08
 60.07489   -198.1 1.328e+04 1.692e-08
 60.09449   -202.3 1.285e+04 1.428e-08
 60.11408   -206.3 1.250e+04 1.250e-08
 60.13367   -209.6 1.235e+04 1.146e-08
 60.15327   -212.4 1.231e+04 1.097e-08
 60.17286   -214.8 1.230e+04 1.086e-08
 60.18518   -217.2 1.232e+04 1.087e-08
 60.19498   -218.5 1.267e+04 1.397e-08
 60.21205   -221.3 1.302e+04 1.596e-08
 60.23164   -224.3 1.386e+04 2.121e-08
 60.25124   -227.3 1.468e+04 2.999e-08
 60.27083   -230.3 1.527e+04 4.075e-08
 60.29023   -233.1 1.550e+04 4.827e-08
 60.30003   -230.7 1.510e+04 3.844e-08
 60.31002   -233.1 1.545e+04 4.898e-08
 60.32961   -235.2 1.557e+04 5.302e-08
 60.34920   -237.0 1.554e+04 5.284e-08
 60.36880   -238.5 1.512e+04 4.312e-08
 60.38839   -239.8 1.432e+04 2.906e-08
 60.40798   -241.1 1.328e+04 1.891e-08
 60.42758   -242.2 1.226e+04 1.317e-08
 60.44717   -243.0 1.158e+04 1.020e-08
 60.46677   -243.5 1.126e+04 8.665e-09
 60.48636   -243.8 1.120e+04 7.935e-09
 60.50595   -244.0 1.121e+04 7.751e-09
 60.52555   -244.2 1.122e+04 7.741e-09
 60.54514   -244.6 1.143e+04 7.856e-09
 60.56473   -245.1 1.191e+04 9.175e-09
 60.57534   -245.5 1.240e+04 1.208e-08
 60.58514   -245.2 1.268e+04 1.672e-08
 60.60392   -245.3 1.295e+04 1.989e-08
 60.62351   -245.4 1.323e+04 2.355e-08
 60.64311   -245.4 1.346e+04 2.705e-08
 60.66270   -245.5 1.360e+04 2.923e-08
 60.68230   -245.6 1.364e+04 2.975e-08
 60.70189   -245.5 1.361e+04 2.946e-08
 60.71422   -245.4 1.337e+04 2.598e-08
 60.72401   -246.0 1.336e+04 2.520e-08
 60.74108   -245.6 1.294e+04 1.977e-08
 60.76067   -245.1 1.254e+04 1.556e-08
 60.78026   -244.4 1.222e+04 1.283e-08
 60.79986   -243.7 1.203e+04 1.129e-08
 60.81945   -242.9 1.191e+04 1.055e-08
 60.83905   -242.0 1.184e+04 1.018e-08
 60.85065   -241.1 1.180e+04 9.865e-09
 60.86045   -240.8 1.195e+04 1.109e-08
 60.87823   -239.9 1.190e+04 1.072e-08
 60.89783   -239.0 1.184e+04 1.017e-08
 60.91742   -238.0 1.177e+04 9.440e-09
 60.93701   -237.1 1.169e+04 8.614e-09
 60.95661   -236.1 1.161e+04 7.766e-09
 60.97620   -235.2 1.152e+04 6.946e-09
 60.99579   -234.2 1.143e+04 6.215e-09
 61.01539   -233.2 1.137e+04 5.618e-09
 61.03498   -232.1 1.133e+04 5.175e-09
 61.05458   -231.0 1.133e+04 4.897e-09
 61.07417   -229.9 1.137e+04 4.779e-09
 61.09376   -228.8 1.138e+04 4.759e-09
 61.11336   -227.7 1.145e+04 4.762e-09
 61.12597   -226.6 1.156e+04 4.919e-09
 61.13576   -226.5 1.155e+04 4.616e-09
 61.15254   -225.5 1.156e+04 4.774e-09
 61.17214   -224.6 1.153e+04 5.001e-09
 61.19173   -223.7 1.149e+04 5.253e-09
 61.21132   -222.9 1.143e+04 5.526e-09
 61.23092   -222.0 1.135e+04 5.812e-09
 61.24325   -221.1 1.129e+04 6.074e-09
 61.25304   -220.9 1.131e+04 6.130e-09
 61.27011   -219.9 1.129e+04 6.437e-09
 61.28970   -219.0 1.128e+04 6.743e-09
 61.30929   -218.0 1.127e+04 7.019e-09
 61.32889   -217.0 1.127e+04 7.252e-09
 61.34848   -216.0 1.127e+04 7.439e-09
 61.36807   -214.9 1.127e+04 7.597e-09
 61.38767   -213.9 1.128e+04 7.750e-09
 61.40128   -212.8 1.129e+04 7.946e-09
 61.41108   -212.8 1.103e+04 6.196e-09
 61.42685   -211.6 1.105e+04 6.520e-09
 61.44645   -210.5 1.108e+04 6.939e-09
 61.46604   -209.3 1.112e+04 7.430e-09
 61.48564   -208.1 1.116e+04 7.959e-09
 61.51512   -206.8 1.126e+04 8.709e-09
 61.55441   -203.8 1.147e+04 1.045e-08
 61.59360   -201.3 1.166e+04 1.173e-08
 61.63278   -199.0 1.184e+04 1.297e-08
 61.67197   -197.1 1.197e+04 1.383e-08
 61.71116   -195.5 1.203e+04 1.419e-08
 61.75035   -194.2 1.203e+04 1.403e-08
 61.78953   -192.8 1.186e+04 1.202e-08
 61.82872   -191.1 1.153e+04 9.246e-09
 61.86791   -189.0 1.120e+04 6.771e-09
 61.90709   -186.6 1.091e+04 4.928e-09
 61.94231   -184.0 1.070e+04 3.655e-09
 61.96190   -185.1 1.037e+04 2.234e-09
 61.98547   -182.1 1.022e+04 1.918e-09
 62.02466   -179.7 1.018e+04 1.833e-09
 62.06384   -177.2 1.016e+04 1.815e-09
 62.10303   -174.9 1.019e+04 1.873e-09
 62.14222   -172.8 1.023e+04 2.120e-09
 62.18141   -170.8 1.028e+04 2.533e-09
 62.22059   -169.0 1.041e+04 3.217e-09
 62.25978   -167.3 1.059e+04 4.271e-09
 62.29171   -165.7 1.084e+04 5.683e-09
 62.31130   -165.9 1.133e+04 7.644e-09
 62.33815   -164.6 1.146e+04 8.484e-09
 62.37734   -163.5 1.154e+04 8.845e-09
 62.41653   -162.4 1.156e+04 8.992e-09
 62.45572   -161.5 1.160e+04 8.458e-09
 62.49294   -160.6 1.156e+04 7.279e-09
 62.51253   -160.0 1.163e+04 8.284e-09
 62.53409   -159.4 1.165e+04 7.382e-09
 62.57328   -159.0 1.168e+04 6.297e-09
 62.61247   -158.6 1.162e+04 5.072e-09
 62.65165   -158.0 1.148e+04 3.972e-09
 62.69084   -157.2 1.126e+04 3.024e-09
 62.73003   -156.1 1.102e+04 2.261e-09
 62.76921   -154.8 1.082e+04 1.751e-09
 62.80840   -153.4 1.069e+04 1.507e-09
 62.84759   -152.0 1.065e+04 1.457e-09
 62.88678   -150.8 1.066e+04 1.473e-09
 62.92596   -149.7 1.077e+04 1.617e-09
 62.96515   -148.8 1.089e+04 1.768e-09
 63.00434   -148.0 1.102e+04 1.872e-09
 63.04353   -147.2 1.109e+04 1.950e-09
 63.08271   -144.4 1.098e+04 2.294e-09
 63.12190   -143.3 1.109e+04 2.324e-09
 63.16109   -142.4 1.129e+04 2.461e-09
 63.20028   -142.0 1.224e+04 3.309e-09
 63.23946   -141.8 1.299e+04 7.580e-09
 63.26876   -141.9 1.358e+04 1.865e-08
 63.28825   -141.8 1.410e+04 3.001e-08
 63.30784   -141.6 1.457e+04 4.222e-08
 63.32744   -141.3 1.488e+04 4.848e-08
 63.33828   -141.1 1.495e+04 4.977e-08
 63.34807   -140.1 1.437e+04 3.906e-08
 63.35938   -140.0 1.453e+04 4.245e-08
 63.36917   -139.7 1.478e+04 4.635e-08
 63.38622   -139.5 1.496e+04 5.139e-08
 63.40581   -139.3 1.505e+04 5.231e-08
 63.42541   -139.2 1.509e+04 5.162e-08
 63.44500   -139.2 1.509e+04 5.009e-08
 63.46459   -139.4 1.501e+04 4.769e-08
 63.48419   -139.5 1.484e+04 4.423e-08
 63.50378   -139.5 1.461e+04 3.948e-08
 63.52338   -139.4 1.433e+04 3.390e-08
 63.54297   -139.3 1.403e+04 2.823e-08
 63.56256   -139.1 1.369e+04 2.303e-08
 63.58216   -138.6 1.337e+04 1.875e-08
 63.60175   -138.1 1.309e+04 1.545e-08
 63.61359   -137.4 1.285e+04 1.295e-08
 63.62339   -136.6 1.285e+04 1.297e-08
 63.64094   -135.9 1.263e+04 1.123e-08
 63.66053   -135.2 1.244e+04 9.992e-09
 63.68012   -134.5 1.228e+04 9.172e-09
 63.70961   -133.6 1.209e+04 8.356e-09
 63.74890   -131.7 1.184e+04 7.600e-09
 63.78808   -129.8 1.180e+04 7.594e-09
 63.82727   -127.9 1.184e+04 8.073e-09
 63.86646   -125.8 1.188e+04 9.221e-09
 63.90565   -124.0 1.199e+04 1.062e-08
 63.94483   -122.3 1.205e+04 1.147e-08
 63.98402   -120.7 1.204e+04 1.192e-08
 64.02321   -119.0 1.206e+04 1.239e-08
 64.06240   -117.5 1.206e+04 1.303e-08
 64.10158   -116.2 1.205e+04 1.346e-08
 64.14077   -114.9 1.189e+04 1.359e-08
 64.16441   -113.7 1.167e+04 1.229e-08
 64.17411   -113.4 1.176e+04 1.268e-08
 64.18956   -112.8 1.162e+04 1.207e-08
 64.20915   -111.9 1.144e+04 1.115e-08
 64.22875   -111.3 1.130e+04 1.040e-08
 64.24834   -110.3 1.112e+04 9.292e-09
 64.26793   -109.7 1.103e+04 8.692e-09
 64.28753   -108.6 1.087e+04 7.777e-09
 64.30712   -107.8 1.072e+04 7.215e-09
 64.32671   -106.9 1.059e+04 6.828e-09
 64.34631   -105.8 1.052e+04 6.673e-09
 64.36590   -104.8 1.051e+04 6.646e-09
 64.38550   -103.9 1.050e+04 6.648e-09
 64.40509   -103.1 1.044e+04 6.807e-09
 64.41744   -102.3 1.040e+04 7.050e-09
 64.42724   -102.0 1.065e+04 7.098e-09
 64.43953   -101.3 1.063e+04 7.486e-09
 64.44933   -101.0 1.075e+04 8.359e-09
 64.46387   -100.2 1.072e+04 8.573e-09
 64.48346    -99.5 1.071e+04 8.645e-09
 64.50306    -98.8 1.069e+04 8.653e-09
 64.52265    -98.0 1.064e+04 8.519e-09
 64.54224    -97.3 1.057e+04 8.209e-09
 64.56184    -96.4 1.048e+04 7.653e-09
 64.58143    -95.5 1.037e+04 6.906e-09
 64.60103    -94.6 1.022e+04 5.960e-09
 64.62062    -93.5 1.002e+04 4.915e-09
 64.64021    -92.4 9.836e+03 3.978e-09
 64.65981    -91.3 9.738e+03 3.401e-09
 64.68929    -90.4 9.714e+03 3.148e-09
 64.71504    -88.7 9.539e+03 2.713e-09
 64.73463    -88.1 9.546e+03 2.601e-09
 64.76777    -85.7 9.334e+03 2.455e-09
 64.80695    -83.2 9.276e+03 2.440e-09
 64.84614    -80.8 9.294e+03 2.553e-09
 64.88533    -78.6 9.371e+03 2.641e-09
 64.92452    -76.3 9.397e+03 2.647e-09
 64.96370    -74.1 9.389e+03 2.532e-09
 65.00289    -71.8 9.345e+03 2.337e-09
 65.04208    -69.4 9.326e+03 2.215e-09
 65.08127    -67.1 9.331e+03 2.192e-09
 65.12045    -64.8 9.488e+03 2.349e-09
 65.15964    -62.6 9.674e+03 2.764e-09
 65.19883    -60.7 9.816e+03 3.099e-09
 65.23801    -58.8 9.879e+03 3.179e-09
 65.26567    -56.8 9.936e+03 3.130e-09
 65.28526    -57.5 9.879e+03 2.900e-09
 65.31639    -55.3 9.963e+03 2.764e-09
 65.35558    -53.0 1.000e+04 2.736e-09
 65.39476    -50.8 1.033e+04 2.816e-09
 65.43395    -48.7 1.050e+04 3.465e-09
 65.46590    -46.5 1.070e+04 4.248e-09
 65.48550    -46.3 1.061e+04 3.205e-09
 65.51233    -44.3 1.069e+04 3.230e-09
 65.55151    -42.3 1.087e+04 3.038e-09
 65.58081    -41.1 1.096e+04 2.915e-09
 65.60030    -40.3 1.102e+04 2.672e-09
 65.61990    -39.4 1.112e+04 2.565e-09
 65.63949    -38.9 1.127e+04 2.527e-09
 65.65908    -38.6 1.146e+04 2.647e-09
 65.67868    -38.8 1.152e+04 2.886e-09
 65.69827    -38.9 1.164e+04 3.099e-09
 65.71786    -39.5 1.181e+04 3.562e-09
 65.73746    -40.2 1.201e+04 4.186e-09
 65.75705    -40.8 1.213e+04 4.631e-09
 65.78654    -41.3 1.232e+04 5.247e-09
 65.81630    -42.4 1.245e+04 6.247e-09
 65.83589    -42.9 1.284e+04 8.858e-09
 65.85512    -42.5 1.276e+04 8.085e-09
 65.87461    -42.2 1.288e+04 8.019e-09
 65.89421    -41.8 1.303e+04 8.131e-09
 65.91380    -41.8 1.311e+04 8.202e-09
 65.93339    -41.7 1.326e+04 8.457e-09
 65.95299    -41.6 1.330e+04 8.408e-09
 65.97258    -41.5 1.345e+04 8.640e-09
 65.99217    -42.4 1.398e+04 9.551e-09
 66.00453    -44.2 1.475e+04 1.353e-08
 66.01433    -42.4 1.415e+04 1.241e-08
 66.03136    -44.5 1.510e+04 2.160e-08
 66.05096    -46.1 1.603e+04 4.466e-08
 66.07055    -47.0 1.660e+04 8.029e-08
 66.09014    -47.8 1.667e+04 1.036e-07
 66.10121    -48.6 1.636e+04 1.047e-07
 66.11101    -50.4 1.581e+04 8.092e-08
 66.12933    -50.9 1.502e+04 4.504e-08
 66.14892    -51.8 1.435e+04 2.118e-08
 66.16852    -53.0 1.377e+04 9.688e-09
 66.18811    -54.3 1.318e+04 4.774e-09
 66.20771    -55.4 1.214e+04 2.864e-09
 66.22730    -56.1 1.113e+04 2.441e-09
 66.24689    -56.3 1.083e+04 2.351e-09
 66.26649    -56.1 1.080e+04 2.327e-09
 66.28608    -55.7 1.084e+04 2.375e-09
 66.30567    -55.1 1.091e+04 2.544e-09
 66.33516    -54.4 1.101e+04 3.055e-09
 66.36692    -52.7 1.097e+04 3.799e-09
 66.38652    -53.6 1.103e+04 3.921e-09
 66.41363    -51.6 1.123e+04 5.103e-09
 66.44293    -49.4 1.136e+04 5.685e-09
 66.46242    -48.8 1.145e+04 6.146e-09
 66.49191    -47.5 1.148e+04 6.577e-09
 66.52397    -45.1 1.144e+04 6.668e-09
 66.54356    -44.6 1.141e+04 6.459e-09
 66.57038    -42.2 1.138e+04 6.513e-09
 66.60957    -39.9 1.132e+04 5.954e-09
 66.64876    -37.7 1.127e+04 5.654e-09
 66.68794    -35.7 1.138e+04 6.232e-09
 66.72713    -34.1 1.153e+04 7.615e-09
 66.76632    -32.6 1.164e+04 9.423e-09
 66.80551    -31.3 1.172e+04 1.072e-08
 66.84469    -30.1 1.153e+04 9.667e-09
 66.88388    -28.8 1.118e+04 7.030e-09
 66.91755    -27.3 1.072e+04 4.510e-09
 66.93714    -28.2 1.036e+04 2.218e-09
 66.96226    -26.1 1.037e+04 1.390e-09
 67.00144    -23.8 1.044e+04 1.002e-09
 67.04063    -21.3 1.049e+04 7.974e-10
 67.07982    -18.8 1.051e+04 6.742e-10
 67.11901    -16.2 1.052e+04 6.179e-10
 67.15819    -13.6 1.055e+04 6.140e-10
 67.19738    -11.3 1.054e+04 7.652e-10
 67.23657     -8.7 1.045e+04 1.072e-09
 67.27575     -5.8 1.043e+04 1.391e-09
 67.31494     -2.9 1.045e+04 1.474e-09
 67.35413      0.1 1.061e+04 1.171e-09
 67.39332      1.7 1.096e+04 8.378e-10
 67.43250      3.2 1.126e+04 8.857e-10
 67.46818      4.2 1.078e+04 1.745e-09
 67.48777      4.6 1.051e+04 3.771e-09
 67.51088      7.3 1.037e+04 4.366e-09
 67.55007     10.3 1.037e+04 3.292e-09
 67.58203     12.6 1.046e+04 2.210e-09
 67.60162     12.9 1.049e+04 1.989e-09
 67.62844     14.8 1.027e+04 1.684e-09
 67.66763     17.2 1.016e+04 1.770e-09
 67.70681     19.7 1.010e+04 2.123e-09
 67.74600     22.4 1.006e+04 2.656e-09
 67.78519     25.1 1.015e+04 2.998e-09
 67.82438     27.6 1.024e+04 2.946e-09
 67.86356     30.1 1.028e+04 2.681e-09
 67.90275     32.4 1.030e+04 2.453e-09
 67.94194     34.7 1.026e+04 2.351e-09
 67.98113     37.1 1.024e+04 2.374e-09
 68.01881     39.4 1.022e+04 2.513e-09
 68.03840     39.0 1.018e+04 2.449e-09
 68.05950     41.2 1.022e+04 2.468e-09
 68.09869     43.3 1.037e+04 2.489e-09
 68.13787     45.3 1.051e+04 2.531e-09
 68.17706     47.0 1.056e+04 2.660e-09
 68.21625     48.7 1.050e+04 2.868e-09
 68.25544     50.5 1.039e+04 3.016e-09
 68.29462     52.3 1.030e+04 2.987e-09
 68.33381     54.3 1.021e+04 2.893e-09
 68.37300     56.4 1.012e+04 2.628e-09
 68.41219     58.5 1.004e+04 2.269e-09
 68.45137     60.7 9.991e+03 1.935e-09
 68.49056     62.8 9.969e+03 1.695e-09
 68.52975     64.9 9.935e+03 1.543e-09
 68.56894     67.1 9.897e+03 1.444e-09
 68.58903     69.4 9.885e+03 1.376e-09
 68.60862     69.8 9.889e+03 1.103e-09
 68.64009     72.2 9.911e+03 1.166e-09
 68.65969     72.4 9.872e+03 1.169e-09
 68.68650     74.8 9.947e+03 1.263e-09
 68.72568     77.2 1.004e+04 1.367e-09
 68.76487     79.6 1.019e+04 1.429e-09
 68.80406     81.8 1.024e+04 1.423e-09
 68.84325     84.0 1.027e+04 1.369e-09
 68.88243     86.2 1.027e+04 1.211e-09
 68.92162     88.5 1.026e+04 1.013e-09
 68.96081     90.7 1.025e+04 8.579e-10
 69.00000     93.1 1.018e+04 8.117e-10
 69.03918     95.7 1.017e+04 8.184e-10
 69.07837     98.3 1.016e+04 8.548e-10
 69.11756    101.0 1.016e+04 9.435e-10
 69.13965    103.8 1.015e+04 1.092e-09
 69.15925    104.2 1.011e+04 9.691e-10
 69.19593    107.0 9.967e+03 1.114e-09
 69.23512    109.8 9.790e+03 1.334e-09
 69.27431    112.6 9.675e+03 1.662e-09
 69.31349    115.4 9.629e+03 2.125e-09
 69.35268    118.1 9.643e+03 2.720e-09
 69.39187    120.8 9.707e+03 3.422e-09
 69.43106    123.3 9.785e+03 4.167e-09
 69.47024    125.8 9.840e+03 4.823e-09
 69.50943    128.2 9.867e+03 5.234e-09
 69.54862    130.6 9.852e+03 5.067e-09
 69.58781    132.9 9.780e+03 4.635e-09
 69.62699    135.1 9.635e+03 3.954e-09
 69.66618    137.4 9.435e+03 3.185e-09
 69.69028    139.8 9.230e+03 2.524e-09
 69.70267    140.5 8.889e+03 2.336e-09
 69.71775    140.6 8.920e+03 2.995e-09
 69.74455    143.1 8.770e+03 2.460e-09
 69.78374    145.7 8.616e+03 2.000e-09
 69.82293    148.2 8.474e+03 1.777e-09
 69.86212    151.0 8.458e+03 1.776e-09
 69.90130    153.7 8.452e+03 1.838e-09
 69.94049    156.4 8.477e+03 2.028e-09
 69.97968    159.0 8.546e+03 2.301e-09
 70.01887    161.5 8.655e+03 2.605e-09
 70.05805    163.9 8.800e+03 2.848e-09
 70.09724    166.1 8.910e+03 2.863e-09
 70.13643    168.2 8.926e+03 2.768e-09
 70.17561    170.1 8.932e+03 2.561e-09
 70.21480    172.1 8.945e+03 2.372e-09
 70.24091    174.2 8.962e+03 2.340e-09
 70.26050    175.6 8.899e+03 2.570e-09
 70.29318    177.4 9.028e+03 2.649e-09
 70.33236    179.4 9.211e+03 2.821e-09
 70.37155    181.2 9.407e+03 3.034e-09
 70.41074    182.6 9.573e+03 3.160e-09
 70.44993    183.6 9.755e+03 3.206e-09
 70.48911    183.9 9.941e+03 3.220e-09
 70.52830    183.9 1.012e+04 3.249e-09
 70.56749    183.5 1.016e+04 3.242e-09
 70.60667    183.2 1.006e+04 3.156e-09
 70.64586    183.1 9.843e+03 2.940e-09
 70.68505    183.0 9.596e+03 2.744e-09
 70.72424    183.0 9.462e+03 2.731e-09
 70.75622    182.9 9.437e+03 2.774e-09
 70.77572    183.0 9.396e+03 3.076e-09
 70.79134    183.2 9.420e+03 3.295e-09
 70.80114    182.8 9.613e+03 4.179e-09
 70.81221    182.7 9.691e+03 4.519e-09
 70.83181    182.5 9.774e+03 4.862e-09
 70.85140    182.3 9.849e+03 5.239e-09
 70.87099    182.0 9.963e+03 5.721e-09
 70.89059    181.6 1.014e+04 6.495e-09
 70.91018    181.1 1.041e+04 7.810e-09
 70.92977    180.5 1.078e+04 9.965e-09
 70.94937    179.9 1.127e+04 1.321e-08
 70.96896    179.1 1.183e+04 1.742e-08
 70.98856    178.0 1.242e+04 2.155e-08
 71.00815    176.4 1.296e+04 2.339e-08
 71.02774    174.1 1.308e+04 2.332e-08
 71.04734    171.4 1.307e+04 2.272e-08
 71.06666    168.7 1.290e+04 2.120e-08
 71.07645    167.6 1.281e+04 2.158e-08
 71.08652    165.2 1.267e+04 2.050e-08
 71.10612    163.0 1.247e+04 1.896e-08
 71.12571    160.8 1.224e+04 1.675e-08
 71.14530    158.7 1.198e+04 1.398e-08
 71.16490    156.4 1.167e+04 1.112e-08
 71.18449    154.2 1.131e+04 8.677e-09
 71.20409    152.1 1.091e+04 6.842e-09
 71.22368    150.3 1.048e+04 5.595e-09
 71.24327    148.7 1.009e+04 4.874e-09
 71.26287    147.5 9.826e+03 4.729e-09
 71.28246    146.5 9.816e+03 4.733e-09
 71.29485    145.6 9.824e+03 4.789e-09
 71.30465    145.7 9.835e+03 4.881e-09
 71.32165    144.8 9.896e+03 5.080e-09
 71.34124    143.8 1.009e+04 5.478e-09
 71.35177    142.6 1.035e+04 6.091e-09
 71.36156    141.7 1.086e+04 7.809e-09
 71.38043    140.3 1.109e+04 8.980e-09
 71.40002    139.0 1.122e+04 1.001e-08
 71.41962    137.7 1.126e+04 1.089e-08
 71.43921    136.4 1.126e+04 1.163e-08
 71.45880    135.1 1.126e+04 1.254e-08
 71.47840    133.9 1.130e+04 1.354e-08
 71.49799    132.9 1.140e+04 1.440e-08
 71.51758    131.9 1.137e+04 1.433e-08
 71.54707    130.3 1.129e+04 1.376e-08
 71.58636    128.8 1.064e+04 9.258e-09
 71.62554    128.0 9.741e+03 4.788e-09
 71.66473    127.6 8.836e+03 2.275e-09
 71.70392    127.5 8.345e+03 1.608e-09
 71.74311    128.0 8.242e+03 1.568e-09
 71.78229    129.4 8.260e+03 1.579e-09
 71.81428    131.1 8.471e+03 1.679e-09
 71.83388    130.6 8.424e+03 1.752e-09
 71.86067    132.2 8.838e+03 2.277e-09
 71.89279    132.9 9.176e+03 2.948e-09
 71.91229    132.4 9.216e+03 3.134e-09
 71.92905    132.8 9.442e+03 3.912e-09
 71.94864    133.1 9.778e+03 5.125e-09
 71.96824    133.1 1.014e+04 6.594e-09
 71.98783    133.1 1.048e+04 8.132e-09
 72.00743    132.8 1.081e+04 9.536e-09
 72.02702    132.3 1.111e+04 1.042e-08
 72.04661    131.4 1.137e+04 1.060e-08
 72.06621    130.4 1.154e+04 1.052e-08
 72.08580    129.3 1.162e+04 1.028e-08
 72.10539    128.1 1.170e+04 9.730e-09
 72.13488    125.7 1.157e+04 7.478e-09
 72.17417    123.7 1.127e+04 5.243e-09
 72.21335    122.8 1.098e+04 3.943e-09
 72.24265    122.1 1.076e+04 3.420e-09
 72.26214    121.5 1.064e+04 3.257e-09
 72.28174    121.3 1.063e+04 3.258e-09
 72.30133    121.3 1.066e+04 3.345e-09
 72.32092    121.2 1.076e+04 3.704e-09
 72.34052    121.2 1.093e+04 4.425e-09
 72.35292    121.0 1.115e+04 5.579e-09
 72.36271    122.0 1.105e+04 5.148e-09
 72.37970    121.9 1.129e+04 6.596e-09
 72.39930    121.6 1.157e+04 8.818e-09
 72.41889    121.2 1.190e+04 1.213e-08
 72.43849    120.8 1.221e+04 1.607e-08
 72.45302    120.4 1.227e+04 1.858e-08
 72.46282    119.5 1.269e+04 2.416e-08
 72.47767    118.9 1.257e+04 2.329e-08
 72.49727    118.6 1.213e+04 1.951e-08
 72.51686    118.3 1.152e+04 1.398e-08
 72.53645    117.8 1.091e+04 9.226e-09
 72.55605    117.0 1.039e+04 6.451e-09
 72.57564    116.6 1.018e+04 5.841e-09
 72.59523    116.6 1.018e+04 5.819e-09
 72.61483    116.8 1.022e+04 5.909e-09
 72.63442    116.8 1.039e+04 6.390e-09
 72.65402    116.8 1.065e+04 7.301e-09
 72.67361    116.7 1.087e+04 8.518e-09
 72.69320    116.6 1.115e+04 9.759e-09
 72.71280    116.3 1.149e+04 1.070e-08
 72.72834    115.9 1.168e+04 1.099e-08
 72.73813    115.7 1.168e+04 1.152e-08
 72.76188    115.1 1.176e+04 1.104e-08
 72.80116    114.1 1.183e+04 1.021e-08
 72.84035    113.1 1.180e+04 8.673e-09
 72.87235    112.1 1.165e+04 7.635e-09
 72.89194    112.4 1.173e+04 6.778e-09
 72.91873    111.9 1.149e+04 5.556e-09
 72.95791    111.8 1.120e+04 5.190e-09
 72.99405    112.1 1.101e+04 4.757e-09
 73.01364    111.9 1.117e+04 6.175e-09
 73.02639    112.5 1.102e+04 5.347e-09
 73.04589    113.0 1.097e+04 4.847e-09
 73.06548    113.7 1.094e+04 4.509e-09
 73.08508    114.4 1.096e+04 4.362e-09
 73.10467    115.1 1.097e+04 4.351e-09
 73.12426    115.9 1.104e+04 4.337e-09
 73.14386    116.6 1.115e+04 4.320e-09
 73.16345    117.3 1.128e+04 4.316e-09
 73.18304    118.1 1.130e+04 4.334e-09
 73.20264    118.8 1.129e+04 4.324e-09
 73.22223    119.7 1.125e+04 4.223e-09
 73.24183    120.5 1.122e+04 4.031e-09
 73.26142    121.4 1.114e+04 3.688e-09
 73.27896    121.9 1.111e+04 3.508e-09
 73.28876    121.8 1.109e+04 3.631e-09
 73.31050    123.1 1.102e+04 3.246e-09
 73.34979    124.9 1.089e+04 2.769e-09
 73.38897    127.0 1.079e+04 2.424e-09
 73.42816    129.2 1.072e+04 2.262e-09
 73.46735    131.4 1.067e+04 2.205e-09
 73.50654    133.6 1.061e+04 2.164e-09
 73.54468    135.7 1.046e+04 2.059e-09
 73.56427    135.5 1.032e+04 1.790e-09
 73.58491    137.5 1.005e+04 1.598e-09
 73.62410    139.4 9.672e+03 1.512e-09
 73.66328    141.5 9.561e+03 1.538e-09
 73.70247    143.5 9.390e+03 1.676e-09
 73.74166    145.3 9.299e+03 1.982e-09
 73.78085    146.5 9.365e+03 2.454e-09
 73.81014    146.7 9.442e+03 2.823e-09
 73.82959    146.9 9.556e+03 3.473e-09
 73.84919    147.4 9.724e+03 4.635e-09
 73.86882    147.7 9.953e+03 6.050e-09
 73.88842    147.8 1.015e+04 7.256e-09
 73.90801    147.8 1.022e+04 7.539e-09
 73.92760    147.8 1.020e+04 7.500e-09
 73.94001    147.9 1.011e+04 7.186e-09
 73.94981    147.8 9.850e+03 6.289e-09
 73.96679    148.1 9.664e+03 5.775e-09
 73.98638    148.7 9.450e+03 5.132e-09
 74.00598    149.3 9.256e+03 4.521e-09
 74.02557    150.0 9.101e+03 4.039e-09
 74.04517    150.8 8.949e+03 3.661e-09
 74.06476    151.5 8.883e+03 3.469e-09
 74.08435    152.4 8.820e+03 3.326e-09
 74.10395    153.3 8.772e+03 3.240e-09
 74.11470    154.3 8.713e+03 3.161e-09
 74.12450    154.8 8.635e+03 3.098e-09
 74.14313    155.6 8.629e+03 3.071e-09
 74.16273    156.7 8.606e+03 3.080e-09
 74.18232    157.7 8.590e+03 3.138e-09
 74.20191    159.1 8.573e+03 3.244e-09
 74.22151    160.4 8.587e+03 3.422e-09
 74.24110    161.6 8.640e+03 3.658e-09
 74.26070    162.6 8.718e+03 3.916e-09
 74.28029    163.4 8.794e+03 4.156e-09
 74.29988    164.2 8.851e+03 4.374e-09
 74.31948    164.9 8.910e+03 4.588e-09
 74.33907    165.6 8.992e+03 4.798e-09
 74.35866    166.1 9.079e+03 4.979e-09
 74.37826    166.2 9.131e+03 5.097e-09
 74.39002    166.3 9.143e+03 5.191e-09
 74.39981    167.1 9.368e+03 6.025e-09
 74.41744    167.1 9.399e+03 6.209e-09
 74.43704    166.8 9.396e+03 6.353e-09
 74.45663    166.5 9.387e+03 6.728e-09
 74.46905    166.3 9.446e+03 7.267e-09
 74.47884    167.4 9.369e+03 6.945e-09
 74.49582    167.4 9.488e+03 7.711e-09
 74.51541    167.4 9.710e+03 8.666e-09
 74.53501    167.5 9.892e+03 9.561e-09
 74.55460    167.4 1.017e+04 9.527e-09
 74.57419    167.2 1.019e+04 9.370e-09
 74.59379    166.5 1.023e+04 8.844e-09
 74.61338    165.5 1.024e+04 8.064e-09
 74.63297    164.3 1.026e+04 7.307e-09
 74.65257    162.8 1.026e+04 6.919e-09
 74.66533    161.4 1.031e+04 6.796e-09
 74.67513    160.7 1.027e+04 6.767e-09
 74.69176    159.6 1.031e+04 6.848e-09
 74.71135    158.6 1.033e+04 7.068e-09
 74.73094    157.9 1.041e+04 7.483e-09
 74.75054    157.3 1.056e+04 8.157e-09
 74.77013    156.7 1.073e+04 8.972e-09
 74.78972    156.2 1.092e+04 9.883e-09
 74.80932    155.7 1.109e+04 1.085e-08
 74.82891    155.0 1.122e+04 1.177e-08
 74.84850    154.3 1.124e+04 1.213e-08
 74.86810    153.6 1.122e+04 1.210e-08
 74.88769    153.0 1.115e+04 1.190e-08
 74.90729    152.4 1.103e+04 1.147e-08
 74.92688    152.1 1.092e+04 1.108e-08
 74.94064    152.0 1.093e+04 1.107e-08
 74.95044    151.8 1.075e+04 1.003e-08
 74.96607    151.8 1.081e+04 1.031e-08
 74.98566    151.8 1.102e+04 1.127e-08
 74.99808    151.5 1.143e+04 1.352e-08
 75.00787    150.6 1.146e+04 1.380e-08
 75.02485    150.1 1.210e+04 1.792e-08
 75.04444    149.2 1.309e+04 2.602e-08
 75.06403    148.0 1.429e+04 4.042e-08
 75.08363    146.6 1.539e+04 6.123e-08
 75.10322    144.7 1.613e+04 8.032e-08
 75.12282    142.3 1.621e+04 8.459e-08
 75.14241    139.9 1.605e+04 7.876e-08
 75.16200    137.8 1.553e+04 6.280e-08
 75.18160    135.4 1.517e+04 5.289e-08
 75.20119    132.7 1.526e+04 5.391e-08
 75.21596    129.7 1.588e+04 6.550e-08
 75.22575    131.0 1.483e+04 4.311e-08
 75.24038    128.4 1.627e+04 6.568e-08
 75.25502    126.1 1.769e+04 1.134e-07
 75.26250    124.5 1.852e+04 2.541e-07
 75.26739    124.1 1.814e+04 1.577e-07
 75.27457    122.2 1.868e+04 3.203e-07
 75.28437    120.3 1.875e+04 5.808e-07
 75.29416    118.0 1.878e+04 7.864e-07
 75.30396    115.1 1.882e+04 7.802e-07
 75.31376    112.5 1.885e+04 6.558e-07
 75.32355    110.7 1.872e+04 4.269e-07
 75.33335    109.5 1.834e+04 2.691e-07
 75.34315    108.2 1.773e+04 1.578e-07
 75.35789    106.8 1.659e+04 8.355e-08
 75.37753    105.4 1.479e+04 5.211e-08
 75.39713    105.4 1.407e+04 4.706e-08
 75.41672    106.3 1.400e+04 4.668e-08
 75.43631    107.5 1.420e+04 5.009e-08
 75.45096    108.0 1.448e+04 5.628e-08
 75.46071    108.5 1.464e+04 5.966e-08
 75.47051    109.0 1.477e+04 6.199e-08
 75.48030    109.5 1.491e+04 6.460e-08
 75.49010    109.8 1.508e+04 6.801e-08
 75.49607    110.1 1.527e+04 7.210e-08
 75.50097    109.5 1.534e+04 5.957e-08
 75.50969    109.5 1.575e+04 6.494e-08
 75.51949    109.4 1.637e+04 7.346e-08
 75.52701    109.1 1.717e+04 8.780e-08
 75.53191    107.8 1.810e+04 1.362e-07
 75.53908    107.0 1.860e+04 1.873e-07
 75.54888    106.6 1.876e+04 2.748e-07
 75.55868    106.7 1.876e+04 4.079e-07
 75.56847    107.1 1.877e+04 5.561e-07
 75.57827    107.6 1.889e+04 6.666e-07
 75.58807    107.7 1.902e+04 6.812e-07
 75.59786    107.5 1.915e+04 6.112e-07
 75.60766    107.3 1.922e+04 5.214e-07
 75.61746    107.1 1.930e+04 4.181e-07
 75.62725    106.4 1.938e+04 3.165e-07
 75.63373    105.6 1.941e+04 2.353e-07
 75.63863    104.5 1.847e+04 1.593e-07
 75.64685    104.3 1.843e+04 1.399e-07
 75.65665    103.8 1.820e+04 1.196e-07
 75.67139    102.6 1.766e+04 7.649e-08
 75.69103    101.8 1.684e+04 6.753e-08
 75.71063    101.7 1.635e+04 6.631e-08
 75.73022    102.1 1.598e+04 6.558e-08
 75.74981    102.8 1.555e+04 6.207e-08
 75.76659    104.0 1.510e+04 5.355e-08
 75.77638    103.6 1.506e+04 5.464e-08
 75.78900    105.0 1.445e+04 4.216e-08
 75.80859    106.4 1.376e+04 3.029e-08
 75.82819    107.7 1.312e+04 2.064e-08
 75.84778    109.0 1.265e+04 1.500e-08
 75.86737    110.3 1.231e+04 1.157e-08
 75.89686    111.6 1.170e+04 7.180e-09
 75.93615    114.2 1.125e+04 4.406e-09
 75.97533    116.6 1.081e+04 2.977e-09
 76.01452    119.0 1.060e+04 2.633e-09
 76.04654    121.4 1.062e+04 2.672e-09
 76.06613    121.1 1.062e+04 3.050e-09
 76.09290    123.6 1.070e+04 3.178e-09
 76.13208    126.1 1.079e+04 3.442e-09
 76.17127    128.7 1.092e+04 3.774e-09
 76.21046    131.2 1.102e+04 4.118e-09
 76.24965    133.4 1.105e+04 4.426e-09
 76.28883    135.5 1.102e+04 4.463e-09
 76.31741    137.3 1.093e+04 4.372e-09
 76.32711    136.2 1.115e+04 4.513e-09
 76.33762    136.8 1.110e+04 4.420e-09
 76.35722    137.9 1.097e+04 4.078e-09
 76.37681    138.7 1.087e+04 3.856e-09
 76.39640    139.4 1.076e+04 3.639e-09
 76.41600    140.3 1.066e+04 3.458e-09
 76.43559    141.0 1.058e+04 3.261e-09
 76.45518    141.7 1.051e+04 3.105e-09
 76.47478    142.4 1.046e+04 2.955e-09
 76.49437    143.0 1.042e+04 2.857e-09
 76.51396    143.7 1.040e+04 2.807e-09
 76.53356    144.3 1.041e+04 2.835e-09
 76.55315    144.9 1.042e+04 2.938e-09
 76.57275    145.5 1.045e+04 3.202e-09
 76.58517    146.1 1.051e+04 3.683e-09
 76.59497    147.1 1.066e+04 3.923e-09
 76.60232    147.5 1.076e+04 4.559e-09
 76.61212    147.1 1.090e+04 5.162e-09
 76.63153    147.5 1.105e+04 6.073e-09
 76.65112    147.6 1.124e+04 7.159e-09
 76.67071    147.6 1.148e+04 8.386e-09
 76.69031    147.1 1.181e+04 1.024e-08
 76.70990    145.4 1.290e+04 1.515e-08
 76.72950    142.8 1.454e+04 2.805e-08
 76.74909    139.9 1.622e+04 6.009e-08
 76.76868    137.2 1.749e+04 1.182e-07
 76.78828    134.8 1.808e+04 1.584e-07
 76.80787    132.4 1.809e+04 1.558e-07
 76.82746    130.7 1.774e+04 1.244e-07
 76.84706    129.6 1.690e+04 6.911e-08
 76.86665    128.2 1.547e+04 3.011e-08
 76.87764    126.3 1.324e+04 1.453e-08
 76.88743    124.1 1.177e+04 1.063e-08
 76.90584    123.4 1.124e+04 9.828e-09
 76.92543    123.7 1.107e+04 9.578e-09
 76.94503    124.6 1.107e+04 9.731e-09
 76.96462    125.6 1.111e+04 1.017e-08
 76.98421    126.5 1.117e+04 1.083e-08
 77.00381    127.2 1.123e+04 1.148e-08
 77.02340    127.9 1.127e+04 1.209e-08
 77.04299    128.8 1.129e+04 1.269e-08
 77.06259    129.8 1.128e+04 1.327e-08
 77.08218    130.9 1.128e+04 1.377e-08
 77.10177    132.3 1.137e+04 1.452e-08
 77.11420    133.7 1.157e+04 1.585e-08
 77.12400    132.4 1.172e+04 1.682e-08
 77.14096    132.1 1.262e+04 2.177e-08
 77.15295    131.1 1.450e+04 3.666e-08
 77.16275    129.3 1.469e+04 3.504e-08
 77.18015    128.0 1.674e+04 7.481e-08
 77.19974    127.3 1.797e+04 1.373e-07
 77.21934    126.4 1.865e+04 1.665e-07
 77.23893    124.7 1.875e+04 1.590e-07
 77.25852    122.6 1.857e+04 1.131e-07
 77.27812    119.5 1.742e+04 5.662e-08
 77.29771    115.3 1.467e+04 2.565e-08
 77.31730    111.3 1.178e+04 1.520e-08
 77.33690    109.7 1.127e+04 1.260e-08
 77.35649    109.3 1.114e+04 1.150e-08
 77.37609    108.8 1.102e+04 1.025e-08
 77.39568    108.1 1.076e+04 8.737e-09
 77.41527    107.3 1.042e+04 7.558e-09
 77.42827    106.4 1.026e+04 7.335e-09
 77.43806    105.9 1.037e+04 7.803e-09
 77.45446    105.2 1.039e+04 7.892e-09
 77.47405    104.3 1.050e+04 8.418e-09
 77.49365    103.4 1.085e+04 9.794e-09
 77.51324    102.4 1.139e+04 1.219e-08
 77.53283    101.5 1.204e+04 1.555e-08
 77.55243    100.8 1.268e+04 1.957e-08
 77.57202    100.1 1.322e+04 2.384e-08
 77.59162     99.3 1.364e+04 2.779e-08
 77.61121     98.5 1.387e+04 2.970e-08
 77.63080     97.5 1.386e+04 2.955e-08
 77.64324     96.6 1.374e+04 2.799e-08
 77.65303     96.9 1.311e+04 2.311e-08
 77.66999     96.4 1.302e+04 2.220e-08
 77.68958     96.0 1.282e+04 2.083e-08
 77.70358     95.8 1.262e+04 1.934e-08
 77.71338     95.7 1.266e+04 1.977e-08
 77.72877     95.7 1.249e+04 1.865e-08
 77.74836     95.7 1.229e+04 1.722e-08
 77.76796     95.9 1.202e+04 1.525e-08
 77.78755     96.1 1.169e+04 1.303e-08
 77.80715     96.3 1.134e+04 1.082e-08
 77.82674     96.6 1.100e+04 8.921e-09
 77.84633     96.8 1.069e+04 7.529e-09
 77.86593     96.9 1.045e+04 6.556e-09
 77.88552     96.8 1.047e+04 6.547e-09
 77.90511     96.1 1.078e+04 7.012e-09
 77.92471     93.9 1.187e+04 9.298e-09
 77.94430     90.1 1.366e+04 1.801e-08
 77.96390     85.9 1.489e+04 3.379e-08
 77.97854     84.1 1.531e+04 4.115e-08
 77.98369     82.4 1.584e+04 5.067e-08
 77.98859     81.7 1.577e+04 4.826e-08
 77.99809     79.1 1.670e+04 6.358e-08
 78.00788     76.9 1.697e+04 7.395e-08
 78.02263     70.1 1.796e+04 7.402e-08
 78.04227     59.4 1.868e+04 8.065e-08
 78.06186     48.9 1.794e+04 7.781e-08
 78.08146     41.7 1.675e+04 6.772e-08
 78.10105     36.4 1.578e+04 4.731e-08
 78.12064     30.9 1.490e+04 2.806e-08
 78.14024     24.7 1.433e+04 2.145e-08
 78.15983     18.9 1.475e+04 2.468e-08
 78.17227     14.5 1.562e+04 3.928e-08
 78.18207     13.9 1.582e+04 4.040e-08
 78.19902     11.6 1.672e+04 7.514e-08
 78.21861     11.1 1.690e+04 9.619e-08
 78.23821     11.7 1.643e+04 8.445e-08
 78.25421     12.3 1.562e+04 5.726e-08
 78.26400     12.4 1.519e+04 5.161e-08
 78.27739     11.8 1.455e+04 3.237e-08
 78.29699     10.4 1.357e+04 2.066e-08
 78.31658      9.5 1.284e+04 1.747e-08
 78.33617      9.2 1.293e+04 1.895e-08
 78.35577      8.8 1.343e+04 2.424e-08
 78.37536      8.9 1.420e+04 3.351e-08
 78.39496      9.1 1.500e+04 4.475e-08
 78.41455      9.1 1.553e+04 5.509e-08
 78.43414      8.5 1.580e+04 6.203e-08
 78.44879      7.7 1.616e+04 6.757e-08
 78.45854      7.3 1.614e+04 6.741e-08
 78.46833      6.3 1.634e+04 6.970e-08
 78.47813      5.6 1.622e+04 6.800e-08
 78.48793      4.7 1.601e+04 6.455e-08
 78.49772      4.3 1.574e+04 6.184e-08
 78.50752      3.8 1.559e+04 5.920e-08
 78.51732      3.6 1.543e+04 5.726e-08
 78.52711      3.7 1.513e+04 5.174e-08
 78.53432      3.6 1.501e+04 4.962e-08
 78.53922      4.3 1.517e+04 5.085e-08
 78.55166      4.8 1.458e+04 3.839e-08
 78.57130      4.4 1.433e+04 3.195e-08
 78.59089      3.9 1.430e+04 2.993e-08
 78.61049      3.5 1.460e+04 3.216e-08
 78.62513      2.0 1.559e+04 4.871e-08
 78.63488      1.9 1.607e+04 5.855e-08
 78.64468      1.2 1.654e+04 8.308e-08
 78.65447      1.7 1.661e+04 1.028e-07
 78.66427      1.9 1.693e+04 1.159e-07
 78.67198      2.5 1.689e+04 1.178e-07
 78.67688      3.0 1.639e+04 8.955e-08
 78.68386      3.9 1.621e+04 8.514e-08
 78.69366      4.0 1.619e+04 8.448e-08
 78.70125      5.1 1.605e+04 7.609e-08
 78.71110      4.3 1.542e+04 4.507e-08
 78.72805      4.3 1.464e+04 2.069e-08
 78.74764      3.3 1.363e+04 9.739e-09
 78.76723      2.5 1.225e+04 7.115e-09
 78.78683      3.0 1.198e+04 7.262e-09
 78.80484      4.0 1.208e+04 7.867e-09
 78.81463      4.9 1.178e+04 5.954e-09
 78.82602      5.8 1.200e+04 6.643e-09
 78.84561      6.4 1.246e+04 8.301e-09
 78.86520      6.5 1.317e+04 1.233e-08
 78.88480      6.7 1.394e+04 2.061e-08
 78.90439      7.3 1.459e+04 3.334e-08
 78.92398      8.2 1.493e+04 4.392e-08
 78.94358      8.8 1.488e+04 4.330e-08
 78.96317      9.4 1.451e+04 3.637e-08
 78.98276      9.5 1.386e+04 2.616e-08
 79.00236      9.4 1.307e+04 1.765e-08
 79.02195      9.1 1.243e+04 1.207e-08
 79.04155      9.0 1.211e+04 8.997e-09
 79.06114      9.7 1.165e+04 6.970e-09
 79.08015     10.3 1.153e+04 6.001e-09
 79.08995     10.5 1.188e+04 7.259e-09
 79.10033     11.2 1.171e+04 6.492e-09
 79.11992     12.2 1.159e+04 5.954e-09
 79.13951     13.2 1.167e+04 5.612e-09
 79.15911     14.2 1.175e+04 5.319e-09
 79.17870     15.1 1.181e+04 5.148e-09
 79.19830     16.1 1.184e+04 5.292e-09
 79.21789     17.1 1.183e+04 5.564e-09
 79.23033     18.3 1.180e+04 5.967e-09
 79.24013     18.2 1.172e+04 5.386e-09
 79.25708     19.3 1.178e+04 5.586e-09
 79.27667     20.2 1.181e+04 6.045e-09
 79.29626     21.2 1.183e+04 6.697e-09
 79.31586     22.3 1.186e+04 7.448e-09
 79.33545     23.3 1.191e+04 8.340e-09
 79.35504     24.4 1.198e+04 9.415e-09
 79.36526     25.3 1.216e+04 1.082e-08
 79.37506     25.9 1.193e+04 9.089e-09
 79.39423     26.6 1.208e+04 1.013e-08
 79.41383     27.2 1.225e+04 1.149e-08
 79.43342     27.8 1.248e+04 1.337e-08
 79.45301     28.2 1.267e+04 1.554e-08
 79.47261     28.8 1.284e+04 1.784e-08
 79.49220     29.4 1.315e+04 1.949e-08
 79.51179     29.9 1.330e+04 2.070e-08
 79.53139     30.4 1.327e+04 2.074e-08
 79.55098     31.0 1.325e+04 1.915e-08
 79.57057     31.6 1.315e+04 1.643e-08
 79.59017     32.2 1.295e+04 1.359e-08
 79.60976     32.8 1.258e+04 1.112e-08
 79.62936     33.5 1.210e+04 9.384e-09
 79.64057     34.3 1.169e+04 8.309e-09
 79.65037     35.3 1.184e+04 9.160e-09
 79.66854     36.1 1.157e+04 8.230e-09
 79.68814     37.0 1.148e+04 8.058e-09
 79.70773     37.7 1.146e+04 8.525e-09
 79.72732     38.2 1.153e+04 9.647e-09
 79.74692     38.8 1.153e+04 1.144e-08
 79.75936     39.5 1.145e+04 1.369e-08
 79.76916     39.0 1.075e+04 1.200e-08
 79.78610     39.9 1.097e+04 1.356e-08
 79.80570     40.5 1.092e+04 1.320e-08
 79.82529     41.1 1.065e+04 1.145e-08
 79.84489     41.5 1.020e+04 8.323e-09
 79.86448     41.5 9.698e+03 5.703e-09
 79.88407     41.6 9.216e+03 3.825e-09
 79.90367     41.5 8.991e+03 3.139e-09
 79.93315     42.0 8.645e+03 2.385e-09
 79.97244     43.3 8.142e+03 1.972e-09
 80.01163     45.4 8.073e+03 1.982e-09
 80.05081     47.7 8.044e+03 2.025e-09
 80.09000     50.2 8.033e+03 2.023e-09
 80.12919     52.9 7.951e+03 1.992e-09
 80.16838     55.8 7.922e+03 1.928e-09
 80.19140     58.8 7.937e+03 1.886e-09
 80.21099     60.1 8.028e+03 2.174e-09
 80.24675     63.1 8.203e+03 2.395e-09
 80.27879     66.0 8.446e+03 2.694e-09
 80.29839     65.6 8.610e+03 3.141e-09
 80.31523     66.8 8.624e+03 3.388e-09
 80.33473     68.1 8.614e+03 3.632e-09
 80.35432     69.8 8.706e+03 4.115e-09
 80.37391     71.4 8.922e+03 4.831e-09
 80.39351     72.7 9.166e+03 5.667e-09
 80.41310     74.1 9.403e+03 6.575e-09
 80.43269     75.7 9.688e+03 7.705e-09
 80.45229     77.1 1.004e+04 9.190e-09
 80.46652     78.3 1.042e+04 1.110e-08
 80.47631     78.5 1.041e+04 1.114e-08
 80.49148     79.8 1.079e+04 1.334e-08
 80.51107     81.0 1.119e+04 1.598e-08
 80.53066     82.2 1.158e+04 1.903e-08
 80.55026     83.5 1.194e+04 2.234e-08
 80.56985     84.6 1.230e+04 2.569e-08
 80.58944     85.7 1.264e+04 2.875e-08
 80.60904     86.7 1.299e+04 3.158e-08
 80.62863     87.5 1.334e+04 3.466e-08
 80.64823     88.2 1.371e+04 3.892e-08
 80.66782     88.9 1.430e+04 4.898e-08
 80.68741     89.4 1.485e+04 6.479e-08
 80.70701     90.1 1.572e+04 9.670e-08
 80.72165     90.4 1.607e+04 1.169e-07
 80.73140     90.7 1.624e+04 1.317e-07
 80.74120     91.2 1.642e+04 1.483e-07
 80.74663     91.7 1.653e+04 1.670e-07
 80.75153     92.2 1.584e+04 1.092e-07
 80.76079     92.7 1.613e+04 1.186e-07
 80.77059     93.2 1.648e+04 1.273e-07
 80.78038     93.3 1.692e+04 1.300e-07
 80.79018     93.2 1.703e+04 1.287e-07
 80.79998     93.3 1.722e+04 1.229e-07
 80.80978     93.3 1.735e+04 1.162e-07
 80.81733     93.3 1.752e+04 1.096e-07
 80.82718     91.7 1.594e+04 4.650e-08
 80.84416     90.8 1.534e+04 3.549e-08
 80.86376     89.7 1.455e+04 2.808e-08
 80.88335     88.9 1.384e+04 2.215e-08
 80.90294     88.3 1.318e+04 1.673e-08
 80.92254     87.8 1.254e+04 1.228e-08
 80.94213     87.3 1.200e+04 8.967e-09
 80.96172     86.9 1.157e+04 6.697e-09
 80.98132     86.4 1.128e+04 5.300e-09
 81.00091     86.2 1.109e+04 4.790e-09
 81.01714     86.4 1.109e+04 4.829e-09
 81.02694     86.9 1.045e+04 3.723e-09
 81.04010     87.5 1.044e+04 3.749e-09
 81.05969     88.3 1.054e+04 3.926e-09
 81.07929     89.0 1.080e+04 4.476e-09
 81.09888     89.7 1.126e+04 5.647e-09
 81.11847     90.3 1.199e+04 8.079e-09
 81.13807     91.1 1.296e+04 1.282e-08
 81.15766     91.8 1.388e+04 2.103e-08
 81.17725     92.8 1.450e+04 3.281e-08
 81.19685     94.1 1.486e+04 4.664e-08
 81.21644     95.5 1.502e+04 5.924e-08
 81.23603     96.9 1.493e+04 6.542e-08
 81.25563     98.4 1.486e+04 6.616e-08
 81.27522     99.7 1.476e+04 6.558e-08
 81.29246    100.9 1.455e+04 6.328e-08
 81.30225    101.6 1.517e+04 6.827e-08
 81.31441    102.8 1.505e+04 6.772e-08
 81.33400    103.8 1.486e+04 6.202e-08
 81.34646    105.0 1.448e+04 5.393e-08
 81.35626    105.4 1.465e+04 3.898e-08
 81.37319    106.7 1.421e+04 3.696e-08
 81.39278    108.0 1.378e+04 3.375e-08
 81.41238    109.4 1.338e+04 3.022e-08
 81.43197    110.9 1.306e+04 2.699e-08
 81.45156    112.4 1.280e+04 2.509e-08
 81.47116    113.9 1.264e+04 2.439e-08
 81.49075    115.4 1.252e+04 2.436e-08
 81.51035    117.1 1.250e+04 2.448e-08
 81.52994    118.9 1.251e+04 2.506e-08
 81.54953    120.4 1.261e+04 2.606e-08
 81.56777    121.9 1.269e+04 2.693e-08
 81.57757    122.8 1.257e+04 2.354e-08
 81.58872    124.4 1.273e+04 2.482e-08
 81.60831    126.0 1.286e+04 2.586e-08
 81.62791    127.3 1.286e+04 2.635e-08
 81.64750    128.6 1.280e+04 2.627e-08
 81.66709    129.7 1.264e+04 2.580e-08
 81.68669    130.7 1.247e+04 2.516e-08
 81.70628    131.7 1.233e+04 2.462e-08
 81.72588    132.7 1.221e+04 2.411e-08
 81.74547    133.8 1.208e+04 2.336e-08
 81.76506    134.8 1.192e+04 2.211e-08
 81.78466    135.7 1.171e+04 2.040e-08
 81.80425    136.7 1.150e+04 1.853e-08
 81.82384    137.7 1.133e+04 1.690e-08
 81.84308    138.7 1.121e+04 1.562e-08
 81.85288    139.6 1.146e+04 1.806e-08
 81.86303    140.5 1.129e+04 1.663e-08
 81.87549    141.7 1.125e+04 1.571e-08
 81.88529    141.8 1.115e+04 1.379e-08
 81.90222    142.9 1.102e+04 1.317e-08
 81.92181    144.2 1.095e+04 1.308e-08
 81.94141    145.8 1.095e+04 1.310e-08
 81.96100    147.4 1.096e+04 1.327e-08
 81.98059    149.0 1.104e+04 1.363e-08
 82.00019    150.6 1.124e+04 1.439e-08
 82.01978    152.3 1.174e+04 1.625e-08
 82.03937    153.2 1.252e+04 2.025e-08
 82.05897    153.4 1.341e+04 2.798e-08
 82.07856    153.6 1.425e+04 4.203e-08
 82.09816    154.0 1.503e+04 6.448e-08
 82.11775    154.4 1.575e+04 8.817e-08
 82.12819    154.5 1.621e+04 9.210e-08
 82.13799    155.9 1.666e+04 1.240e-07
 82.15694    156.0 1.728e+04 1.363e-07
 82.17653    155.4 1.744e+04 1.297e-07
 82.19612    153.9 1.769e+04 9.576e-08
 82.21572    150.7 1.778e+04 4.664e-08
 82.23531    144.3 1.710e+04 1.668e-08
 82.25490    134.8 1.366e+04 7.584e-09
 82.27450    126.3 1.114e+04 7.261e-09
 82.29409    121.0 1.104e+04 7.373e-09
 82.31369    117.6 1.114e+04 8.308e-09
 82.33328    115.2 1.152e+04 1.037e-08
 82.35287    113.4 1.220e+04 1.358e-08
 82.37247    111.6 1.315e+04 1.846e-08
 82.39206    109.7 1.436e+04 2.665e-08
 82.40351    107.2 1.689e+04 5.130e-08
 82.40613    106.6 1.697e+04 6.216e-08
 82.40932    106.3 1.678e+04 5.911e-08
 82.41645    105.1 1.728e+04 8.283e-08
 82.42625    104.2 1.754e+04 1.256e-07
 82.43605    104.1 1.772e+04 2.065e-07
 82.44584    104.2 1.791e+04 3.397e-07
 82.45564    104.3 1.818e+04 4.837e-07
 82.46544    103.5 1.843e+04 5.109e-07
 82.47524    102.1 1.840e+04 4.767e-07
 82.48503    101.1 1.829e+04 3.637e-07
 82.49483    100.5 1.829e+04 2.406e-07
 82.50463     99.6 1.845e+04 1.520e-07
 82.51442     98.2 1.881e+04 1.007e-07
 82.52422     96.4 1.899e+04 7.338e-08
 82.53402     94.4 1.908e+04 6.208e-08
 82.54107     92.4 1.931e+04 5.667e-08
 82.54597     90.8 1.941e+04 8.034e-08
 82.55361     89.9 1.972e+04 7.840e-08
 82.56341     89.2 2.003e+04 7.812e-08
 82.57320     89.3 2.013e+04 7.778e-08
 82.58300     89.0 2.028e+04 7.579e-08
 82.59280     89.3 2.029e+04 7.331e-08
 82.60259     89.2 2.022e+04 6.712e-08
 82.61239     89.8 2.009e+04 6.545e-08
 82.62713     89.9 2.037e+04 7.221e-08
 82.64678     90.6 2.015e+04 7.515e-08
 82.66637     91.6 1.995e+04 8.262e-08
 82.67882     92.9 1.987e+04 9.403e-08
 82.68862     93.8 1.945e+04 9.794e-08
 82.70556     95.2 1.920e+04 1.022e-07
 82.72515     96.7 1.903e+04 1.080e-07
 82.74475     98.3 1.897e+04 1.152e-07
 82.76434     99.4 1.871e+04 1.271e-07
 82.78393    100.2 1.844e+04 1.306e-07
 82.80353    101.2 1.793e+04 1.290e-07
 82.82312    102.4 1.736e+04 1.202e-07
 82.84271    103.5 1.686e+04 1.074e-07
 82.86231    104.7 1.635e+04 9.188e-08
 82.88190    106.3 1.581e+04 7.521e-08
 82.90149    108.2 1.531e+04 6.074e-08
 82.92109    110.1 1.489e+04 4.941e-08
 82.93356    111.7 1.448e+04 4.068e-08
 82.94335    110.9 1.462e+04 3.896e-08
 82.95414    112.5 1.413e+04 3.185e-08
 82.96393    113.4 1.420e+04 3.347e-08
 82.97987    115.1 1.379e+04 2.764e-08
 82.99946    116.9 1.354e+04 2.429e-08
 83.01906    118.3 1.337e+04 2.257e-08
 83.03865    119.7 1.328e+04 2.185e-08
 83.05824    121.4 1.326e+04 2.216e-08
 83.07784    123.0 1.332e+04 2.356e-08
 83.09743    124.4 1.349e+04 2.596e-08
 83.11702    125.7 1.366e+04 2.903e-08
 83.13662    127.2 1.385e+04 3.278e-08
 83.15621    128.6 1.409e+04 3.724e-08
 83.17581    129.9 1.431e+04 4.195e-08
 83.19540    131.2 1.446e+04 4.587e-08
 83.21499    132.4 1.453e+04 4.829e-08
 83.22945    133.6 1.452e+04 4.885e-08
 83.23925    133.8 1.488e+04 4.734e-08
 83.25418    135.1 1.488e+04 4.876e-08
 83.27377    136.4 1.489e+04 5.003e-08
 83.29337    137.5 1.491e+04 5.159e-08
 83.31296    138.8 1.499e+04 5.420e-08
 83.33256    140.3 1.520e+04 5.963e-08
 83.35215    141.6 1.555e+04 6.920e-08
 83.37174    142.6 1.593e+04 8.283e-08
 83.39134    143.8 1.628e+04 1.002e-07
 83.41093    145.3 1.661e+04 1.196e-07
 83.43052    146.6 1.689e+04 1.349e-07
 83.45012    147.7 1.696e+04 1.367e-07
 83.46259    149.0 1.694e+04 1.339e-07
 83.47238    148.8 1.678e+04 1.227e-07
 83.48930    150.4 1.652e+04 1.058e-07
 83.50476    151.8 1.626e+04 8.742e-08
 83.51456    150.6 1.576e+04 6.579e-08
 83.52849    151.6 1.522e+04 5.181e-08
 83.54809    152.6 1.464e+04 4.232e-08
 83.56768    153.8 1.417e+04 3.671e-08
 83.58727    154.9 1.385e+04 3.338e-08
 83.60687    156.0 1.363e+04 3.118e-08
 83.62646    157.4 1.348e+04 2.988e-08
 83.64605    158.8 1.340e+04 2.930e-08
 83.66565    159.9 1.330e+04 2.945e-08
 83.68524    160.9 1.328e+04 2.976e-08
 83.70483    161.8 1.326e+04 3.067e-08
 83.72443    162.6 1.334e+04 3.235e-08
 83.74402    163.4 1.356e+04 3.521e-08
 83.76362    164.3 1.397e+04 4.002e-08
 83.78008    165.1 1.449e+04 4.770e-08
 83.78987    164.9 1.396e+04 3.831e-08
 83.80280    165.9 1.450e+04 4.720e-08
 83.82240    166.8 1.500e+04 5.778e-08
 83.84199    167.7 1.537e+04 6.863e-08
 83.86158    168.5 1.565e+04 7.661e-08
 83.88118    169.4 1.578e+04 8.162e-08
 83.90077    170.5 1.587e+04 8.417e-08
 83.92036    171.8 1.595e+04 8.455e-08
 83.93996    173.2 1.596e+04 8.373e-08
 83.95955    174.5 1.589e+04 8.236e-08
 83.97915    176.3 1.584e+04 8.259e-08
 83.99162    178.2 1.590e+04 8.555e-08
 83.99647    177.5 1.588e+04 8.882e-08
 84.00354    178.4 1.594e+04 9.085e-08
 84.01334    179.2 1.607e+04 9.341e-08
 84.02313    179.7 1.612e+04 9.513e-08
 84.03293    180.2 1.603e+04 9.440e-08
 84.04273    181.1 1.588e+04 9.314e-08
 84.05252    182.3 1.583e+04 9.315e-08
 84.06019    183.6 1.589e+04 9.583e-08
 84.06509    183.5 1.582e+04 7.160e-08
 84.07212    184.7 1.605e+04 7.590e-08
 84.08191    185.5 1.635e+04 8.166e-08
 84.09171    185.8 1.649e+04 8.683e-08
 84.10151    186.1 1.636e+04 8.767e-08
 84.11131    186.8 1.627e+04 8.828e-08
 84.12110    187.8 1.625e+04 9.012e-08
 84.13090    188.8 1.642e+04 9.654e-08
 84.14070    189.5 1.682e+04 1.069e-07
 84.15049    190.0 1.721e+04 1.191e-07
 84.16029    190.2 1.747e+04 1.309e-07
 84.17009    190.4 1.766e+04 1.432e-07
 84.17988    190.5 1.792e+04 1.594e-07
 84.18968    190.6 1.830e+04 1.822e-07
 84.19785    190.7 1.870e+04 2.102e-07
 84.20275    190.7 1.809e+04 1.440e-07
 84.20927    190.9 1.832e+04 1.521e-07
 84.21907    191.1 1.849e+04 1.540e-07
 84.22887    191.5 1.855e+04 1.524e-07
 84.23866    192.1 1.863e+04 1.449e-07
 84.24846    192.8 1.868e+04 1.322e-07
 84.25604    193.4 1.896e+04 1.165e-07
 84.26094    195.4 1.839e+04 1.213e-07
 84.26805    196.0 1.904e+04 1.057e-07
 84.27785    196.2 1.969e+04 9.929e-08
 84.28765    195.9 2.100e+04 9.800e-08
 84.29744    194.5 2.339e+04 1.057e-07
 84.30724    191.8 2.482e+04 1.425e-07
 84.31704    187.7 2.264e+04 3.241e-07
 84.32684    183.0 1.897e+04 1.381e-06
 84.33551    178.4 1.706e+04 6.041e-06
 84.34040    174.9 1.829e+04 2.939e-06
 84.34643    169.1 1.737e+04 6.277e-06
 84.35623    163.1 1.737e+04 6.200e-06
 84.36602    158.3 1.772e+04 3.971e-06
 84.37582    155.4 1.864e+04 1.234e-06
 84.39056    150.8 2.143e+04 1.225e-07
 84.41021    142.2 1.534e+04 7.633e-09
 84.42980    135.5 9.643e+03 4.875e-09
 84.44939    135.2 8.596e+03 4.423e-09
 84.46899    136.0 8.504e+03 4.336e-09
 84.48858    137.6 8.509e+03 4.352e-09
 84.50817    139.2 8.549e+03 4.451e-09
 84.52065    140.5 8.608e+03 4.604e-09
 84.53045    140.8 8.218e+03 3.633e-09
 84.54736    141.9 8.329e+03 3.930e-09
 84.56696    143.2 8.460e+03 4.313e-09
 84.58655    144.5 8.634e+03 4.803e-09
 84.60602    146.1 8.814e+03 5.405e-09
 84.61582    146.6 8.822e+03 5.459e-09
 84.62574    148.3 9.022e+03 6.248e-09
 84.64533    150.1 9.313e+03 7.392e-09
 84.66492    151.9 9.975e+03 9.505e-09
 84.68452    153.6 1.155e+04 1.405e-08
 84.70411    154.3 1.260e+04 1.924e-08
 84.71876    153.7 1.309e+04 2.300e-08
 84.72851    153.1 1.341e+04 2.756e-08
 84.73830    151.8 1.449e+04 3.322e-08
 84.74810    147.1 1.836e+04 5.164e-08
 84.75338    138.4 2.210e+04 1.817e-07
 84.75827    139.2 2.172e+04 1.619e-07
 84.76769    128.6 2.064e+04 8.882e-07
 84.77749    120.5 1.893e+04 2.326e-06
 84.78507    114.7 1.861e+04 2.476e-06
 84.78997    111.0 1.826e+04 2.474e-06
 84.79708    109.1 1.866e+04 1.326e-06
 84.80688    108.1 1.983e+04 4.491e-07
 84.81668    105.9 2.161e+04 1.193e-07
 84.82647    102.6 2.167e+04 3.708e-08
 84.84122    102.1 1.901e+04 4.436e-08
 84.86086     99.1 1.512e+04 3.449e-08
 84.88045     99.4 1.427e+04 3.497e-08
 84.89113    100.4 1.413e+04 3.451e-08
 84.90093     99.8 1.434e+04 3.521e-08
 84.91964    101.0 1.431e+04 3.414e-08
 84.93923    102.2 1.408e+04 2.946e-08
 84.95883    103.3 1.365e+04 2.234e-08
 84.97842    104.0 1.310e+04 1.562e-08
 84.99802    104.7 1.251e+04 1.066e-08
 85.01761    105.4 1.199e+04 7.576e-09
 85.03720    106.3 1.159e+04 5.738e-09
 85.04968    107.4 1.123e+04 4.775e-09
 85.05948    107.3 1.149e+04 5.555e-09
 85.07639    108.8 1.131e+04 5.246e-09
 85.09598    110.5 1.127e+04 5.216e-09
 85.11558    112.2 1.126e+04 5.243e-09
 85.13517    113.6 1.126e+04 5.309e-09
 85.15476    115.0 1.127e+04 5.427e-09
 85.16644    116.4 1.130e+04 5.614e-09
 85.17624    116.8 1.130e+04 5.607e-09
 85.19395    118.1 1.134e+04 5.957e-09
 85.21355    119.3 1.138e+04 6.388e-09
 85.23314    120.5 1.143e+04 6.808e-09
 85.25273    121.7 1.147e+04 7.182e-09
 85.27233    123.0 1.148e+04 7.495e-09
 85.29192    124.1 1.147e+04 7.750e-09
 85.31151    125.2 1.141e+04 7.923e-09
 85.33111    126.2 1.133e+04 8.020e-09
 85.35070    127.1 1.124e+04 8.069e-09
 85.37029    127.8 1.120e+04 8.100e-09
 85.38989    128.5 1.117e+04 8.171e-09
 85.40948    129.1 1.117e+04 8.277e-09
 85.42908    129.6 1.119e+04 8.434e-09
 85.44176    130.0 1.126e+04 8.750e-09
 85.45155    130.3 1.178e+04 1.206e-08
 85.46826    130.4 1.187e+04 1.262e-08
 85.48786    130.4 1.201e+04 1.349e-08
 85.50745    130.4 1.221e+04 1.478e-08
 85.52704    130.3 1.246e+04 1.650e-08
 85.54664    130.0 1.268e+04 1.823e-08
 85.56623    129.5 1.280e+04 1.921e-08
 85.57872    128.8 1.285e+04 1.951e-08
 85.58851    128.4 1.279e+04 1.914e-08
 85.60542    127.4 1.288e+04 1.975e-08
 85.62501    126.4 1.303e+04 2.107e-08
 85.64461    125.5 1.312e+04 2.275e-08
 85.66420    124.7 1.310e+04 2.283e-08
 85.68379    124.1 1.294e+04 2.182e-08
 85.70339    123.7 1.247e+04 1.805e-08
 85.71707    123.5 1.182e+04 1.249e-08
 85.72687    124.5 1.230e+04 1.622e-08
 85.74257    124.2 1.162e+04 1.084e-08
 85.76217    123.7 1.090e+04 6.554e-09
 85.78176    123.0 1.026e+04 3.958e-09
 85.81125    123.1 1.007e+04 3.403e-09
 85.85053    122.9 9.413e+03 2.388e-09
 85.88972    123.2 9.247e+03 2.352e-09
 85.92891    123.7 9.228e+03 2.411e-09
 85.96810    124.4 9.260e+03 2.615e-09
 86.00728    125.0 9.335e+03 2.708e-09
 86.04647    125.6 9.340e+03 2.645e-09
 86.08566    126.2 9.335e+03 2.397e-09
 86.12485    127.0 9.310e+03 2.101e-09
 86.16403    128.1 9.304e+03 2.065e-09
 86.20322    129.7 9.365e+03 2.143e-09
 86.24241    131.5 9.609e+03 2.505e-09
 86.26789    132.5 9.838e+03 2.991e-09
 86.27759    132.5 9.839e+03 2.957e-09
 86.29120    133.1 9.964e+03 3.303e-09
 86.31079    133.8 1.021e+04 4.026e-09
 86.33038    134.6 1.055e+04 5.094e-09
 86.34998    135.3 1.095e+04 6.502e-09
 86.36957    135.7 1.135e+04 8.284e-09
 86.38916    136.0 1.174e+04 1.047e-08
 86.40876    136.2 1.210e+04 1.295e-08
 86.42835    136.3 1.242e+04 1.544e-08
 86.44795    136.2 1.271e+04 1.737e-08
 86.46754    136.1 1.296e+04 1.806e-08
 86.48713    135.6 1.298e+04 1.769e-08
 86.50673    135.0 1.295e+04 1.606e-08
 86.52632    134.5 1.275e+04 1.303e-08
 86.54301    133.9 1.243e+04 9.705e-09
 86.55281    134.1 1.249e+04 1.046e-08
 86.56551    133.5 1.210e+04 7.113e-09
 86.58510    132.8 1.174e+04 4.893e-09
 86.60469    132.1 1.137e+04 3.894e-09
 86.62429    132.0 1.101e+04 3.751e-09
 86.63678    132.0 1.097e+04 3.759e-09
 86.64658    131.1 1.117e+04 4.130e-09
 86.66348    131.5 1.109e+04 4.249e-09
 86.68307    131.9 1.104e+04 4.385e-09
 86.70266    132.3 1.103e+04 4.484e-09
 86.72226    132.5 1.096e+04 4.548e-09
 86.74185    132.6 1.091e+04 4.550e-09
 86.76144    132.7 1.081e+04 4.569e-09
 86.78104    132.8 1.078e+04 4.590e-09
 86.80063    132.9 1.074e+04 4.674e-09
 86.81833    133.0 1.070e+04 4.892e-09
 86.82812    132.4 1.084e+04 5.292e-09
 86.83982    132.5 1.083e+04 5.610e-09
 86.85941    132.5 1.085e+04 6.077e-09
 86.87901    132.4 1.090e+04 6.713e-09
 86.89860    132.3 1.097e+04 7.439e-09
 86.91819    132.0 1.105e+04 8.116e-09
 86.93779    131.7 1.112e+04 8.558e-09
 86.95738    131.3 1.115e+04 8.785e-09
 86.97697    131.0 1.115e+04 8.864e-09
 86.99657    130.8 1.120e+04 9.201e-09
 87.01616    130.6 1.134e+04 1.011e-08
 87.03575    130.3 1.161e+04 1.197e-08
 87.05535    130.1 1.201e+04 1.509e-08
 87.07494    130.0 1.247e+04 1.935e-08
 87.09364    129.9 1.290e+04 2.388e-08
 87.10344    129.1 1.310e+04 2.508e-08
 87.11413    128.9 1.323e+04 2.598e-08
 87.13372    128.6 1.323e+04 2.563e-08
 87.15332    128.1 1.313e+04 2.418e-08
 87.16581    127.3 1.312e+04 2.209e-08
 87.17561    125.6 1.314e+04 2.027e-08
 87.19250    124.2 1.311e+04 1.966e-08
 87.21210    122.4 1.317e+04 2.022e-08
 87.23169    119.6 1.350e+04 2.356e-08
 87.25129    115.4 1.456e+04 3.674e-08
 87.27088    111.2 1.578e+04 6.229e-08
 87.29047    106.8 1.657e+04 8.101e-08
 87.31007    101.9 1.661e+04 7.722e-08
 87.32966     97.0 1.628e+04 5.648e-08
 87.34925     90.8 1.539e+04 2.589e-08
 87.36885     82.9 1.356e+04 9.919e-09
 87.37875     75.8 1.108e+04 4.571e-09
 87.38855     77.4 1.156e+04 4.793e-09
 87.40803     72.4 1.051e+04 3.100e-09
 87.42763     69.0 1.065e+04 3.179e-09
 87.44722     64.8 1.133e+04 3.751e-09
 87.46682     60.3 1.189e+04 5.924e-09
 87.48641     56.9 1.201e+04 9.655e-09
 87.50600     54.9 1.208e+04 1.318e-08
 87.52560     53.3 1.217e+04 1.446e-08
 87.54519     51.6 1.217e+04 1.391e-08
 87.56478     49.8 1.207e+04 1.231e-08
 87.58438     47.8 1.204e+04 1.172e-08
 87.60397     45.7 1.217e+04 1.238e-08
 87.62356     43.1 1.265e+04 1.569e-08
 87.64316     40.3 1.343e+04 2.444e-08
 87.65407     38.5 1.415e+04 3.894e-08
 87.66386     39.6 1.465e+04 4.355e-08
 87.67740     38.1 1.476e+04 5.108e-08
 87.68715     37.9 1.467e+04 5.152e-08
 87.69479     37.2 1.471e+04 5.255e-08
 87.70464     37.4 1.454e+04 4.861e-08
 87.72153     36.5 1.397e+04 3.974e-08
 87.74113     34.9 1.323e+04 2.757e-08
 87.76072     32.3 1.247e+04 2.004e-08
 87.78031     30.2 1.213e+04 1.896e-08
 87.79991     28.6 1.220e+04 1.992e-08
 87.81950     27.2 1.249e+04 2.291e-08
 87.83909     25.8 1.292e+04 2.692e-08
 87.85869     24.5 1.339e+04 3.214e-08
 87.87828     23.1 1.375e+04 3.673e-08
 87.89788     21.6 1.392e+04 3.836e-08
 87.91747     19.7 1.385e+04 3.672e-08
 87.92938     17.4 1.348e+04 3.129e-08
 87.93918     15.7 1.250e+04 2.183e-08
 87.95666      9.0 1.361e+04 2.207e-08
 87.97625     -1.4 1.518e+04 3.990e-08
 87.99584     -7.5 1.595e+04 7.243e-08
 88.01544    -11.2 1.646e+04 8.924e-08
 88.03503    -14.4 1.546e+04 7.241e-08
 88.05462    -15.9 1.382e+04 3.589e-08
 88.07422    -18.1 1.219e+04 1.415e-08
 88.09381    -21.2 1.047e+04 6.321e-09
 88.11341    -21.9 9.657e+03 4.342e-09
 88.13300    -21.6 9.453e+03 3.313e-09
 88.15259    -21.5 9.330e+03 2.575e-09
 88.17219    -21.4 9.287e+03 2.373e-09
 88.20167    -22.0 9.049e+03 2.147e-09
 88.24096    -21.6 8.851e+03 2.040e-09
 88.28015    -21.2 8.830e+03 2.140e-09
 88.31933    -21.1 9.001e+03 2.462e-09
 88.35852    -21.7 9.166e+03 3.148e-09
 88.38781    -22.2 9.028e+03 3.888e-09
 88.40731    -21.2 9.365e+03 4.739e-09
 88.42690    -20.9 9.521e+03 4.992e-09
 88.44650    -20.8 9.573e+03 4.667e-09
 88.46609    -21.2 9.583e+03 4.133e-09
 88.48001    -22.0 9.550e+03 3.707e-09
 88.48980    -21.9 9.496e+03 3.632e-09
 88.50528    -22.7 9.458e+03 3.424e-09
 88.52487    -23.4 9.459e+03 3.438e-09
 88.54447    -23.9 9.540e+03 3.850e-09
 88.56406    -24.1 9.734e+03 4.408e-09
 88.58365    -24.4 9.982e+03 5.084e-09
 88.60325    -24.7 1.019e+04 5.879e-09
 88.62284    -25.0 1.037e+04 6.665e-09
 88.64243    -25.1 1.049e+04 7.148e-09
 88.66203    -25.2 1.053e+04 7.266e-09
 88.68162    -25.2 1.052e+04 7.033e-09
 88.70122    -25.2 1.052e+04 6.706e-09
 88.72081    -25.2 1.054e+04 6.541e-09
 88.74040    -25.4 1.078e+04 6.810e-09
 88.75291    -27.2 1.179e+04 9.386e-09
 88.75803    -25.5 1.058e+04 6.035e-09
 88.76512    -24.4 1.039e+04 5.423e-09
 88.77959    -27.8 1.241e+04 9.369e-09
 88.79424    -32.9 1.486e+04 1.954e-08
 88.80398    -37.8 1.828e+04 3.371e-08
 88.81378    -43.3 1.953e+04 1.303e-07
 88.82358    -46.2 1.915e+04 3.905e-07
 88.83337    -47.1 1.873e+04 7.977e-07
 88.84317    -47.8 1.860e+04 9.600e-07
 88.85297    -48.3 1.865e+04 6.491e-07
 88.86277    -48.6 1.871e+04 2.609e-07
 88.87256    -50.9 1.818e+04 8.192e-08
 88.88236    -54.7 1.609e+04 3.385e-08
 88.89710    -56.5 1.475e+04 2.226e-08
 88.91675    -58.3 1.271e+04 1.049e-08
 88.93634    -58.6 1.201e+04 7.569e-09
 88.95593    -58.0 1.183e+04 6.948e-09
 88.97553    -57.2 1.184e+04 6.902e-09
 88.99512    -56.7 1.203e+04 7.753e-09
 89.01471    -56.3 1.220e+04 9.171e-09
 89.03063    -55.9 1.233e+04 1.078e-08
 89.04043    -56.3 1.299e+04 1.748e-08
 89.05390    -55.9 1.308e+04 1.922e-08
 89.07349    -55.5 1.307e+04 1.950e-08
 89.09309    -55.0 1.276e+04 1.732e-08
 89.11268    -54.7 1.234e+04 1.286e-08
 89.13228    -54.8 1.190e+04 8.707e-09
 89.15187    -55.2 1.142e+04 6.001e-09
 89.17146    -55.5 1.089e+04 4.535e-09
 89.19106    -55.6 1.045e+04 3.821e-09
 89.21065    -55.3 1.033e+04 3.294e-09
 89.23024    -55.0 1.027e+04 2.918e-09
 89.24984    -54.7 1.023e+04 2.723e-09
 89.26943    -54.5 1.023e+04 2.687e-09
 89.28194    -54.4 1.029e+04 2.714e-09
 89.29174    -53.0 1.019e+04 2.557e-09
 89.30595    -53.0 1.027e+04 2.702e-09
 89.31575    -53.6 1.040e+04 2.896e-09
 89.32821    -55.4 1.130e+04 4.225e-09
 89.34781    -58.2 1.253e+04 8.485e-09
 89.36740    -60.3 1.344e+04 1.815e-08
 89.38699    -61.4 1.407e+04 3.145e-08
 89.40659    -62.2 1.433e+04 3.823e-08
 89.42618    -63.6 1.425e+04 3.586e-08
 89.44577    -65.4 1.387e+04 2.506e-08
 89.46537    -68.6 1.331e+04 1.431e-08
 89.48496    -72.5 1.283e+04 9.453e-09
 89.50455    -76.3 1.258e+04 8.227e-09
 89.52415    -79.3 1.252e+04 8.018e-09
 89.54374    -81.4 1.241e+04 8.585e-09
 89.57156    -83.2 1.245e+04 9.205e-09
 89.59125    -86.2 1.205e+04 7.866e-09
 89.61252    -88.8 1.163e+04 7.054e-09
 89.65170    -90.3 1.076e+04 4.095e-09
 89.69089    -91.3 1.010e+04 2.626e-09
 89.73008    -91.9 9.942e+03 2.399e-09
 89.76926    -92.5 9.947e+03 2.665e-09
 89.80137    -93.1 1.021e+04 4.349e-09
 89.82096    -94.2 1.021e+04 4.941e-09
 89.84764    -94.6 1.031e+04 6.370e-09
 89.87693    -94.6 1.038e+04 7.003e-09
 89.89643    -94.5 1.033e+04 7.021e-09
 89.91602    -94.4 1.010e+04 6.643e-09
 89.93562    -94.2 9.839e+03 5.886e-09
 89.95521    -94.0 9.607e+03 5.277e-09
 89.97480    -93.5 9.445e+03 4.887e-09
 89.99440    -92.9 9.358e+03 4.715e-09
 90.01399    -92.2 9.341e+03 4.701e-09
 90.03358    -91.4 9.345e+03 4.841e-09
 90.05318    -90.5 9.370e+03 5.014e-09
 90.08267    -89.9 9.304e+03 4.866e-09
 90.12195    -88.3 9.379e+03 5.457e-09
 90.14188    -86.7 9.515e+03 6.084e-09
 90.16148    -87.8 9.366e+03 5.488e-09
 90.20032    -86.3 9.370e+03 5.661e-09
 90.23951    -84.5 9.186e+03 5.564e-09
 90.27870    -82.5 8.816e+03 4.643e-09
 90.31789    -80.5 8.456e+03 3.660e-09
 90.35707    -78.4 8.147e+03 2.824e-09
 90.39626    -76.3 7.884e+03 2.115e-09
 90.43545    -74.4 7.584e+03 1.660e-09
 90.47464    -72.6 7.456e+03 1.399e-09
 90.51382    -71.2 7.441e+03 1.334e-09
 90.55301    -70.7 7.785e+03 1.507e-09
 90.59220    -70.7 8.386e+03 2.335e-09
 90.63139    -70.8 8.874e+03 3.322e-09
 90.67057    -71.6 9.092e+03 3.865e-09
 90.69251    -72.8 9.044e+03 3.889e-09
 90.71210    -73.8 8.877e+03 4.377e-09
 90.74895    -73.7 8.226e+03 2.908e-09
 90.78813    -73.5 7.756e+03 1.780e-09
 90.82732    -73.4 7.649e+03 1.518e-09
 90.85943    -73.4 7.647e+03 1.510e-09
 90.87903    -73.1 7.642e+03 1.512e-09
 90.90570    -73.7 8.066e+03 2.355e-09
 90.94488    -74.2 8.938e+03 4.752e-09
 90.98407    -74.6 9.723e+03 7.978e-09
 91.02326    -75.5 1.014e+04 9.865e-09
 91.06245    -77.0 1.016e+04 9.959e-09
 91.10163    -78.1 9.818e+03 8.191e-09
 91.14082    -78.9 9.647e+03 7.047e-09
 91.18001    -79.6 9.687e+03 6.993e-09
 91.21919    -80.4 1.031e+04 8.993e-09
 91.24314    -81.1 1.113e+04 1.397e-08
 91.26273    -81.8 1.108e+04 1.048e-08
 91.28767    -82.1 1.163e+04 1.638e-08
 91.30717    -82.4 1.207e+04 2.087e-08
 91.32676    -82.7 1.240e+04 2.488e-08
 91.34636    -83.0 1.255e+04 2.636e-08
 91.36595    -83.3 1.252e+04 2.622e-08
 91.38555    -83.4 1.219e+04 2.244e-08
 91.39807    -83.5 1.164e+04 1.727e-08
 91.40786    -83.6 1.165e+04 1.564e-08
 91.42473    -84.0 1.098e+04 1.085e-08
 91.44433    -84.2 1.050e+04 8.355e-09
 91.46392    -84.0 1.029e+04 7.200e-09
 91.49341    -83.7 1.007e+04 5.943e-09
 91.53269    -82.5 9.475e+03 3.542e-09
 91.57188    -81.6 9.204e+03 2.299e-09
 91.61107    -80.2 9.170e+03 1.651e-09
 91.65025    -79.3 9.212e+03 1.547e-09
 91.68944    -79.1 9.400e+03 1.625e-09
 91.72863    -79.8 1.024e+04 3.153e-09
 91.76782    -81.1 1.121e+04 6.912e-09
 91.79377    -83.6 1.218e+04 1.071e-08
 91.81336    -84.8 1.228e+04 1.061e-08
 91.83630    -86.3 1.233e+04 9.834e-09
 91.85579    -88.1 1.255e+04 1.031e-08
 91.87539    -90.7 1.253e+04 1.032e-08
 91.89498    -92.4 1.229e+04 9.896e-09
 91.91457    -93.6 1.193e+04 8.038e-09
 91.92710    -94.5 1.158e+04 6.357e-09
 91.93690    -93.2 1.181e+04 6.884e-09
 91.95376    -94.1 1.143e+04 5.749e-09
 91.97335    -94.6 1.135e+04 5.011e-09
 91.99295    -95.2 1.131e+04 4.662e-09
 92.01254    -95.7 1.131e+04 4.601e-09
 92.03214    -96.2 1.138e+04 4.764e-09
 92.05173    -96.7 1.150e+04 5.478e-09
 92.06888    -97.0 1.158e+04 6.380e-09
 92.07868    -97.3 1.146e+04 5.101e-09
 92.09092    -97.7 1.148e+04 5.669e-09
 92.11051    -98.1 1.150e+04 6.244e-09
 92.13010    -98.4 1.154e+04 6.749e-09
 92.14970    -98.8 1.156e+04 7.121e-09
 92.16929    -99.1 1.156e+04 7.353e-09
 92.18888    -99.4 1.155e+04 7.472e-09
 92.20848    -99.6 1.156e+04 7.576e-09
 92.22807    -99.8 1.162e+04 7.709e-09
 92.24767   -100.1 1.172e+04 7.930e-09
 92.26726   -100.3 1.187e+04 8.318e-09
 92.28685   -100.5 1.204e+04 8.909e-09
 92.31634   -101.1 1.223e+04 9.679e-09
 92.34439   -102.2 1.240e+04 9.917e-09
 92.36399   -102.0 1.169e+04 5.364e-09
 92.39481   -102.7 1.201e+04 6.327e-09
 92.43400   -103.3 1.227e+04 8.478e-09
 92.47319   -103.8 1.237e+04 1.039e-08
 92.51238   -104.2 1.233e+04 1.085e-08
 92.55156   -104.3 1.203e+04 9.586e-09
 92.59075   -104.1 1.166e+04 7.608e-09
 92.62994   -103.7 1.132e+04 6.247e-09
 92.66912   -103.2 1.111e+04 5.690e-09
 92.70831   -102.6 1.093e+04 5.329e-09
 92.74750   -101.9 1.067e+04 4.549e-09
 92.78669   -101.0 1.036e+04 3.340e-09
 92.82587   -100.2 1.007e+04 2.212e-09
 92.86506    -99.6 9.837e+03 1.503e-09
 92.89502    -99.1 9.625e+03 1.177e-09
 92.91461    -99.0 9.465e+03 1.127e-09
 92.94344    -98.3 9.353e+03 1.051e-09
 92.97556    -97.6 9.274e+03 1.004e-09
 92.99515    -97.0 9.341e+03 1.033e-09
 93.02181    -96.1 9.189e+03 9.306e-10
 93.06100    -95.0 9.062e+03 7.701e-10
 93.10018    -93.7 8.989e+03 6.021e-10
 93.13937    -92.1 8.941e+03 4.820e-10
 93.17856    -90.5 8.864e+03 4.249e-10
 93.21775    -88.6 8.806e+03 4.120e-10
 93.25693    -86.6 8.783e+03 4.101e-10
 93.29612    -84.4 8.691e+03 4.224e-10
 93.33531    -82.2 8.649e+03 4.436e-10
 93.37450    -80.0 8.662e+03 4.621e-10
 93.41368    -77.9 8.741e+03 4.895e-10
 93.44565    -76.1 8.889e+03 5.639e-10
 93.46524    -76.4 8.896e+03 5.109e-10
 93.49206    -74.9 8.996e+03 7.316e-10
 93.53125    -73.3 9.037e+03 1.073e-09
 93.57043    -71.7 9.049e+03 1.386e-09
 93.60962    -70.3 9.013e+03 1.507e-09
 93.64881    -69.0 8.979e+03 1.513e-09
 93.68799    -67.5 8.865e+03 1.383e-09
 93.72718    -66.0 8.770e+03 1.233e-09
 93.76637    -64.4 8.758e+03 1.124e-09
 93.80556    -62.7 8.810e+03 1.087e-09
 93.84474    -60.9 8.919e+03 1.090e-09
 93.88393    -59.5 9.160e+03 1.193e-09
 93.92312    -59.1 9.429e+03 1.865e-09
 93.96231    -59.0 9.952e+03 3.844e-09
 93.99628    -58.8 1.078e+04 7.804e-09
 94.01587    -57.4 1.081e+04 8.167e-09
 94.03362    -57.4 1.150e+04 1.289e-08
 94.05312    -57.7 1.194e+04 1.648e-08
 94.06988    -57.8 1.233e+04 2.041e-08
 94.08947    -57.4 1.267e+04 2.313e-08
 94.10906    -57.2 1.275e+04 2.381e-08
 94.12866    -56.9 1.277e+04 2.170e-08
 94.14825    -56.4 1.256e+04 1.626e-08
 94.16784    -56.2 1.237e+04 1.177e-08
 94.18744    -56.1 1.207e+04 8.782e-09
 94.20703    -56.0 1.158e+04 7.011e-09
 94.22662    -55.9 1.116e+04 6.143e-09
 94.24622    -55.7 1.095e+04 5.756e-09
 94.26581    -55.5 1.085e+04 5.550e-09
 94.28119    -55.4 1.083e+04 5.504e-09
 94.29099    -54.8 1.113e+04 6.377e-09
 94.30500    -55.2 1.109e+04 6.300e-09
 94.32459    -56.0 1.130e+04 6.655e-09
 94.34419    -57.3 1.152e+04 8.275e-09
 94.36378    -58.8 1.175e+04 1.081e-08
 94.38337    -60.1 1.198e+04 1.386e-08
 94.40297    -61.0 1.222e+04 1.629e-08
 94.42256    -61.7 1.253e+04 1.721e-08
 94.44215    -62.9 1.285e+04 1.738e-08
 94.46175    -64.8 1.333e+04 1.742e-08
 94.48134    -67.3 1.382e+04 1.772e-08
 94.50094    -69.5 1.377e+04 1.979e-08
 94.52053    -70.8 1.347e+04 2.161e-08
 94.54012    -71.2 1.302e+04 2.209e-08
 94.55651    -71.2 1.245e+04 1.987e-08
 94.56630    -70.2 1.297e+04 2.298e-08
 94.57226    -70.2 1.268e+04 1.858e-08
 94.58205    -70.9 1.202e+04 1.411e-08
 94.59890    -71.5 1.174e+04 1.045e-08
 94.61850    -72.2 1.164e+04 9.051e-09
 94.63809    -74.6 1.233e+04 8.931e-09
 94.65768    -80.9 1.755e+04 1.493e-08
 94.67728    -85.2 1.834e+04 6.125e-08
 94.69687    -85.9 1.792e+04 1.661e-07
 94.71152    -86.2 1.786e+04 2.893e-07
 94.72127    -86.1 1.756e+04 2.652e-07
 94.73601    -86.1 1.727e+04 2.008e-07
 94.75565    -87.3 1.685e+04 1.264e-07
 94.77525    -90.2 1.672e+04 7.392e-08
 94.79484    -94.8 1.675e+04 6.153e-08
 94.81443    -99.6 1.680e+04 6.338e-08
 94.83182   -103.8 1.673e+04 7.373e-08
 94.84162   -103.2 1.547e+04 3.548e-08
 94.85362   -107.1 1.539e+04 4.127e-08
 94.87321   -110.1 1.518e+04 4.404e-08
 94.89281   -112.0 1.460e+04 4.269e-08
 94.91240   -113.3 1.408e+04 3.734e-08
 94.93200   -114.2 1.383e+04 3.426e-08
 94.95159   -114.9 1.376e+04 3.369e-08
 94.97118   -115.2 1.371e+04 3.411e-08
 94.99078   -115.3 1.377e+04 3.699e-08
 95.01037   -115.2 1.392e+04 4.016e-08
 95.02996   -114.7 1.402e+04 4.248e-08
 95.04956   -114.4 1.400e+04 4.223e-08
 95.06915   -114.3 1.385e+04 3.812e-08
 95.08875   -115.3 1.361e+04 3.259e-08
 95.10129   -116.8 1.326e+04 2.780e-08
 95.10988   -114.1 1.465e+04 4.576e-08
 95.11693   -113.8 1.449e+04 4.032e-08
 95.12793   -115.8 1.402e+04 3.419e-08
 95.14753   -117.9 1.354e+04 3.017e-08
 95.16712   -119.8 1.338e+04 2.930e-08
 95.18671   -121.8 1.342e+04 2.995e-08
 95.20631   -123.9 1.366e+04 3.205e-08
 95.22590   -126.2 1.403e+04 3.609e-08
 95.24549   -128.5 1.432e+04 3.986e-08
 95.26509   -130.8 1.439e+04 4.109e-08
 95.28468   -133.2 1.418e+04 3.711e-08
 95.30428   -135.5 1.352e+04 2.651e-08
 95.32387   -137.9 1.257e+04 1.671e-08
 95.34346   -140.4 1.165e+04 1.093e-08
 95.36306   -142.6 1.125e+04 8.810e-09
 95.38245   -144.3 1.119e+04 8.454e-09
 95.39224   -146.1 1.208e+04 1.294e-08
 95.40224   -148.7 1.251e+04 1.429e-08
 95.42184   -151.0 1.318e+04 1.939e-08
 95.44143   -153.1 1.384e+04 2.701e-08
 95.46102   -155.2 1.464e+04 3.770e-08
 95.48062   -157.7 1.569e+04 5.470e-08
 95.50021   -160.4 1.677e+04 8.262e-08
 95.51981   -163.2 1.757e+04 1.201e-07
 95.53940   -166.1 1.790e+04 1.466e-07
 95.55899   -169.1 1.792e+04 1.527e-07
 95.57859   -171.2 1.733e+04 1.319e-07
 95.59818   -172.3 1.628e+04 8.262e-08
 95.61777   -173.3 1.499e+04 4.817e-08
 95.63032   -174.5 1.396e+04 3.388e-08
 95.64012   -174.9 1.310e+04 2.591e-08
 95.65696   -175.8 1.257e+04 2.101e-08
 95.66756   -176.2 1.246e+04 1.976e-08
 95.67735   -176.9 1.263e+04 1.494e-08
 95.69615   -177.5 1.275e+04 1.294e-08
 95.71574   -178.1 1.291e+04 1.219e-08
 95.73534   -178.5 1.295e+04 1.222e-08
 95.75493   -178.6 1.283e+04 1.238e-08
 95.77452   -178.5 1.213e+04 1.148e-08
 95.79412   -178.1 1.144e+04 1.020e-08
 95.81371   -177.5 1.103e+04 9.446e-09
 95.83330   -176.8 1.084e+04 9.065e-09
 95.85290   -175.9 1.078e+04 8.791e-09
 95.87249   -174.8 1.071e+04 8.328e-09
 95.89208   -173.6 1.064e+04 7.751e-09
 95.91168   -172.5 1.057e+04 7.212e-09
 95.93127   -171.4 1.051e+04 6.744e-09
 95.94287   -170.2 1.047e+04 6.369e-09
 95.95267   -170.0 1.066e+04 7.026e-09
 95.97046   -168.8 1.067e+04 6.952e-09
 95.99005   -167.6 1.068e+04 6.939e-09
 96.00965   -166.3 1.074e+04 6.940e-09
 96.02924   -164.9 1.089e+04 7.231e-09
 96.04883   -163.8 1.103e+04 7.964e-09
 96.06843   -162.8 1.123e+04 9.129e-09
 96.08802   -161.9 1.152e+04 1.098e-08
 96.10761   -161.3 1.199e+04 1.404e-08
 96.12721   -161.1 1.263e+04 1.889e-08
 96.14680   -161.1 1.333e+04 2.591e-08
 96.15935   -161.2 1.397e+04 3.475e-08
 96.16915   -161.4 1.371e+04 3.089e-08
 96.18599   -161.6 1.400e+04 3.643e-08
 96.20558   -161.8 1.404e+04 4.014e-08
 96.21819   -161.9 1.401e+04 4.125e-08
 96.22798   -162.6 1.478e+04 5.674e-08
 96.24477   -162.1 1.431e+04 5.036e-08
 96.26436   -161.3 1.382e+04 4.322e-08
 96.28396   -160.4 1.333e+04 3.627e-08
 96.30355   -159.5 1.282e+04 2.978e-08
 96.32314   -158.5 1.227e+04 2.401e-08
 96.34274   -157.4 1.172e+04 1.935e-08
 96.36233   -156.2 1.121e+04 1.580e-08
 96.38193   -155.1 1.079e+04 1.328e-08
 96.40152   -154.0 1.042e+04 1.144e-08
 96.42111   -152.8 1.010e+04 1.010e-08
 96.44071   -151.4 9.851e+03 9.222e-09
 96.46030   -149.9 9.673e+03 8.659e-09
 96.47989   -148.7 9.524e+03 8.231e-09
 96.49350   -147.4 9.378e+03 7.846e-09
 96.50330   -147.5 9.167e+03 6.606e-09
 96.51908   -146.1 9.057e+03 6.437e-09
 96.53868   -144.6 8.965e+03 6.316e-09
 96.55827   -143.2 8.889e+03 6.212e-09
 96.57786   -141.8 8.820e+03 6.111e-09
 96.59746   -140.4 8.764e+03 6.028e-09
 96.61705   -138.9 8.722e+03 5.972e-09
 96.63664   -137.5 8.686e+03 5.918e-09
 96.65624   -136.1 8.653e+03 5.881e-09
 96.67583   -134.7 8.641e+03 5.904e-09
 96.68839   -133.4 8.682e+03 6.034e-09
 96.69818   -133.9 8.289e+03 4.914e-09
 96.71502   -132.7 8.356e+03 5.063e-09
 96.73461   -131.6 8.506e+03 5.333e-09
 96.75421   -130.7 8.703e+03 5.732e-09
 96.76891   -130.0 8.957e+03 6.294e-09
 96.78860   -131.0 9.411e+03 7.930e-09
 96.81308   -131.1 9.137e+03 7.035e-09
 96.83258   -131.8 9.488e+03 8.122e-09
 96.85217   -132.9 9.575e+03 8.846e-09
 96.87177   -135.3 1.099e+04 1.451e-08
 96.89136   -137.7 1.243e+04 2.457e-08
 96.91095   -140.1 1.349e+04 3.748e-08
 96.93055   -143.1 1.387e+04 4.353e-08
 96.95014   -146.3 1.386e+04 4.376e-08
 96.96974   -149.3 1.319e+04 3.309e-08
 96.98933   -151.9 1.196e+04 1.928e-08
 97.00892   -154.1 1.061e+04 1.107e-08
 97.02852   -155.5 9.699e+03 7.265e-09
 97.04413   -156.2 9.302e+03 5.530e-09
 97.05392   -156.2 9.283e+03 5.313e-09
 97.06770   -156.5 9.085e+03 4.438e-09
 97.08730   -156.7 8.953e+03 3.856e-09
 97.10689   -156.9 8.932e+03 3.608e-09
 97.12648   -157.0 8.945e+03 3.563e-09
 97.14608   -157.2 9.000e+03 3.546e-09
 97.16567   -157.6 9.278e+03 3.764e-09
 97.18527   -158.0 9.608e+03 4.465e-09
 97.20486   -158.4 9.924e+03 5.798e-09
 97.21742   -158.6 1.025e+04 7.672e-09
 97.22721   -160.3 1.093e+04 1.276e-08
 97.24405   -160.2 1.114e+04 1.530e-08
 97.26364   -159.9 1.125e+04 1.691e-08
 97.28323   -159.4 1.126e+04 1.752e-08
 97.30283   -159.0 1.125e+04 1.759e-08
 97.31944   -158.5 1.116e+04 1.673e-08
 97.32924   -158.6 1.080e+04 1.350e-08
 97.34201   -158.3 1.072e+04 1.274e-08
 97.36161   -157.9 1.067e+04 1.230e-08
 97.38120   -157.5 1.065e+04 1.205e-08
 97.40080   -157.0 1.063e+04 1.177e-08
 97.42039   -156.5 1.060e+04 1.129e-08
 97.43998   -155.9 1.052e+04 1.051e-08
 97.45958   -155.3 1.041e+04 9.621e-09
 97.47917   -154.7 1.032e+04 8.843e-09
 97.49876   -154.0 1.030e+04 8.391e-09
 97.51836   -153.3 1.030e+04 8.282e-09
 97.53795   -152.7 1.038e+04 8.278e-09
 97.55754   -152.3 1.070e+04 8.878e-09
 97.57714   -152.1 1.110e+04 1.033e-08
 97.59475   -152.0 1.152e+04 1.258e-08
 97.60455   -151.6 1.108e+04 9.312e-09
 97.61633   -151.7 1.147e+04 1.153e-08
 97.63592   -151.9 1.180e+04 1.458e-08
 97.65551   -152.1 1.204e+04 1.821e-08
 97.67511   -152.2 1.218e+04 2.166e-08
 97.69470   -152.2 1.224e+04 2.379e-08
 97.71429   -152.1 1.226e+04 2.439e-08
 97.73389   -152.0 1.204e+04 2.335e-08
 97.74645   -152.0 1.173e+04 1.895e-08
 97.75625   -153.4 1.081e+04 1.092e-08
 97.77308   -154.1 1.024e+04 7.722e-09
 97.79267   -155.0 9.564e+03 5.531e-09
 97.81226   -155.9 8.959e+03 4.318e-09
 97.83186   -156.5 8.594e+03 3.816e-09
 97.85145   -157.0 8.477e+03 3.696e-09
 97.87007   -157.3 8.472e+03 3.699e-09
 97.87987   -157.7 8.805e+03 4.490e-09
 97.89064   -158.2 8.822e+03 4.596e-09
 97.91023   -158.7 8.858e+03 4.733e-09
 97.92982   -159.1 8.859e+03 4.765e-09
 97.94942   -159.6 8.818e+03 4.731e-09
 97.96901   -160.0 8.739e+03 4.608e-09
 97.98861   -160.3 8.656e+03 4.472e-09
 98.00820   -160.6 8.583e+03 4.356e-09
 98.03769   -161.2 8.541e+03 4.253e-09
 98.07697   -162.2 8.526e+03 4.236e-09
 98.11616   -164.4 9.179e+03 5.577e-09
 98.15535   -168.3 1.050e+04 1.033e-08
 98.18464   -172.3 1.128e+04 1.581e-08
 98.20414   -174.9 1.166e+04 1.802e-08
 98.22373   -178.4 1.184e+04 1.918e-08
 98.24332   -182.1 1.188e+04 1.931e-08
 98.26292   -186.0 1.187e+04 1.915e-08
 98.27548   -189.9 1.180e+04 1.902e-08
 98.28528   -191.3 1.176e+04 1.877e-08
 98.30210   -195.1 1.174e+04 1.892e-08
 98.32170   -198.8 1.174e+04 1.914e-08
 98.34129   -202.9 1.197e+04 1.995e-08
 98.36088   -207.6 1.255e+04 2.266e-08
 98.38048   -212.7 1.327e+04 2.729e-08
 98.40007   -218.0 1.386e+04 3.225e-08
 98.41967   -223.4 1.411e+04 3.487e-08
 98.43049   -228.6 1.411e+04 3.530e-08
 98.44029   -228.3 1.384e+04 3.346e-08
 98.45885   -232.7 1.333e+04 2.798e-08
 98.47845   -236.6 1.257e+04 2.175e-08
 98.49804   -239.6 1.181e+04 1.713e-08
 98.51763   -241.6 1.117e+04 1.360e-08
 98.53723   -242.9 1.064e+04 1.045e-08
 98.55682   -243.9 1.015e+04 7.484e-09
 98.57641   -244.6 9.676e+03 5.049e-09
 98.59601   -245.0 9.254e+03 3.490e-09
 98.62550   -244.9 9.049e+03 2.768e-09
 98.66478   -245.6 8.866e+03 2.245e-09
 98.70397   -246.3 8.657e+03 1.828e-09
 98.74316   -246.7 8.569e+03 1.658e-09
 98.78234   -246.9 8.564e+03 1.632e-09
 98.82153   -247.4 8.753e+03 1.729e-09
 98.86072   -248.0 9.149e+03 2.276e-09
 98.89991   -248.4 9.443e+03 2.980e-09
 98.93909   -248.6 9.617e+03 3.435e-09
 98.97152   -248.7 9.660e+03 3.541e-09
 98.99111   -249.8 9.901e+03 4.586e-09
 99.01747   -249.3 9.742e+03 3.721e-09
 99.05665   -247.9 9.593e+03 2.867e-09
 99.09584   -246.2 9.546e+03 2.284e-09
 99.13503   -244.4 9.576e+03 1.900e-09
 99.17422   -242.6 9.640e+03 1.626e-09
 99.21340   -240.6 9.719e+03 1.414e-09
 99.25259   -238.6 9.828e+03 1.245e-09
 99.29178   -236.5 9.972e+03 1.112e-09
 99.32394   -234.4 1.013e+04 1.014e-09
 99.34354   -233.5 1.010e+04 9.478e-10
 99.37015   -231.3 1.023e+04 8.906e-10
 99.40934   -229.1 1.030e+04 8.679e-10
 99.44853   -226.7 1.031e+04 8.657e-10
 99.48771   -224.5 1.051e+04 8.604e-10
 99.52215   -222.4 1.106e+04 9.770e-10
 99.54174   -222.4 1.107e+04 9.723e-10
 99.56609   -220.4 1.118e+04 1.351e-09
 99.60528   -218.7 1.130e+04 1.895e-09
 99.64446   -217.2 1.149e+04 2.479e-09
 99.68365   -216.0 1.171e+04 2.922e-09
 99.72284   -214.8 1.197e+04 3.069e-09
 99.76203   -213.6 1.209e+04 3.082e-09
 99.80121   -212.2 1.217e+04 3.049e-09
 99.84040   -210.8 1.233e+04 2.914e-09
 99.87959   -209.5 1.249e+04 2.745e-09
 99.91878   -208.1 1.266e+04 2.582e-09
 99.95796   -206.8 1.287e+04 2.381e-09
 99.99715   -205.5 1.307e+04 2.173e-09
