# Columns:
#   distance along LOS (in CHIMPs)
#   peculiar velocity  (in km/s)
#   temperature (K)
#   HI number density
# pos=(132.942,251.11,106.986), angles=(1.92731,6.21002)
  0.00502   -223.9 1.173e+04 3.627e-10
  0.03093   -222.3 1.181e+04 3.996e-10
  0.07272   -220.7 1.188e+04 4.422e-10
  0.09984   -219.2 1.194e+04 4.907e-10
  0.12074   -219.0 1.200e+04 4.207e-10
  0.15631   -217.5 1.207e+04 4.451e-10
  0.19759   -216.1 1.212e+04 4.771e-10
  0.21849   -215.8 1.220e+04 3.842e-10
  0.23548   -214.3 1.226e+04 4.051e-10
  0.25638   -214.0 1.217e+04 3.938e-10
  0.28170   -212.4 1.223e+04 4.104e-10
  0.31625   -210.8 1.229e+04 4.362e-10
  0.33715   -210.4 1.236e+04 3.488e-10
  0.36529   -208.8 1.243e+04 3.679e-10
  0.40709   -207.2 1.250e+04 4.029e-10
  0.43490   -205.7 1.253e+04 4.558e-10
  0.45580   -205.1 1.260e+04 3.643e-10
  0.49068   -203.6 1.262e+04 4.130e-10
  0.53247   -202.0 1.263e+04 4.634e-10
  0.57427   -199.7 1.267e+04 4.003e-10
  0.61606   -197.9 1.271e+04 4.138e-10
  0.65132   -196.2 1.279e+04 4.223e-10
  0.67221   -195.5 1.284e+04 3.434e-10
  0.69966   -194.0 1.309e+04 3.780e-10
  0.74145   -192.5 1.304e+04 5.325e-10
  0.76997   -191.2 1.296e+04 8.431e-10
  0.79087   -190.7 1.304e+04 8.667e-10
  0.81317   -189.8 1.308e+04 1.371e-09
  0.83407   -188.6 1.297e+04 1.246e-09
  0.86684   -187.9 1.310e+04 1.835e-09
  0.88863   -187.6 1.325e+04 2.246e-09
  0.90952   -187.4 1.328e+04 2.325e-09
  0.95043   -187.2 1.329e+04 2.373e-09
  0.98638   -186.5 1.328e+04 2.229e-09
  1.00728   -186.0 1.330e+04 2.114e-09
  1.03402   -184.6 1.341e+04 1.736e-09
  1.07581   -182.8 1.359e+04 1.443e-09
  1.10504   -181.1 1.379e+04 1.241e-09
  1.12594   -180.2 1.388e+04 1.104e-09
  1.15941   -178.4 1.409e+04 9.695e-10
  1.20120   -176.7 1.426e+04 8.688e-10
  1.22369   -175.1 1.446e+04 7.938e-10
  1.24459   -174.1 1.456e+04 7.489e-10
  1.28479   -172.5 1.469e+04 7.356e-10
  1.32145   -171.0 1.481e+04 7.369e-10
  1.34235   -170.2 1.493e+04 7.609e-10
  1.36838   -168.9 1.504e+04 7.827e-10
  1.39086   -167.6 1.507e+04 7.908e-10
  1.41175   -167.1 1.500e+04 8.654e-10
  1.44011   -165.8 1.505e+04 8.648e-10
  1.46100   -165.4 1.513e+04 9.724e-10
  1.49377   -163.8 1.521e+04 8.582e-10
  1.53556   -162.2 1.525e+04 7.418e-10
  1.55876   -160.5 1.524e+04 6.759e-10
  1.57966   -159.8 1.515e+04 7.213e-10
  1.61915   -158.0 1.516e+04 7.126e-10
  1.65652   -156.5 1.523e+04 7.278e-10
  1.67742   -156.0 1.526e+04 8.044e-10
  1.70275   -155.2 1.530e+04 1.055e-09
  1.74454   -154.7 1.522e+04 1.472e-09
  1.77517   -154.4 1.517e+04 1.887e-09
  1.79607   -154.6 1.528e+04 2.478e-09
  1.82813   -154.5 1.522e+04 2.927e-09
  1.86993   -154.5 1.514e+04 3.130e-09
  1.89383   -154.4 1.510e+04 3.190e-09
  1.91473   -154.9 1.503e+04 4.459e-09
  1.94764   -154.8 1.478e+04 4.078e-09
  1.96854   -154.6 1.483e+04 4.436e-09
  1.99158   -154.4 1.481e+04 3.767e-09
  2.01248   -155.0 1.466e+04 4.509e-09
  2.03711   -154.5 1.460e+04 3.739e-09
  2.07890   -153.9 1.457e+04 3.251e-09
  2.11024   -153.2 1.456e+04 2.889e-09
  2.13114   -153.2 1.444e+04 2.920e-09
  2.16250   -152.3 1.449e+04 2.545e-09
  2.20429   -151.4 1.458e+04 2.137e-09
  2.22889   -150.4 1.467e+04 1.752e-09
  2.24979   -150.0 1.443e+04 1.726e-09
  2.28788   -149.1 1.458e+04 1.458e-09
  2.32665   -148.2 1.474e+04 1.297e-09
  2.34755   -147.6 1.463e+04 1.301e-09
  2.37147   -146.8 1.470e+04 1.283e-09
  2.41327   -146.2 1.487e+04 1.288e-09
  2.44531   -146.0 1.510e+04 1.414e-09
  2.46620   -145.9 1.498e+04 1.636e-09
  2.49686   -146.1 1.498e+04 2.136e-09
  2.52533   -146.5 1.505e+04 2.866e-09
  2.54623   -146.1 1.504e+04 3.585e-09
  2.56396   -146.9 1.511e+04 5.120e-09
  2.58486   -147.4 1.507e+04 6.608e-09
  2.62225   -148.9 1.515e+04 7.779e-09
  2.66172   -150.1 1.516e+04 7.987e-09
  2.68262   -151.1 1.509e+04 1.017e-08
  2.70584   -151.8 1.507e+04 9.811e-09
  2.74763   -151.9 1.509e+04 8.309e-09
  2.78037   -151.3 1.502e+04 6.720e-09
  2.80127   -152.5 1.500e+04 8.006e-09
  2.83122   -151.5 1.486e+04 6.084e-09
  2.87302   -150.3 1.475e+04 4.654e-09
  2.89903   -148.9 1.465e+04 3.640e-09
  2.91993   -150.2 1.467e+04 3.714e-09
  2.95661   -148.7 1.451e+04 3.040e-09
  2.99679   -147.3 1.434e+04 2.658e-09
  3.01768   -148.6 1.463e+04 3.205e-09
  3.04020   -147.4 1.450e+04 3.432e-09
  3.08200   -146.8 1.429e+04 4.303e-09
  3.11544   -144.3 1.432e+04 3.373e-09
  3.13634   -146.1 1.463e+04 8.502e-09
  3.16559   -146.7 1.453e+04 1.420e-08
  3.20738   -147.5 1.455e+04 1.959e-08
  3.23410   -148.6 1.449e+04 2.139e-08
  3.24445   -151.2 1.454e+04 2.627e-08
  3.25943   -151.8 1.434e+04 2.367e-08
  3.28033   -152.1 1.414e+04 2.109e-08
  3.29323   -152.2 1.399e+04 1.851e-08
  3.30368   -153.0 1.391e+04 1.762e-08
  3.33176   -152.9 1.380e+04 1.473e-08
  3.35265   -154.6 1.342e+04 8.844e-09
  3.37447   -154.9 1.323e+04 5.913e-09
  3.41636   -154.3 1.282e+04 3.640e-09
  3.45051   -153.3 1.264e+04 2.548e-09
  3.47141   -154.0 1.256e+04 1.806e-09
  3.49995   -152.8 1.250e+04 1.700e-09
  3.54174   -151.7 1.248e+04 1.674e-09
  3.56916   -150.7 1.244e+04 1.670e-09
  3.59006   -151.1 1.240e+04 1.400e-09
  3.62534   -150.1 1.237e+04 1.414e-09
  3.65981   -149.1 1.236e+04 1.413e-09
  3.68049   -148.9 1.244e+04 1.461e-09
  3.68782   -149.1 1.247e+04 1.292e-09
  3.70893   -148.1 1.238e+04 1.281e-09
  3.75072   -147.1 1.228e+04 1.271e-09
  3.78557   -146.1 1.222e+04 1.265e-09
  3.80647   -146.2 1.226e+04 1.183e-09
  3.83431   -145.2 1.218e+04 1.185e-09
  3.87611   -144.2 1.208e+04 1.197e-09
  3.90423   -143.1 1.199e+04 1.211e-09
  3.92513   -143.2 1.203e+04 1.082e-09
  3.95970   -142.1 1.194e+04 1.065e-09
  4.00149   -140.8 1.187e+04 1.063e-09
  4.02288   -139.6 1.176e+04 1.113e-09
  4.04378   -139.6 1.185e+04 9.460e-10
  4.08509   -138.3 1.173e+04 1.037e-09
  4.12064   -137.0 1.167e+04 1.180e-09
  4.14154   -137.0 1.177e+04 1.004e-09
  4.16868   -135.7 1.173e+04 1.115e-09
  4.21047   -134.4 1.171e+04 1.246e-09
  4.23749   -133.2 1.172e+04 1.463e-09
  4.24542   -133.1 1.194e+04 2.261e-09
  4.26019   -133.2 1.195e+04 2.032e-09
  4.29406   -132.2 1.211e+04 2.631e-09
  4.33586   -131.5 1.233e+04 3.514e-09
  4.35795   -131.4 1.255e+04 4.376e-09
  4.37885   -131.6 1.264e+04 4.307e-09
  4.40673   -131.5 1.265e+04 4.676e-09
  4.41708   -131.6 1.271e+04 4.239e-09
  4.42970   -131.6 1.273e+04 4.060e-09
  4.45561   -131.8 1.284e+04 3.599e-09
  4.47661   -132.1 1.297e+04 2.943e-09
  4.50304   -131.7 1.291e+04 2.192e-09
  4.54484   -130.9 1.280e+04 1.656e-09
  4.57436   -129.9 1.276e+04 1.363e-09
  4.59526   -129.7 1.286e+04 1.181e-09
  4.62843   -128.4 1.288e+04 1.102e-09
  4.67022   -127.0 1.288e+04 1.084e-09
  4.69302   -125.7 1.299e+04 1.109e-09
  4.71392   -125.1 1.302e+04 9.630e-10
  4.75381   -123.8 1.297e+04 1.050e-09
  4.79078   -122.5 1.282e+04 1.198e-09
  4.81035   -121.9 1.293e+04 9.488e-10
  4.81518   -121.7 1.292e+04 1.112e-09
  4.83740   -120.4 1.279e+04 1.190e-09
  4.87920   -119.0 1.270e+04 1.218e-09
  4.90943   -117.7 1.263e+04 1.227e-09
  4.93033   -116.8 1.275e+04 9.589e-10
  4.96279   -115.3 1.265e+04 9.846e-10
  5.00458   -114.1 1.258e+04 1.129e-09
  5.02809   -113.1 1.253e+04 1.455e-09
  5.04898   -112.3 1.267e+04 1.262e-09
  5.08818   -111.5 1.265e+04 1.686e-09
  5.12584   -111.1 1.268e+04 2.063e-09
  5.14674   -110.5 1.281e+04 1.816e-09
  5.17177   -110.5 1.284e+04 1.911e-09
  5.21356   -110.5 1.283e+04 1.892e-09
  5.24450   -110.3 1.273e+04 1.638e-09
  5.26540   -109.8 1.286e+04 1.430e-09
  5.29715   -109.4 1.279e+04 1.101e-09
  5.33895   -108.7 1.272e+04 8.660e-10
  5.36315   -107.9 1.269e+04 7.603e-10
  5.37527   -107.4 1.281e+04 6.541e-10
  5.39286   -106.7 1.291e+04 6.925e-10
  5.42254   -105.9 1.293e+04 6.778e-10
  5.46091   -105.5 1.308e+04 7.665e-10
  5.48181   -105.2 1.324e+04 6.643e-10
  5.50613   -105.3 1.316e+04 1.276e-09
  5.54793   -105.2 1.320e+04 2.626e-09
  5.57917   -105.3 1.330e+04 3.791e-09
  5.58982   -105.9 1.330e+04 5.431e-09
  5.60027   -105.6 1.334e+04 5.063e-09
  5.62087   -106.1 1.327e+04 6.623e-09
  5.63870   -106.5 1.319e+04 7.056e-09
  5.64915   -106.4 1.320e+04 6.281e-09
  5.66061   -106.6 1.312e+04 6.300e-09
  5.67106   -106.7 1.333e+04 8.121e-09
  5.68357   -106.8 1.318e+04 7.792e-09
  5.69802   -106.8 1.311e+04 7.192e-09
  5.70847   -106.6 1.309e+04 6.201e-09
  5.72536   -106.3 1.300e+04 5.676e-09
  5.74626   -105.9 1.294e+04 5.152e-09
  5.75735   -105.3 1.292e+04 4.609e-09
  5.76780   -105.0 1.293e+04 4.154e-09
  5.79588   -104.7 1.287e+04 3.846e-09
  5.81687   -104.0 1.302e+04 3.271e-09
  5.84049   -102.9 1.295e+04 3.502e-09
  5.88229   -101.7 1.296e+04 4.277e-09
  5.91463   -100.8 1.303e+04 5.804e-09
  5.93553   -100.7 1.328e+04 6.733e-09
  5.94965   -100.4 1.342e+04 9.278e-09
  5.97055   -100.6 1.364e+04 1.094e-08
  6.00768   -100.8 1.364e+04 1.107e-08
  6.03329   -101.5 1.364e+04 9.667e-09
  6.04364   -101.5 1.392e+04 1.198e-08
  6.05972   -101.7 1.395e+04 1.155e-08
  6.08062   -102.4 1.394e+04 1.104e-08
  6.09242   -102.7 1.406e+04 1.132e-08
  6.10287   -102.9 1.422e+04 1.226e-08
  6.13095   -103.4 1.426e+04 1.214e-08
  6.15184   -104.0 1.457e+04 1.345e-08
  6.16421   -104.3 1.448e+04 1.162e-08
  6.18511   -104.1 1.444e+04 1.099e-08
  6.20063   -104.0 1.438e+04 9.790e-09
  6.21107   -104.2 1.449e+04 9.764e-09
  6.22691   -103.9 1.450e+04 9.095e-09
  6.23830   -103.7 1.459e+04 8.274e-09
  6.24875   -103.9 1.467e+04 1.043e-08
  6.25995   -104.2 1.479e+04 1.018e-08
  6.27040   -105.7 1.546e+04 1.091e-08
  6.28960   -107.2 1.604e+04 1.547e-08
  6.30883   -108.5 1.613e+04 2.575e-08
  6.31928   -109.9 1.650e+04 5.821e-08
  6.33139   -110.4 1.647e+04 7.255e-08
  6.35229   -110.7 1.643e+04 7.538e-08
  6.36816   -111.0 1.637e+04 6.743e-08
  6.37861   -112.1 1.646e+04 7.072e-08
  6.39409   -112.4 1.635e+04 5.517e-08
  6.41499   -113.0 1.617e+04 4.193e-08
  6.42749   -113.7 1.605e+04 3.316e-08
  6.43793   -114.9 1.587e+04 2.411e-08
  6.45678   -115.5 1.566e+04 2.068e-08
  6.47636   -115.9 1.545e+04 1.774e-08
  6.48681   -116.6 1.525e+04 1.659e-08
  6.49858   -116.5 1.515e+04 1.346e-08
  6.51669   -116.5 1.508e+04 1.022e-08
  6.52714   -117.6 1.497e+04 8.427e-09
  6.53569   -117.5 1.486e+04 7.502e-09
  6.54614   -117.7 1.484e+04 7.088e-09
  6.56127   -117.4 1.477e+04 7.026e-09
  6.58217   -117.0 1.478e+04 7.186e-09
  6.59502   -116.9 1.481e+04 7.878e-09
  6.60547   -117.2 1.474e+04 7.254e-09
  6.63451   -117.7 1.471e+04 7.364e-09
  6.67640   -117.7 1.473e+04 7.776e-09
  6.70342   -117.1 1.482e+04 8.257e-09
  6.72432   -117.1 1.461e+04 5.280e-09
  6.75999   -116.0 1.465e+04 5.660e-09
  6.80118   -115.0 1.462e+04 6.556e-09
  6.82208   -114.3 1.456e+04 5.085e-09
  6.84358   -113.2 1.467e+04 6.460e-09
  6.88538   -112.4 1.484e+04 7.188e-09
  6.91983   -112.0 1.500e+04 6.999e-09
  6.94073   -111.5 1.497e+04 7.859e-09
  6.96897   -111.3 1.508e+04 7.534e-09
  7.01077   -111.2 1.519e+04 6.115e-09
  7.03849   -110.9 1.522e+04 4.652e-09
  7.05939   -110.6 1.507e+04 6.321e-09
  7.08413   -110.1 1.505e+04 5.015e-09
  7.10503   -110.0 1.496e+04 4.570e-09
  7.13615   -109.3 1.515e+04 3.538e-09
  7.17795   -108.6 1.515e+04 3.616e-09
  7.21974   -108.0 1.514e+04 2.750e-09
  7.25490   -107.2 1.511e+04 2.127e-09
  7.27580   -107.1 1.516e+04 2.118e-09
  7.30333   -106.0 1.521e+04 1.646e-09
  7.34513   -104.7 1.520e+04 1.520e-09
  7.37356   -103.3 1.519e+04 1.506e-09
  7.39445   -102.9 1.519e+04 1.385e-09
  7.42872   -101.5 1.514e+04 1.441e-09
  7.47052   -100.3 1.514e+04 1.561e-09
  7.49221    -99.1 1.513e+04 1.640e-09
  7.51311    -98.7 1.523e+04 1.735e-09
  7.55411    -97.7 1.517e+04 1.834e-09
  7.58997    -96.9 1.509e+04 1.752e-09
  7.61086    -96.7 1.499e+04 2.289e-09
  7.63770    -95.9 1.495e+04 1.997e-09
  7.66181    -95.2 1.508e+04 1.670e-09
  7.68271    -96.1 1.512e+04 1.824e-09
  7.70862    -96.0 1.531e+04 1.883e-09
  7.72952    -96.5 1.522e+04 3.958e-09
  7.76308    -96.8 1.518e+04 6.057e-09
  7.80488    -96.9 1.506e+04 8.298e-09
  7.82728    -97.1 1.493e+04 8.686e-09
  7.84817    -98.0 1.486e+04 8.764e-09
  7.88847    -97.8 1.468e+04 6.898e-09
  7.92503    -97.3 1.464e+04 5.869e-09
  7.94593    -97.2 1.461e+04 5.268e-09
  7.97206    -96.7 1.463e+04 5.179e-09
  8.01386    -96.5 1.467e+04 5.197e-09
  8.04369    -96.4 1.474e+04 4.829e-09
  8.06459    -96.0 1.469e+04 5.009e-09
  8.09745    -95.9 1.489e+04 3.750e-09
  8.13924    -95.7 1.519e+04 2.475e-09
  8.16234    -95.3 1.549e+04 1.563e-09
  8.18324    -94.8 1.553e+04 1.525e-09
  8.21860    -94.5 1.549e+04 1.254e-09
  8.23950    -95.2 1.513e+04 1.282e-09
  8.26010    -94.7 1.521e+04 1.241e-09
  8.28100    -94.4 1.522e+04 1.286e-09
  8.30642    -94.6 1.529e+04 1.650e-09
  8.34822    -94.7 1.506e+04 2.332e-09
  8.37876    -94.9 1.495e+04 2.859e-09
  8.39965    -94.8 1.497e+04 3.224e-09
  8.43181    -95.3 1.493e+04 3.174e-09
  8.47361    -95.7 1.491e+04 3.031e-09
  8.49741    -95.9 1.489e+04 2.998e-09
  8.51831    -95.7 1.490e+04 3.021e-09
  8.55720    -95.8 1.475e+04 3.178e-09
  8.59517    -95.7 1.466e+04 3.424e-09
  8.61607    -95.4 1.474e+04 3.630e-09
  8.64079    -95.3 1.465e+04 3.907e-09
  8.68258    -95.3 1.458e+04 4.050e-09
  8.71382    -95.4 1.450e+04 3.971e-09
  8.73472    -95.2 1.465e+04 4.398e-09
  8.76617    -94.9 1.447e+04 3.560e-09
  8.79629    -94.2 1.458e+04 1.983e-09
  8.81719    -93.9 1.469e+04 1.734e-09
  8.83248    -93.0 1.482e+04 1.039e-09
  8.85338    -92.4 1.489e+04 1.161e-09
  8.89156    -91.4 1.497e+04 7.906e-10
  8.93024    -90.3 1.500e+04 7.101e-10
  8.95113    -89.7 1.516e+04 7.465e-10
  8.97515    -88.5 1.521e+04 7.275e-10
  9.01695    -87.5 1.527e+04 8.418e-10
  9.04889    -86.4 1.526e+04 1.048e-09
  9.06979    -85.7 1.527e+04 9.894e-10
  9.10054    -84.7 1.520e+04 1.207e-09
  9.14233    -84.0 1.520e+04 1.461e-09
  9.16755    -83.8 1.511e+04 1.861e-09
  9.18844    -83.3 1.501e+04 2.115e-09
  9.22592    -83.3 1.493e+04 2.864e-09
  9.26530    -83.4 1.494e+04 3.352e-09
  9.28620    -83.1 1.494e+04 3.464e-09
  9.30951    -83.4 1.491e+04 3.479e-09
  9.35131    -83.3 1.484e+04 2.843e-09
  9.37398    -82.9 1.500e+04 1.998e-09
  9.38572    -83.1 1.495e+04 2.318e-09
  9.40486    -82.7 1.493e+04 2.921e-09
  9.43490    -82.2 1.494e+04 2.630e-09
  9.47670    -81.6 1.484e+04 2.530e-09
  9.50261    -80.9 1.468e+04 2.296e-09
  9.52351    -80.5 1.470e+04 3.116e-09
  9.56029    -79.6 1.464e+04 2.324e-09
  9.60037    -78.7 1.453e+04 1.769e-09
  9.62127    -78.1 1.454e+04 2.117e-09
  9.64388    -77.2 1.455e+04 1.670e-09
  9.68567    -76.1 1.448e+04 1.465e-09
  9.71902    -75.0 1.437e+04 1.257e-09
  9.73992    -74.5 1.447e+04 1.331e-09
  9.76926    -73.1 1.435e+04 1.045e-09
  9.81106    -71.5 1.432e+04 7.460e-10
  9.83768    -69.8 1.425e+04 5.365e-10
  9.85858    -69.0 1.433e+04 5.457e-10
  9.89465    -67.3 1.423e+04 4.338e-10
  9.93076    -65.6 1.417e+04 4.001e-10
  9.95065    -65.4 1.423e+04 3.914e-10
  9.95633    -64.7 1.438e+04 3.666e-10
  9.97824    -62.7 1.437e+04 3.584e-10
 10.02004    -60.7 1.438e+04 3.647e-10
 10.05409    -58.9 1.439e+04 3.925e-10
 10.07499    -58.2 1.455e+04 3.902e-10
 10.10363    -56.5 1.457e+04 4.492e-10
 10.14542    -55.1 1.458e+04 5.435e-10
 10.17275    -53.9 1.452e+04 7.421e-10
 10.19364    -53.1 1.476e+04 7.764e-10
 10.22901    -51.8 1.471e+04 1.053e-09
 10.27050    -50.7 1.483e+04 1.284e-09
 10.29140    -49.9 1.494e+04 1.298e-09
 10.31260    -49.1 1.502e+04 1.424e-09
 10.35440    -48.7 1.506e+04 1.624e-09
 10.38916    -48.5 1.519e+04 2.014e-09
 10.41006    -47.6 1.525e+04 2.026e-09
 10.43799    -47.2 1.513e+04 2.573e-09
 10.47979    -47.1 1.481e+04 3.704e-09
 10.50781    -46.6 1.462e+04 5.865e-09
 10.51558    -45.8 1.462e+04 5.272e-09
 10.52935    -46.0 1.468e+04 1.023e-08
 10.56338    -45.8 1.460e+04 9.720e-09
 10.60517    -45.0 1.472e+04 5.337e-09
 10.62647    -44.2 1.498e+04 2.284e-09
 10.64737    -43.4 1.504e+04 2.497e-09
 10.68876    -43.0 1.518e+04 1.452e-09
 10.72423    -42.3 1.516e+04 1.219e-09
 10.74512    -41.4 1.504e+04 1.503e-09
 10.77235    -40.5 1.498e+04 1.570e-09
 10.81415    -39.6 1.491e+04 1.660e-09
 10.84288    -38.7 1.493e+04 1.611e-09
 10.86378    -37.8 1.501e+04 1.792e-09
 10.89774    -37.1 1.499e+04 1.771e-09
 10.93954    -36.2 1.483e+04 2.016e-09
 10.96154    -34.8 1.479e+04 2.091e-09
 10.98243    -34.2 1.476e+04 2.475e-09
 11.02313    -32.7 1.492e+04 2.020e-09
 11.05929    -31.9 1.510e+04 1.719e-09
 11.08019    -31.2 1.508e+04 1.707e-09
 11.08614    -30.1 1.491e+04 1.890e-09
 11.10703    -30.0 1.473e+04 2.150e-09
 11.14851    -28.3 1.448e+04 2.479e-09
 11.17795    -26.5 1.494e+04 1.743e-09
 11.19885    -25.9 1.480e+04 1.794e-09
 11.23210    -24.6 1.495e+04 1.415e-09
 11.27390    -23.1 1.511e+04 9.921e-10
 11.29660    -21.2 1.534e+04 6.055e-10
 11.31750    -20.2 1.534e+04 6.008e-10
 11.35749    -18.6 1.551e+04 4.073e-10
 11.39436    -16.9 1.547e+04 3.644e-10
 11.41526    -16.0 1.547e+04 3.691e-10
 11.44108    -13.8 1.546e+04 3.742e-10
 11.48288    -11.7 1.545e+04 4.014e-10
 11.51301     -9.5 1.536e+04 4.468e-10
 11.53391     -8.5 1.522e+04 4.681e-10
 11.56647     -6.3 1.524e+04 4.911e-10
 11.60826     -4.1 1.521e+04 4.976e-10
 11.63167     -2.0 1.521e+04 4.911e-10
 11.64543     -1.3 1.508e+04 6.461e-10
 11.66382     -1.3 1.506e+04 6.050e-10
 11.69185      0.7 1.509e+04 6.134e-10
 11.72943      2.6 1.510e+04 6.243e-10
 11.75032      3.4 1.487e+04 9.480e-10
 11.77544      5.2 1.489e+04 9.463e-10
 11.81724      6.9 1.488e+04 9.575e-10
 11.84808      8.5 1.481e+04 1.031e-09
 11.86898      9.1 1.469e+04 1.210e-09
 11.90083     10.9 1.463e+04 1.274e-09
 11.94263     12.6 1.452e+04 1.502e-09
 11.96674     14.1 1.438e+04 2.030e-09
 11.98763     14.4 1.439e+04 2.294e-09
 12.02622     15.7 1.430e+04 4.263e-09
 12.06449     16.7 1.433e+04 8.414e-09
 12.08539     16.5 1.446e+04 1.258e-08
 12.10981     16.5 1.480e+04 1.672e-08
 12.15160     15.8 1.481e+04 1.598e-08
 12.18315     15.4 1.461e+04 1.185e-08
 12.20405     14.8 1.451e+04 9.652e-09
 12.22061     14.8 1.453e+04 4.896e-09
 12.24151     14.9 1.451e+04 3.888e-09
 12.27699     14.8 1.465e+04 1.995e-09
 12.30180     15.6 1.458e+04 1.792e-09
 12.32270     16.1 1.451e+04 1.785e-09
 12.36058     17.3 1.442e+04 1.788e-09
 12.39956     18.3 1.441e+04 1.805e-09
 12.42046     18.8 1.443e+04 1.858e-09
 12.44417     19.7 1.445e+04 1.893e-09
 12.48597     20.5 1.448e+04 2.048e-09
 12.51822     21.2 1.450e+04 2.335e-09
 12.53911     21.4 1.446e+04 2.490e-09
 12.56956     22.0 1.449e+04 2.738e-09
 12.61135     22.7 1.442e+04 3.123e-09
 12.63687     23.5 1.425e+04 3.690e-09
 12.65777     23.5 1.427e+04 3.663e-09
 12.69494     24.1 1.422e+04 4.608e-09
 12.73463     24.5 1.443e+04 5.983e-09
 12.75553     24.4 1.447e+04 6.805e-09
 12.77740     24.4 1.458e+04 7.706e-09
 12.79830     24.4 1.449e+04 5.192e-09
 12.82033     24.1 1.452e+04 6.396e-09
 12.85328     23.8 1.453e+04 6.349e-09
 12.87418     23.7 1.455e+04 6.564e-09
 12.90392     23.6 1.443e+04 5.377e-09
 12.94572     23.7 1.436e+04 3.612e-09
 12.97194     24.0 1.439e+04 2.483e-09
 12.99284     24.1 1.439e+04 2.409e-09
 13.02931     25.0 1.450e+04 2.280e-09
 13.06969     26.1 1.461e+04 2.274e-09
 13.09059     26.2 1.452e+04 2.250e-09
 13.11290     27.4 1.472e+04 2.087e-09
 13.15469     28.6 1.480e+04 2.012e-09
 13.18835     29.7 1.485e+04 2.061e-09
 13.20925     29.5 1.487e+04 1.965e-09
 13.23828     29.8 1.480e+04 2.792e-09
 13.28008     29.6 1.441e+04 4.724e-09
 13.30700     29.2 1.421e+04 7.022e-09
 13.32790     28.6 1.425e+04 7.449e-09
 13.35509     27.6 1.425e+04 7.348e-09
 13.37598     28.0 1.425e+04 7.031e-09
 13.40476     27.2 1.433e+04 5.575e-09
 13.42566     26.6 1.444e+04 4.727e-09
 13.44726     26.1 1.462e+04 3.865e-09
 13.48906     25.8 1.459e+04 4.216e-09
 13.52342     25.7 1.450e+04 5.292e-09
 13.54431     25.9 1.447e+04 8.479e-09
 13.57265     25.9 1.454e+04 1.191e-08
 13.61444     25.6 1.466e+04 1.241e-08
 13.64207     25.2 1.463e+04 1.032e-08
 13.66297     24.9 1.474e+04 1.201e-08
 13.69803     24.1 1.484e+04 6.843e-09
 13.73983     23.4 1.466e+04 5.816e-09
 13.78162     22.6 1.447e+04 6.634e-09
 13.82342     22.1 1.438e+04 8.926e-09
 13.85848     21.4 1.464e+04 1.063e-08
 13.87938     21.6 1.463e+04 8.310e-09
 13.90701     20.2 1.472e+04 7.990e-09
 13.93277     19.0 1.472e+04 6.581e-09
 13.95367     20.1 1.487e+04 8.739e-09
 13.97714     18.7 1.480e+04 6.156e-09
 13.99804     19.0 1.465e+04 5.877e-09
 14.03240     18.0 1.459e+04 4.973e-09
 14.07419     17.6 1.453e+04 3.881e-09
 14.09579     17.7 1.464e+04 2.566e-09
 14.11669     17.9 1.456e+04 3.537e-09
 14.15778     18.0 1.474e+04 2.279e-09
 14.19355     18.3 1.487e+04 1.569e-09
 14.21445     18.5 1.472e+04 2.401e-09
 14.24138     19.3 1.487e+04 1.514e-09
 14.28317     20.2 1.499e+04 1.066e-09
 14.31221     21.1 1.500e+04 9.063e-10
 14.33310     21.4 1.504e+04 9.286e-10
 14.36676     22.6 1.499e+04 9.068e-10
 14.40856     23.8 1.496e+04 8.994e-10
 14.43086     25.0 1.495e+04 8.897e-10
 14.45176     25.5 1.497e+04 9.029e-10
 14.48956     26.7 1.495e+04 8.760e-10
 14.51046     27.1 1.490e+04 1.062e-09
 14.52862     28.2 1.486e+04 1.112e-09
 14.54952     28.6 1.485e+04 1.160e-09
 14.57574     29.6 1.484e+04 1.168e-09
 14.61753     30.5 1.484e+04 1.147e-09
 14.64727     31.6 1.485e+04 1.022e-09
 14.66817     32.0 1.483e+04 1.096e-09
 14.70113     33.2 1.491e+04 9.073e-10
 14.74292     34.3 1.497e+04 7.653e-10
 14.76593     35.7 1.496e+04 7.464e-10
 14.78683     36.3 1.490e+04 9.310e-10
 14.82651     37.6 1.490e+04 9.564e-10
 14.86368     39.0 1.488e+04 1.052e-09
 14.88458     39.5 1.483e+04 1.250e-09
 14.91010     40.8 1.483e+04 1.345e-09
 14.95190     42.1 1.484e+04 1.350e-09
 14.98234     43.5 1.486e+04 1.271e-09
 15.00324     44.1 1.486e+04 1.199e-09
 15.03549     45.6 1.497e+04 9.365e-10
 15.06725     47.1 1.509e+04 7.307e-10
 15.08815     47.2 1.508e+04 7.273e-10
 15.10099     48.9 1.506e+04 6.756e-10
 15.12189     49.6 1.505e+04 7.132e-10
 15.16087     51.5 1.503e+04 7.472e-10
 15.19875     53.2 1.499e+04 8.870e-10
 15.21965     53.9 1.495e+04 1.074e-09
 15.24447     55.6 1.492e+04 1.561e-09
 15.28626     57.3 1.484e+04 2.221e-09
 15.31741     58.5 1.481e+04 2.543e-09
 15.33830     58.9 1.488e+04 3.017e-09
 15.36985     59.7 1.488e+04 2.889e-09
 15.41165     60.6 1.485e+04 2.360e-09
 15.43606     61.7 1.486e+04 1.730e-09
 15.45696     61.9 1.483e+04 2.047e-09
 15.49524     63.4 1.476e+04 1.948e-09
 15.53382     65.1 1.473e+04 1.983e-09
 15.55472     65.5 1.477e+04 2.486e-09
 15.57883     67.2 1.477e+04 2.547e-09
 15.62062     68.9 1.476e+04 2.542e-09
 15.64493     70.4 1.474e+04 2.439e-09
 15.65589     70.4 1.467e+04 2.199e-09
 15.67337     70.7 1.472e+04 2.183e-09
 15.70422     72.3 1.474e+04 1.822e-09
 15.74601     73.7 1.472e+04 1.536e-09
 15.77113     75.3 1.474e+04 1.474e-09
 15.79203     75.7 1.483e+04 1.574e-09
 15.82960     77.1 1.484e+04 1.757e-09
 15.86889     78.5 1.483e+04 2.465e-09
 15.88978     78.7 1.478e+04 3.056e-09
 15.91319     79.9 1.464e+04 5.057e-09
 15.95499     80.5 1.462e+04 7.167e-09
 15.98754     80.4 1.467e+04 7.785e-09
 16.00844     80.1 1.470e+04 7.092e-09
 16.03858     80.1 1.475e+04 6.558e-09
 16.08037     80.2 1.491e+04 5.044e-09
 16.10620     80.4 1.505e+04 3.512e-09
 16.12709     79.9 1.501e+04 3.852e-09
 16.16397     80.5 1.495e+04 3.779e-09
 16.20172     81.4 1.489e+04 4.043e-09
 16.22081     82.5 1.484e+04 3.800e-09
 16.22485     81.8 1.494e+04 4.872e-09
 16.24756     82.7 1.477e+04 6.041e-09
 16.28935     83.3 1.488e+04 6.386e-09
 16.32261     83.6 1.487e+04 5.947e-09
 16.34351     82.9 1.492e+04 3.967e-09
 16.37294     83.4 1.503e+04 2.929e-09
 16.41474     83.9 1.507e+04 2.316e-09
 16.44126     84.7 1.482e+04 2.239e-09
 16.46216     85.1 1.485e+04 1.866e-09
 16.49833     86.2 1.487e+04 1.847e-09
 16.53902     87.6 1.493e+04 1.834e-09
 16.55992     88.2 1.515e+04 1.512e-09
 16.58192     89.8 1.519e+04 1.518e-09
 16.62371     91.4 1.520e+04 1.575e-09
 16.65767     93.0 1.503e+04 1.787e-09
 16.67857     93.8 1.507e+04 1.722e-09
 16.70731     95.3 1.492e+04 2.117e-09
 16.74910     96.7 1.487e+04 2.702e-09
 16.77633     98.0 1.485e+04 3.500e-09
 16.78574     98.7 1.493e+04 3.859e-09
 16.80031     98.8 1.490e+04 3.945e-09
 16.83269     99.6 1.481e+04 4.720e-09
 16.87409    100.2 1.476e+04 5.387e-09
 16.89498    101.0 1.493e+04 6.252e-09
 16.91628    101.6 1.477e+04 6.947e-09
 16.95808    102.3 1.456e+04 7.366e-09
 16.99274    103.0 1.452e+04 7.319e-09
 17.01364    103.8 1.455e+04 8.668e-09
 17.04167    104.7 1.446e+04 8.050e-09
 17.08346    105.6 1.449e+04 6.609e-09
 17.11140    106.7 1.460e+04 5.043e-09
 17.13229    108.1 1.451e+04 5.967e-09
 17.16706    109.4 1.463e+04 4.581e-09
 17.20885    110.9 1.460e+04 4.042e-09
 17.23005    112.5 1.458e+04 4.052e-09
 17.25095    114.1 1.463e+04 4.528e-09
 17.29244    115.6 1.469e+04 4.657e-09
 17.32781    116.7 1.481e+04 5.639e-09
 17.34871    117.7 1.489e+04 6.784e-09
 17.35710    118.0 1.489e+04 8.851e-09
 17.37799    119.0 1.492e+04 9.382e-09
 17.41783    119.2 1.488e+04 1.224e-08
 17.44646    119.2 1.492e+04 1.390e-08
 17.45682    118.7 1.492e+04 1.235e-08
 17.46988    118.5 1.489e+04 1.218e-08
 17.50132    118.9 1.487e+04 1.191e-08
 17.54321    119.1 1.484e+04 1.113e-08
 17.56512    119.6 1.493e+04 1.045e-08
 17.57547    118.6 1.497e+04 7.619e-09
 17.59526    118.9 1.504e+04 7.573e-09
 17.61380    119.3 1.512e+04 7.530e-09
 17.62425    119.6 1.515e+04 6.741e-09
 17.63529    119.9 1.522e+04 6.818e-09
 17.64574    120.3 1.520e+04 7.254e-09
 17.65796    120.5 1.525e+04 7.582e-09
 17.67313    120.7 1.528e+04 7.995e-09
 17.68358    120.8 1.524e+04 7.435e-09
 17.69975    120.8 1.527e+04 7.923e-09
 17.72065    120.8 1.527e+04 8.294e-09
 17.73246    120.6 1.527e+04 8.233e-09
 17.74291    120.2 1.532e+04 8.434e-09
 17.76245    119.8 1.523e+04 8.405e-09
 17.78134    119.6 1.519e+04 8.349e-09
 17.79178    119.1 1.514e+04 9.423e-09
 17.80424    118.9 1.510e+04 9.426e-09
 17.82514    118.7 1.505e+04 9.625e-09
 17.84066    118.6 1.502e+04 1.017e-08
 17.85111    118.0 1.501e+04 9.720e-09
 17.86693    117.6 1.497e+04 9.417e-09
 17.88783    117.1 1.496e+04 9.004e-09
 17.89999    116.3 1.489e+04 8.599e-09
 17.91044    114.9 1.482e+04 7.749e-09
 17.92414    113.8 1.478e+04 7.740e-09
 17.93459    114.5 1.474e+04 7.764e-09
 17.94887    113.3 1.473e+04 7.863e-09
 17.95932    111.7 1.491e+04 9.561e-09
 17.97142    110.6 1.472e+04 1.183e-08
 17.99232    109.6 1.459e+04 1.504e-08
 18.00820    108.6 1.455e+04 1.944e-08
 18.01865    107.5 1.468e+04 2.344e-08
 18.03412    106.5 1.470e+04 2.837e-08
 18.05501    105.5 1.472e+04 3.207e-08
 18.06752    104.5 1.471e+04 3.206e-08
 18.07797    103.4 1.464e+04 3.138e-08
 18.09681    102.8 1.438e+04 2.800e-08
 18.11640    102.4 1.407e+04 2.154e-08
 18.12685    101.9 1.389e+04 1.840e-08
 18.13860    101.8 1.367e+04 1.442e-08
 18.17005    101.5 1.335e+04 8.671e-09
 18.21194    102.1 1.312e+04 4.321e-09
 18.23525    103.3 1.303e+04 2.120e-09
 18.25615    102.8 1.295e+04 1.901e-09
 18.29553    104.7 1.267e+04 1.830e-09
 18.33301    107.1 1.263e+04 1.875e-09
 18.35391    107.4 1.263e+04 2.528e-09
 18.37912    109.7 1.262e+04 3.054e-09
 18.42092    111.7 1.269e+04 3.752e-09
 18.45166    113.3 1.279e+04 4.209e-09
 18.47256    112.1 1.288e+04 4.269e-09
 18.49157    113.1 1.286e+04 4.124e-09
 18.51247    113.3 1.277e+04 3.659e-09
 18.54630    114.3 1.274e+04 3.363e-09
 18.57032    115.6 1.268e+04 2.810e-09
 18.59122    114.6 1.277e+04 2.565e-09
 18.62990    116.0 1.274e+04 2.036e-09
 18.66808    117.6 1.269e+04 1.640e-09
 18.68897    116.9 1.272e+04 1.681e-09
 18.71349    118.6 1.263e+04 1.512e-09
 18.75528    120.4 1.252e+04 1.498e-09
 18.78673    122.2 1.251e+04 1.509e-09
 18.80763    122.1 1.252e+04 1.751e-09
 18.83887    123.9 1.251e+04 1.776e-09
 18.88067    125.6 1.252e+04 1.805e-09
 18.90539    127.4 1.254e+04 1.824e-09
 18.92628    127.2 1.256e+04 1.852e-09
 18.96426    129.2 1.255e+04 1.868e-09
 19.00314    131.2 1.255e+04 1.946e-09
 19.02404    131.3 1.257e+04 1.776e-09
 19.04785    133.5 1.260e+04 1.951e-09
 19.06926    135.4 1.258e+04 2.516e-09
 19.09015    135.4 1.266e+04 2.473e-09
 19.12180    137.1 1.274e+04 3.414e-09
 19.14270    137.5 1.275e+04 3.298e-09
 19.17324    139.1 1.286e+04 4.929e-09
 19.21503    140.2 1.300e+04 6.986e-09
 19.24045    140.4 1.320e+04 8.634e-09
 19.26135    141.2 1.325e+04 8.426e-09
 19.29862    141.4 1.348e+04 9.216e-09
 19.33821    141.4 1.370e+04 9.609e-09
 19.35911    142.7 1.367e+04 9.304e-09
 19.38221    143.0 1.388e+04 1.037e-08
 19.42401    143.3 1.413e+04 1.256e-08
 19.45687    143.0 1.448e+04 1.651e-08
 19.47767    143.7 1.466e+04 2.306e-08
 19.49696    143.5 1.492e+04 2.949e-08
 19.51600    143.0 1.516e+04 3.230e-08
 19.52645    143.5 1.553e+04 4.348e-08
 19.53875    142.7 1.554e+04 4.305e-08
 19.55965    142.1 1.545e+04 3.898e-08
 19.57533    142.1 1.522e+04 2.995e-08
 19.58577    142.3 1.539e+04 3.235e-08
 19.60144    142.4 1.514e+04 2.386e-08
 19.62595    142.8 1.498e+04 1.519e-08
 19.64694    142.2 1.497e+04 1.406e-08
 19.67328    142.7 1.482e+04 7.897e-09
 19.69418    143.4 1.509e+04 6.538e-09
 19.71658    144.9 1.495e+04 4.803e-09
 19.75837    147.1 1.475e+04 4.594e-09
 19.79193    149.8 1.476e+04 4.630e-09
 19.81283    150.7 1.493e+04 3.774e-09
 19.84196    153.2 1.501e+04 4.107e-09
 19.88376    155.6 1.499e+04 4.854e-09
 19.91059    157.8 1.498e+04 6.010e-09
 19.93149    158.5 1.493e+04 4.692e-09
 19.96735    160.5 1.500e+04 5.845e-09
 20.00835    162.2 1.511e+04 7.151e-09
 20.02915    162.9 1.505e+04 5.995e-09
 20.04030    163.7 1.508e+04 6.606e-09
 20.06119    164.6 1.511e+04 7.227e-09
 20.07793    165.5 1.514e+04 7.755e-09
 20.08838    165.9 1.506e+04 6.512e-09
 20.10299    166.7 1.509e+04 6.895e-09
 20.12690    168.0 1.513e+04 7.552e-09
 20.14780    169.0 1.508e+04 6.291e-09
 20.17623    170.5 1.509e+04 5.775e-09
 20.20373    172.1 1.505e+04 6.157e-09
 20.21408    171.6 1.510e+04 6.754e-09
 20.22838    172.2 1.509e+04 6.888e-09
 20.24546    173.2 1.505e+04 6.950e-09
 20.25591    173.9 1.509e+04 5.513e-09
 20.27017    174.6 1.509e+04 5.678e-09
 20.30162    175.8 1.504e+04 6.471e-09
 20.34341    177.5 1.499e+04 6.964e-09
 20.38521    180.1 1.498e+04 7.151e-09
 20.42710    181.5 1.497e+04 8.191e-09
 20.46207    182.9 1.503e+04 9.795e-09
 20.48287    182.7 1.501e+04 9.030e-09
 20.51059    183.5 1.503e+04 9.875e-09
 20.55249    184.5 1.505e+04 1.062e-08
 20.58072    185.5 1.506e+04 1.136e-08
 20.60162    186.2 1.503e+04 9.396e-09
 20.63608    187.3 1.497e+04 9.585e-09
 20.67787    188.3 1.495e+04 9.844e-09
 20.69938    189.4 1.491e+04 1.010e-08
 20.72027    189.7 1.480e+04 7.799e-09
 20.74816    190.2 1.479e+04 7.870e-09
 20.75851    190.2 1.475e+04 7.758e-09
 20.77077    190.7 1.471e+04 7.666e-09
 20.78122    190.7 1.482e+04 7.401e-09
 20.79261    191.3 1.473e+04 7.403e-09
 20.80739    191.9 1.465e+04 7.404e-09
 20.81784    192.3 1.459e+04 6.976e-09
 20.83441    192.9 1.450e+04 7.056e-09
 20.85531    193.6 1.441e+04 7.158e-09
 20.86672    194.3 1.434e+04 7.280e-09
 20.87716    194.3 1.431e+04 7.278e-09
 20.89710    194.9 1.427e+04 7.383e-09
 20.91559    195.6 1.425e+04 7.588e-09
 20.92604    195.6 1.412e+04 7.408e-09
 20.93890    196.4 1.403e+04 7.261e-09
 20.95980    197.2 1.396e+04 6.822e-09
 20.97492    198.0 1.392e+04 6.213e-09
 20.98537    197.9 1.388e+04 4.888e-09
 21.00159    198.6 1.386e+04 4.292e-09
 21.02249    199.3 1.383e+04 3.810e-09
 21.03425    200.0 1.380e+04 3.442e-09
 21.04470    199.7 1.373e+04 2.879e-09
 21.05962    200.2 1.370e+04 2.745e-09
 21.07007    201.1 1.378e+04 3.660e-09
 21.08313    201.8 1.373e+04 3.452e-09
 21.09358    201.6 1.367e+04 3.167e-09
 21.10608    202.4 1.365e+04 3.122e-09
 21.12698    203.1 1.364e+04 3.091e-09
 21.14245    203.8 1.363e+04 3.056e-09
 21.15290    203.7 1.359e+04 3.125e-09
 21.16877    204.4 1.355e+04 3.194e-09
 21.18967    205.1 1.351e+04 3.268e-09
 21.20178    205.8 1.345e+04 3.362e-09
 21.21223    205.7 1.339e+04 3.854e-09
 21.23147    206.4 1.335e+04 4.032e-09
 21.25066    207.2 1.333e+04 4.247e-09
 21.26111    207.0 1.337e+04 4.532e-09
 21.27326    207.6 1.338e+04 4.633e-09
 21.29416    208.2 1.337e+04 4.748e-09
 21.30999    208.8 1.328e+04 4.817e-09
 21.32044    208.4 1.308e+04 4.367e-09
 21.33595    209.0 1.299e+04 4.297e-09
 21.34846    209.6 1.290e+04 4.232e-09
 21.35891    209.9 1.316e+04 4.719e-09
 21.36932    210.4 1.305e+04 4.640e-09
 21.37976    210.5 1.289e+04 4.279e-09
 21.39865    211.1 1.288e+04 4.268e-09
 21.41819    211.7 1.284e+04 4.311e-09
 21.42864    212.0 1.275e+04 4.002e-09
 21.44044    212.7 1.272e+04 4.093e-09
 21.46134    213.3 1.270e+04 4.192e-09
 21.47752    213.9 1.268e+04 4.279e-09
 21.48797    214.4 1.275e+04 4.130e-09
 21.50314    215.0 1.275e+04 4.207e-09
 21.52403    215.5 1.277e+04 4.257e-09
 21.53685    216.1 1.281e+04 4.280e-09
 21.54730    216.4 1.278e+04 4.264e-09
 21.56583    216.9 1.286e+04 4.273e-09
 21.58573    217.4 1.294e+04 4.263e-09
 21.59618    217.8 1.310e+04 4.359e-09
 21.60762    218.2 1.312e+04 4.310e-09
 21.63907    218.9 1.323e+04 4.557e-09
 21.68096    219.9 1.323e+04 4.253e-09
 21.70458    220.7 1.321e+04 3.838e-09
 21.72548    221.5 1.325e+04 3.832e-09
 21.76455    221.8 1.314e+04 3.284e-09
 21.80234    221.8 1.295e+04 2.771e-09
 21.82314    221.1 1.316e+04 2.749e-09
 21.83750    221.0 1.303e+04 2.434e-09
 21.85840    220.8 1.292e+04 2.160e-09
 21.87192    220.6 1.283e+04 1.953e-09
 21.88237    220.4 1.285e+04 2.443e-09
 21.90019    220.1 1.259e+04 2.419e-09
 21.91570    219.8 1.256e+04 2.421e-09
 21.92585    218.8 1.257e+04 2.434e-09
 21.93124    218.7 1.270e+04 3.497e-09
 21.94199    218.3 1.268e+04 3.511e-09
 21.96289    217.9 1.261e+04 3.586e-09
 21.98012    217.5 1.254e+04 3.736e-09
 21.99057    217.1 1.272e+04 5.257e-09
 22.00468    216.7 1.267e+04 5.475e-09
 22.02558    216.3 1.264e+04 5.730e-09
 22.03945    215.9 1.261e+04 6.022e-09
 22.04990    215.1 1.277e+04 7.653e-09
 22.06737    214.5 1.273e+04 7.961e-09
 22.08827    213.8 1.270e+04 8.485e-09
 22.10917    212.1 1.275e+04 1.012e-08
 22.13007    211.3 1.281e+04 1.132e-08
 22.14766    210.3 1.285e+04 1.248e-08
 22.15810    209.1 1.269e+04 1.050e-08
 22.17186    208.0 1.266e+04 1.030e-08
 22.19276    206.8 1.253e+04 9.591e-09
 22.20454    205.9 1.230e+04 8.493e-09
 22.20831    205.2 1.243e+04 8.718e-09
 22.21743    203.9 1.208e+04 6.387e-09
 22.23456    203.1 1.188e+04 5.660e-09
 22.25545    202.6 1.170e+04 5.064e-09
 22.26631    202.1 1.157e+04 4.638e-09
 22.27676    201.2 1.140e+04 4.124e-09
 22.29725    200.8 1.125e+04 4.030e-09
 22.31519    200.6 1.117e+04 4.041e-09
 22.32564    199.7 1.116e+04 3.829e-09
 22.33904    199.4 1.115e+04 3.968e-09
 22.35994    199.0 1.118e+04 4.215e-09
 22.37452    198.7 1.124e+04 4.590e-09
 22.38497    197.4 1.140e+04 5.006e-09
 22.40174    197.3 1.141e+04 5.529e-09
 22.42264    197.2 1.138e+04 5.963e-09
 22.43384    197.2 1.129e+04 6.164e-09
 22.44429    196.3 1.132e+04 6.102e-09
 22.46443    196.5 1.120e+04 5.637e-09
 22.48272    196.7 1.109e+04 5.079e-09
 22.49078    196.0 1.105e+04 4.048e-09
 22.49338    194.8 1.100e+04 3.110e-09
 22.50623    195.1 1.076e+04 2.702e-09
 22.52712    195.5 1.050e+04 2.626e-09
 22.54205    196.3 1.047e+04 2.627e-09
 22.55250    196.0 1.037e+04 2.360e-09
 22.56892    196.9 1.036e+04 2.380e-09
 22.58982    197.8 1.034e+04 2.452e-09
 22.60138    198.6 1.033e+04 2.567e-09
 22.61183    198.8 1.033e+04 2.501e-09
 22.63161    199.6 1.033e+04 2.597e-09
 22.65026    200.3 1.031e+04 2.664e-09
 22.66071    200.6 1.033e+04 2.618e-09
 22.67341    201.3 1.030e+04 2.644e-09
 22.69431    201.9 1.024e+04 2.664e-09
 22.70958    202.7 1.014e+04 2.716e-09
 22.72003    203.1 1.024e+04 2.720e-09
 22.73610    204.0 1.017e+04 2.869e-09
 22.75700    204.7 1.018e+04 3.047e-09
 22.76891    204.9 1.024e+04 3.374e-09
 22.77324    205.2 1.066e+04 4.289e-09
 22.78223    204.3 1.072e+04 5.481e-09
 22.79879    204.3 1.129e+04 7.810e-09
 22.81779    204.1 1.225e+04 1.248e-08
 22.82824    204.2 1.283e+04 1.978e-08
 22.84059    203.6 1.351e+04 2.608e-08
 22.85263    203.2 1.384e+04 2.844e-08
 22.85780    202.8 1.422e+04 3.363e-08
 22.86661    201.5 1.522e+04 4.651e-08
 22.87702    199.2 1.658e+04 6.941e-08
 22.88747    195.5 1.753e+04 1.018e-07
 22.89796    191.2 1.854e+04 1.277e-07
 22.90668    185.9 1.950e+04 1.572e-07
 22.91191    186.0 1.854e+04 1.168e-07
 22.91610    180.2 1.909e+04 1.256e-07
 22.92133    180.5 1.891e+04 1.115e-07
 22.92931    176.1 1.879e+04 1.137e-07
 22.93635    172.2 1.864e+04 1.155e-07
 22.94684    170.6 1.821e+04 8.644e-08
 22.96598    165.1 1.733e+04 8.118e-08
 22.98532    162.9 1.624e+04 6.750e-08
 22.99577    164.6 1.570e+04 5.058e-08
 23.00777    164.1 1.541e+04 5.015e-08
 23.02867    164.5 1.498e+04 4.367e-08
 23.04465    164.7 1.460e+04 3.298e-08
 23.05510    166.2 1.461e+04 3.529e-08
 23.06062    166.1 1.433e+04 2.790e-08
 23.07107    166.5 1.441e+04 3.000e-08
 23.09136    165.8 1.410e+04 2.265e-08
 23.10398    164.8 1.359e+04 1.545e-08
 23.11443    166.8 1.394e+04 2.019e-08
 23.13316    165.6 1.349e+04 1.308e-08
 23.15286    164.2 1.271e+04 8.308e-09
 23.16331    166.4 1.355e+04 1.204e-08
 23.17495    164.9 1.264e+04 7.392e-09
 23.19585    163.4 1.143e+04 6.471e-09
 23.21218    162.5 1.129e+04 6.464e-09
 23.22263    164.0 1.153e+04 6.755e-09
 23.23765    163.0 1.147e+04 6.780e-09
 23.25854    162.2 1.149e+04 7.134e-09
 23.27151    161.4 1.175e+04 8.497e-09
 23.28196    162.0 1.193e+04 8.486e-09
 23.30034    160.8 1.223e+04 1.057e-08
 23.32039    159.6 1.264e+04 1.407e-08
 23.33084    159.6 1.282e+04 1.441e-08
 23.33902    158.2 1.322e+04 2.003e-08
 23.34946    158.2 1.232e+04 1.087e-08
 23.36303    157.0 1.250e+04 1.339e-08
 23.37972    155.8 1.257e+04 1.563e-08
 23.39017    155.8 1.266e+04 1.668e-08
 23.40483    154.7 1.256e+04 1.706e-08
 23.42573    154.5 1.238e+04 1.690e-08
 23.43905    154.5 1.209e+04 1.583e-08
 23.44949    154.5 1.205e+04 1.537e-08
 23.46752    154.7 1.166e+04 1.309e-08
 23.48792    154.8 1.135e+04 1.118e-08
 23.49837    154.7 1.133e+04 1.095e-08
 23.50932    154.8 1.131e+04 1.092e-08
 23.53021    154.9 1.135e+04 1.157e-08
 23.54725    154.8 1.172e+04 1.463e-08
 23.55770    153.6 1.207e+04 1.842e-08
 23.57201    152.5 1.307e+04 2.882e-08
 23.58763    151.5 1.380e+04 3.871e-08
 23.59803    150.1 1.473e+04 5.699e-08
 23.60648    148.7 1.571e+04 9.327e-08
 23.61171    147.8 1.621e+04 1.082e-07
 23.61893    146.4 1.712e+04 1.527e-07
 23.62776    144.5 1.815e+04 1.911e-07
 23.63299    144.2 1.885e+04 2.101e-07
 23.63615    140.5 1.991e+04 2.078e-07
 23.64137    136.3 1.944e+04 1.548e-07
 23.65028    130.9 1.972e+04 1.416e-07
 23.66058    126.9 1.958e+04 1.229e-07
 23.66586    125.0 1.909e+04 9.885e-08
 23.67650    116.7 1.780e+04 5.211e-08
 23.69740    110.1 1.497e+04 1.883e-08
 23.71479    104.8 1.181e+04 5.830e-09
 23.72523    103.7 1.140e+04 3.832e-09
 23.73919    101.2 1.129e+04 3.400e-09
 23.76009    100.3 1.124e+04 3.411e-09
 23.77411     99.9 1.123e+04 3.572e-09
 23.78456    100.6 1.114e+04 3.390e-09
 23.80189    100.3 1.129e+04 4.015e-09
 23.82278     99.9 1.148e+04 4.899e-09
 23.83344     99.4 1.167e+04 5.889e-09
 23.84389    100.0 1.163e+04 5.898e-09
 23.86458     99.4 1.179e+04 6.788e-09
 23.88232     98.7 1.192e+04 7.389e-09
 23.89277     99.2 1.189e+04 7.383e-09
 23.90625     98.3 1.209e+04 7.543e-09
 23.91670     98.5 1.226e+04 9.717e-09
 23.92727     97.3 1.250e+04 9.881e-09
 23.94165     95.7 1.253e+04 9.809e-09
 23.95209     96.2 1.250e+04 1.024e-08
 23.96907     94.3 1.256e+04 9.914e-09
 23.98996     92.2 1.259e+04 9.718e-09
 24.00097     89.7 1.266e+04 9.992e-09
 24.01142     90.3 1.270e+04 1.006e-08
 24.03176     87.0 1.294e+04 1.128e-08
 24.04985     82.9 1.338e+04 1.625e-08
 24.06030     83.4 1.329e+04 1.415e-08
 24.07356     78.7 1.332e+04 1.801e-08
 24.09445     74.1 1.319e+04 1.789e-08
 24.10918     70.1 1.258e+04 1.486e-08
 24.11963     70.9 1.247e+04 1.410e-08
 24.13625     67.5 1.160e+04 8.252e-09
 24.15715     65.2 1.076e+04 4.844e-09
 24.16860     61.7 9.855e+03 2.707e-09
 24.18575     63.2 9.900e+03 2.717e-09
 24.20574     63.1 1.027e+04 3.304e-09
 24.23048     61.3 9.962e+03 2.368e-09
 24.26646     60.7 1.003e+04 2.406e-09
 24.28736     61.3 1.031e+04 2.420e-09
 24.31407     60.7 1.027e+04 2.669e-09
 24.35587     60.0 1.060e+04 3.119e-09
 24.38511     58.9 1.104e+04 3.146e-09
 24.40601     59.2 1.096e+04 2.947e-09
 24.43946     58.6 1.122e+04 2.470e-09
 24.48126     58.5 1.164e+04 1.733e-09
 24.50377     58.6 1.195e+04 1.281e-09
 24.52467     59.9 1.192e+04 1.122e-09
 24.56485     60.6 1.189e+04 1.140e-09
 24.60153     61.5 1.191e+04 1.303e-09
 24.62242     63.0 1.185e+04 1.270e-09
 24.64844     63.9 1.193e+04 1.741e-09
 24.69023     64.5 1.205e+04 2.175e-09
 24.72018     64.7 1.236e+04 2.176e-09
 24.74108     66.3 1.218e+04 2.066e-09
 24.76253     66.1 1.234e+04 1.855e-09
 24.78343     66.5 1.232e+04 2.359e-09
 24.81562     66.2 1.242e+04 2.045e-09
 24.83884     65.8 1.248e+04 1.894e-09
 24.85973     67.8 1.245e+04 1.789e-09
 24.89921     67.7 1.243e+04 1.838e-09
 24.93659     67.5 1.238e+04 1.895e-09
 24.95749     69.4 1.241e+04 1.877e-09
 24.98280     69.1 1.230e+04 1.791e-09
 25.02460     68.7 1.208e+04 1.525e-09
 25.05525     68.3 1.183e+04 1.380e-09
 25.07615     70.0 1.188e+04 1.326e-09
 25.10819     69.7 1.178e+04 1.343e-09
 25.14998     69.5 1.164e+04 1.514e-09
 25.17390     69.5 1.148e+04 1.780e-09
 25.19480     71.0 1.167e+04 1.849e-09
 25.23357     71.0 1.147e+04 1.985e-09
 25.27166     71.3 1.130e+04 2.008e-09
 25.29256     72.9 1.132e+04 2.505e-09
 25.31716     73.5 1.120e+04 2.501e-09
 25.34021     74.3 1.120e+04 2.703e-09
 25.36111     74.2 1.102e+04 2.012e-09
 25.39032     74.7 1.111e+04 2.856e-09
 25.41121     75.9 1.112e+04 3.167e-09
 25.44255     76.2 1.136e+04 5.603e-09
 25.48435     76.3 1.163e+04 9.015e-09
 25.50897     75.9 1.174e+04 9.813e-09
 25.52987     77.1 1.193e+04 1.184e-08
 25.56794     76.1 1.189e+04 1.131e-08
 25.60673     75.1 1.144e+04 8.439e-09
 25.62763     76.1 1.217e+04 1.403e-08
 25.65153     75.5 1.164e+04 9.918e-09
 25.69332     74.8 1.100e+04 5.848e-09
 25.72538     74.2 1.051e+04 4.005e-09
 25.74628     74.3 1.104e+04 9.292e-09
 25.77691     74.5 1.101e+04 9.344e-09
 25.81871     75.0 1.103e+04 9.832e-09
 25.84404     75.7 1.107e+04 1.030e-08
 25.86494     76.1 1.149e+04 1.418e-08
 25.89700     76.9 1.141e+04 1.346e-08
 25.91790     77.6 1.114e+04 1.164e-08
 25.94179     78.7 1.091e+04 9.571e-09
 25.96269     79.0 1.096e+04 8.930e-09
 25.98589     80.5 1.055e+04 5.662e-09
 26.02769     82.2 1.019e+04 3.236e-09
 26.06045     83.7 9.952e+03 1.980e-09
 26.08135     83.8 9.940e+03 1.679e-09
 26.11128     85.4 9.807e+03 1.178e-09
 26.15307     87.1 9.733e+03 8.597e-10
 26.17910     88.7 9.662e+03 6.574e-10
 26.20000     88.9 9.619e+03 5.750e-10
 26.23666     90.4 9.376e+03 4.713e-10
 26.27686     92.2 9.295e+03 4.723e-10
 26.29776     92.5 9.354e+03 5.257e-10
 26.32026     94.4 9.326e+03 5.439e-10
 26.36205     96.2 9.280e+03 6.259e-10
 26.39552     97.9 9.283e+03 7.916e-10
 26.41641     98.4 9.327e+03 9.780e-10
 26.44564    100.0 9.377e+03 1.244e-09
 26.47469    101.5 9.465e+03 1.594e-09
 26.49559    101.7 9.564e+03 1.735e-09
 26.51417    103.3 9.829e+03 2.474e-09
 26.53507    103.5 9.851e+03 2.428e-09
 26.57103    104.5 1.021e+04 3.254e-09
 26.60228    104.7 1.034e+04 3.570e-09
 26.62218    105.0 1.041e+04 3.793e-09
 26.63273    105.1 1.034e+04 3.596e-09
 26.64407    105.3 1.040e+04 3.731e-09
 26.66487    105.5 1.047e+04 3.858e-09
 26.68151    105.6 1.059e+04 4.109e-09
 26.69196    105.5 1.052e+04 3.934e-09
 26.70667    105.3 1.062e+04 4.172e-09
 26.72757    105.1 1.074e+04 4.617e-09
 26.74084    104.8 1.086e+04 5.148e-09
 26.75138    105.1 1.070e+04 4.571e-09
 26.78000    104.6 1.111e+04 6.479e-09
 26.82180    103.9 1.165e+04 9.477e-09
 26.84924    102.4 1.194e+04 1.055e-08
 26.87014    102.7 1.137e+04 5.313e-09
 26.90539    101.1 1.128e+04 4.896e-09
 26.94700    100.0 1.090e+04 3.580e-09
 26.98879    101.4 1.052e+04 2.076e-09
 27.03078    101.9 1.028e+04 1.561e-09
 27.05238    102.8 9.977e+03 1.357e-09
 27.06635    102.8 1.007e+04 1.494e-09
 27.08655    104.5 1.022e+04 1.813e-09
 27.11437    105.9 1.015e+04 1.799e-09
 27.15616    107.4 1.012e+04 1.883e-09
 27.18431    108.7 1.014e+04 2.196e-09
 27.20520    110.1 1.027e+04 2.515e-09
 27.23975    111.2 1.037e+04 3.164e-09
 27.28155    111.9 1.055e+04 3.645e-09
 27.30296    112.1 1.064e+04 3.658e-09
 27.32386    113.7 1.085e+04 4.744e-09
 27.36514    113.8 1.090e+04 4.693e-09
 27.40072    113.2 1.093e+04 4.228e-09
 27.42162    115.1 1.118e+04 5.907e-09
 27.44873    114.4 1.111e+04 4.726e-09
 27.49053    113.6 1.091e+04 2.873e-09
 27.51937    112.8 1.070e+04 1.573e-09
 27.54027    114.6 1.100e+04 2.591e-09
 27.57412    114.0 1.071e+04 1.415e-09
 27.60916    114.2 1.056e+04 1.305e-09
 27.63006    114.0 1.060e+04 1.092e-09
 27.63803    114.5 1.054e+04 1.139e-09
 27.65893    116.0 1.068e+04 1.396e-09
 27.69950    116.6 1.062e+04 1.581e-09
 27.73578    116.9 1.055e+04 2.104e-09
 27.75668    118.4 1.074e+04 2.665e-09
 27.78310    118.6 1.072e+04 3.430e-09
 27.82489    118.3 1.065e+04 3.969e-09
 27.85444    117.4 1.061e+04 3.974e-09
 27.87534    118.9 1.082e+04 4.549e-09
 27.90848    118.0 1.054e+04 3.983e-09
 27.95028    117.3 1.019e+04 3.153e-09
 27.97309    117.0 9.871e+03 2.420e-09
 27.99399    118.8 1.001e+04 2.784e-09
 28.03387    118.8 9.812e+03 2.489e-09
 28.07085    119.1 9.700e+03 2.309e-09
 28.09175    121.0 9.879e+03 3.002e-09
 28.11746    121.2 9.850e+03 3.036e-09
 28.15925    121.3 9.844e+03 3.155e-09
 28.18685    121.2 9.919e+03 3.496e-09
 28.19621    121.2 9.834e+03 3.024e-09
 28.21040    123.0 1.004e+04 3.757e-09
 28.24284    122.7 1.027e+04 4.433e-09
 28.28464    121.7 1.053e+04 4.622e-09
 28.30816    120.3 1.054e+04 4.452e-09
 28.32906    122.1 1.074e+04 5.111e-09
 28.36823    120.9 1.066e+04 4.108e-09
 28.40592    120.0 1.054e+04 2.603e-09
 28.42682    121.9 1.070e+04 3.161e-09
 28.45182    121.4 1.060e+04 1.732e-09
 28.49362    121.3 1.046e+04 1.151e-09
 28.52457    121.9 1.038e+04 1.143e-09
 28.54547    123.6 1.048e+04 1.006e-09
 28.57721    124.4 1.044e+04 1.028e-09
 28.61900    125.6 1.042e+04 1.148e-09
 28.64323    126.8 1.055e+04 1.302e-09
 28.66413    128.3 1.058e+04 1.077e-09
 28.70259    129.5 1.072e+04 1.159e-09
 28.74099    130.6 1.075e+04 1.143e-09
 28.76113    132.1 1.087e+04 1.027e-09
 28.76454    132.7 1.086e+04 1.154e-09
 28.78619    133.7 1.091e+04 1.150e-09
 28.82798    134.7 1.097e+04 1.077e-09
 28.85964    135.7 1.101e+04 9.294e-10
 28.88054    137.3 1.109e+04 9.323e-10
 28.91157    138.4 1.109e+04 8.269e-10
 28.95337    139.7 1.107e+04 8.032e-10
 28.97830    141.1 1.105e+04 8.412e-10
 28.99919    142.5 1.105e+04 8.285e-10
 29.03696    143.8 1.099e+04 9.697e-10
 29.07605    145.0 1.118e+04 1.463e-09
 29.09695    146.3 1.104e+04 1.297e-09
 29.12055    146.8 1.134e+04 1.939e-09
 29.14573    146.5 1.158e+04 2.736e-09
 29.15608    146.9 1.154e+04 2.564e-09
 29.17260    147.0 1.171e+04 3.714e-09
 29.19350    146.9 1.195e+04 5.763e-09
 29.20496    146.3 1.231e+04 8.848e-09
 29.21541    147.0 1.218e+04 7.900e-09
 29.23529    145.9 1.266e+04 1.208e-08
 29.25384    144.2 1.325e+04 1.751e-08
 29.26429    145.1 1.308e+04 1.635e-08
 29.27709    143.0 1.372e+04 2.133e-08
 29.29798    140.3 1.391e+04 2.161e-08
 29.31317    137.8 1.385e+04 1.968e-08
 29.32362    139.0 1.399e+04 2.274e-08
 29.33158    136.8 1.373e+04 1.797e-08
 29.34203    136.7 1.389e+04 1.926e-08
 29.36068    134.7 1.337e+04 1.319e-08
 29.37249    133.1 1.281e+04 8.839e-09
 29.38294    134.1 1.312e+04 1.160e-08
 29.40247    132.6 1.263e+04 8.326e-09
 29.42137    131.5 1.229e+04 6.594e-09
 29.43182    132.3 1.253e+04 8.350e-09
 29.44427    131.5 1.224e+04 6.831e-09
 29.46517    131.0 1.201e+04 5.784e-09
 29.48070    130.6 1.186e+04 4.961e-09
 29.49115    131.1 1.201e+04 5.914e-09
 29.50696    130.8 1.187e+04 5.060e-09
 29.52786    130.6 1.184e+04 4.367e-09
 29.54003    130.4 1.188e+04 3.721e-09
 29.55048    130.7 1.195e+04 4.247e-09
 29.56965    130.5 1.197e+04 3.487e-09
 29.58891    130.4 1.195e+04 3.049e-09
 29.59936    130.5 1.200e+04 3.027e-09
 29.62200    130.9 1.206e+04 2.777e-09
 29.64843    131.4 1.191e+04 1.914e-09
 29.66933    131.6 1.196e+04 1.720e-09
 29.70569    132.5 1.185e+04 1.615e-09
 29.74619    133.4 1.196e+04 1.705e-09
 29.76708    134.2 1.206e+04 1.747e-09
 29.78928    134.6 1.219e+04 2.140e-09
 29.81587    134.6 1.222e+04 2.477e-09
 29.82622    135.2 1.219e+04 2.605e-09
 29.84132    135.8 1.227e+04 3.340e-09
 29.86222    136.2 1.241e+04 4.239e-09
 29.87510    136.4 1.254e+04 5.081e-09
 29.88554    137.1 1.262e+04 5.865e-09
 29.89882    137.1 1.279e+04 6.873e-09
 29.90927    137.6 1.292e+04 7.696e-09
 29.92397    137.1 1.318e+04 9.575e-09
 29.93442    137.5 1.363e+04 1.393e-08
 29.94581    136.5 1.402e+04 1.957e-08
 29.96671    135.0 1.450e+04 2.612e-08
 29.98330    132.9 1.479e+04 2.878e-08
 29.99375    132.0 1.553e+04 4.860e-08
 30.00851    129.4 1.538e+04 4.309e-08
 30.02940    127.2 1.498e+04 3.332e-08
 30.04263    125.4 1.453e+04 2.478e-08
 30.05308    123.9 1.477e+04 3.241e-08
 30.07120    122.9 1.426e+04 2.547e-08
 30.09151    122.7 1.395e+04 2.072e-08
 30.10196    122.0 1.412e+04 2.814e-08
 30.11300    122.5 1.379e+04 2.049e-08
 30.13389    122.5 1.348e+04 1.454e-08
 30.16534    122.3 1.306e+04 1.046e-08
 30.19991    122.3 1.242e+04 7.718e-09
 30.22081    122.3 1.245e+04 9.491e-09
 30.24903    122.8 1.243e+04 9.488e-09
 30.29082    122.6 1.258e+04 1.087e-08
 30.31847    121.8 1.291e+04 1.398e-08
 30.32882    121.6 1.278e+04 1.369e-08
 30.34287    121.1 1.311e+04 1.796e-08
 30.36377    120.4 1.335e+04 2.327e-08
 30.37770    119.5 1.333e+04 2.400e-08
 30.38814    119.8 1.304e+04 1.972e-08
 30.40556    119.0 1.287e+04 1.804e-08
 30.42646    118.4 1.263e+04 1.468e-08
 30.43712    117.2 1.195e+04 7.983e-09
 30.45591    117.9 1.184e+04 7.774e-09
 30.47660    117.7 1.199e+04 8.701e-09
 30.49970    118.5 1.142e+04 4.329e-09
 30.53498    118.7 1.088e+04 1.528e-09
 30.55587    120.3 1.092e+04 2.167e-09
 30.58339    121.0 1.049e+04 1.261e-09
 30.62518    122.4 1.030e+04 1.164e-09
 30.65363    124.4 1.029e+04 1.169e-09
 30.67453    126.0 1.025e+04 1.390e-09
 30.70878    127.9 1.025e+04 1.408e-09
 30.75057    129.8 1.025e+04 1.486e-09
 30.77229    131.6 1.028e+04 1.610e-09
 30.79318    133.0 1.021e+04 1.902e-09
 30.83416    134.6 1.024e+04 2.055e-09
 30.87004    136.1 1.027e+04 2.240e-09
 30.89094    137.5 1.028e+04 2.789e-09
 30.91775    139.0 1.030e+04 3.088e-09
 30.95955    140.6 1.033e+04 3.784e-09
 30.98870    142.5 1.060e+04 5.041e-09
 31.00960    143.3 1.062e+04 5.757e-09
 31.03349    144.9 1.112e+04 8.172e-09
 31.05438    144.5 1.092e+04 7.161e-09
 31.08493    145.1 1.140e+04 9.430e-09
 31.10726    144.9 1.197e+04 1.300e-08
 31.11761    145.1 1.184e+04 1.258e-08
 31.13698    144.7 1.233e+04 1.585e-08
 31.15604    144.0 1.272e+04 1.922e-08
 31.16648    144.5 1.234e+04 1.592e-08
 31.17878    143.6 1.240e+04 1.617e-08
 31.19968    143.0 1.233e+04 1.575e-08
 31.21536    142.4 1.217e+04 1.449e-08
 31.22591    143.3 1.170e+04 1.058e-08
 31.25212    141.8 1.141e+04 9.171e-09
 31.29391    142.0 1.100e+04 7.258e-09
 31.32376    142.5 1.066e+04 4.929e-09
 31.34466    143.9 1.077e+04 6.140e-09
 31.37750    144.6 1.065e+04 5.164e-09
 31.40875    145.2 1.068e+04 5.176e-09
 31.42955    145.8 1.067e+04 4.544e-09
 31.44222    146.1 1.065e+04 3.411e-09
 31.45267    147.0 1.075e+04 4.961e-09
 31.47135    147.2 1.070e+04 3.724e-09
 31.49110    147.3 1.066e+04 2.768e-09
 31.50155    148.3 1.073e+04 3.826e-09
 31.51314    148.3 1.067e+04 2.958e-09
 31.54008    148.3 1.056e+04 2.319e-09
 31.56098    149.4 1.061e+04 2.693e-09
 31.57584    149.6 1.051e+04 2.637e-09
 31.59673    149.9 1.051e+04 2.643e-09
 31.60976    150.5 1.055e+04 2.754e-09
 31.61355    151.0 1.059e+04 3.135e-09
 31.63197    151.0 1.076e+04 3.576e-09
 31.65883    152.0 1.068e+04 3.828e-09
 31.67973    152.1 1.070e+04 4.241e-09
 31.71187    153.1 1.064e+04 4.489e-09
 31.75366    153.8 1.073e+04 4.852e-09
 31.77749    154.3 1.079e+04 4.986e-09
 31.79838    154.5 1.063e+04 4.750e-09
 31.83725    155.0 1.063e+04 4.498e-09
 31.86850    155.5 1.060e+04 4.366e-09
 31.88550    155.8 1.062e+04 4.425e-09
 31.89604    156.1 1.051e+04 3.897e-09
 31.92084    156.8 1.060e+04 4.184e-09
 31.96264    157.1 1.092e+04 5.750e-09
 31.99390    156.9 1.126e+04 7.642e-09
 32.01470    156.8 1.114e+04 6.906e-09
 32.03559    156.7 1.126e+04 7.363e-09
 32.05303    156.5 1.140e+04 7.839e-09
 32.06348    156.7 1.119e+04 6.713e-09
 32.07738    156.6 1.133e+04 7.111e-09
 32.09828    156.4 1.146e+04 7.647e-09
 32.11236    156.3 1.159e+04 8.178e-09
 32.12281    156.8 1.140e+04 7.099e-09
 32.14007    156.7 1.155e+04 7.769e-09
 32.16097    156.9 1.169e+04 8.372e-09
 32.17169    157.1 1.177e+04 8.855e-09
 32.17848    157.6 1.170e+04 8.748e-09
 32.18866    157.9 1.129e+04 7.338e-09
 32.20277    158.1 1.141e+04 8.428e-09
 32.22056    158.2 1.142e+04 9.128e-09
 32.23101    158.7 1.145e+04 9.589e-09
 32.24456    158.7 1.144e+04 1.002e-08
 32.26546    158.7 1.140e+04 9.901e-09
 32.27989    158.5 1.126e+04 9.429e-09
 32.29034    158.8 1.141e+04 1.074e-08
 32.30726    158.5 1.126e+04 1.002e-08
 32.32815    158.1 1.108e+04 9.149e-09
 32.33922    157.6 1.091e+04 8.453e-09
 32.34967    157.8 1.102e+04 9.183e-09
 32.36995    157.3 1.081e+04 8.249e-09
 32.38810    156.8 1.064e+04 7.643e-09
 32.39855    157.0 1.064e+04 7.672e-09
 32.41174    156.4 1.046e+04 6.981e-09
 32.43264    156.0 1.034e+04 6.554e-09
 32.44743    155.6 1.028e+04 6.242e-09
 32.45787    155.9 1.012e+04 5.968e-09
 32.46706    155.6 1.002e+04 5.502e-09
 32.47751    156.1 1.009e+04 5.455e-09
 32.49533    155.9 9.965e+03 5.063e-09
 32.50675    155.6 9.800e+03 4.658e-09
 32.51720    156.2 9.742e+03 4.441e-09
 32.53713    156.1 9.588e+03 4.074e-09
 32.55563    156.0 9.421e+03 3.868e-09
 32.56608    156.7 9.380e+03 3.689e-09
 32.57893    156.8 9.228e+03 3.704e-09
 32.59982    157.0 9.208e+03 3.724e-09
 32.61496    157.3 9.173e+03 3.778e-09
 32.62541    158.0 9.123e+03 3.621e-09
 32.64162    158.4 9.084e+03 3.720e-09
 32.66394    159.0 8.995e+03 3.781e-09
 32.68483    159.9 8.973e+03 3.832e-09
 32.70431    161.0 8.919e+03 3.867e-09
 32.72317    161.4 8.905e+03 3.895e-09
 32.73361    162.3 8.933e+03 4.047e-09
 32.74545    163.1 8.899e+03 4.043e-09
 32.75590    163.4 8.965e+03 4.090e-09
 32.76701    164.1 8.905e+03 4.202e-09
 32.78249    164.9 8.870e+03 4.199e-09
 32.79294    165.6 8.900e+03 4.466e-09
 32.80880    166.3 8.868e+03 4.447e-09
 32.82970    166.9 8.821e+03 4.393e-09
 32.84182    167.5 8.788e+03 4.374e-09
 32.85227    168.3 8.860e+03 4.704e-09
 32.87149    168.9 8.827e+03 4.656e-09
 32.89070    169.4 8.807e+03 4.607e-09
 32.90115    170.3 8.842e+03 4.926e-09
 32.91329    170.8 8.824e+03 4.838e-09
 32.93419    171.2 8.851e+03 4.837e-09
 32.95003    171.8 8.983e+03 5.067e-09
 32.96048    172.7 8.878e+03 5.092e-09
 32.97598    173.0 8.930e+03 5.206e-09
 32.99688    173.5 9.070e+03 5.488e-09
 33.00935    173.8 9.318e+03 6.136e-09
 33.01980    174.8 9.155e+03 5.894e-09
 33.03430    175.2 9.410e+03 6.635e-09
 33.04475    175.6 9.119e+03 5.648e-09
 33.05823    176.1 9.325e+03 6.070e-09
 33.06868    177.0 9.235e+03 6.069e-09
 33.08047    177.5 9.425e+03 6.492e-09
 33.10137    178.0 9.526e+03 6.772e-09
 33.11756    178.6 9.558e+03 6.918e-09
 33.12801    179.4 9.614e+03 7.199e-09
 33.14316    179.8 9.655e+03 7.381e-09
 33.16406    180.2 9.736e+03 7.812e-09
 33.17689    180.5 9.891e+03 8.680e-09
 33.18734    181.2 1.002e+04 9.117e-09
 33.20586    181.4 1.027e+04 1.069e-08
 33.22577    181.7 1.052e+04 1.241e-08
 33.23621    182.2 1.071e+04 1.347e-08
 33.24765    182.6 1.090e+04 1.493e-08
 33.26855    183.1 1.090e+04 1.491e-08
 33.28509    183.5 1.080e+04 1.403e-08
 33.29554    183.9 1.102e+04 1.558e-08
 33.31035    184.5 1.073e+04 1.315e-08
 33.32314    185.1 1.032e+04 9.863e-09
 33.33359    185.7 1.064e+04 1.217e-08
 33.34442    186.3 1.022e+04 8.949e-09
 33.35487    186.8 1.035e+04 9.738e-09
 33.37304    187.2 9.921e+03 6.838e-09
 33.39330    187.5 9.574e+03 4.833e-09
 33.40375    187.7 9.715e+03 5.425e-09
 33.41483    187.7 9.510e+03 4.246e-09
 33.43573    187.8 9.410e+03 3.727e-09
 33.45263    188.1 9.365e+03 3.577e-09
 33.46308    188.1 9.599e+03 4.597e-09
 33.47753    188.4 9.646e+03 4.536e-09
 33.49843    188.8 9.709e+03 4.462e-09
 33.51195    189.1 9.800e+03 4.405e-09
 33.52240    188.8 1.015e+04 5.511e-09
 33.54022    188.9 1.017e+04 5.314e-09
 33.56083    188.9 1.024e+04 5.435e-09
 33.57128    188.0 1.062e+04 6.649e-09
 33.58202    188.0 1.073e+04 6.962e-09
 33.60153    188.1 1.101e+04 8.127e-09
 33.61198    188.9 1.062e+04 6.380e-09
 33.62016    189.2 1.091e+04 7.656e-09
 33.63061    188.6 1.123e+04 8.957e-09
 33.64471    189.3 1.157e+04 1.116e-08
 33.66561    190.1 1.193e+04 1.403e-08
 33.67949    190.9 1.224e+04 1.683e-08
 33.68994    190.5 1.255e+04 1.760e-08
 33.70740    191.4 1.283e+04 1.960e-08
 33.72830    192.3 1.296e+04 2.057e-08
 33.74920    192.8 1.326e+04 2.062e-08
 33.77010    193.7 1.327e+04 2.016e-08
 33.78769    194.7 1.325e+04 1.910e-08
 33.79814    194.2 1.334e+04 1.904e-08
 33.81189    195.1 1.337e+04 1.791e-08
 33.83279    195.8 1.331e+04 1.655e-08
 33.84702    196.5 1.320e+04 1.513e-08
 33.85747    196.0 1.327e+04 1.578e-08
 33.87458    196.4 1.317e+04 1.500e-08
 33.89038    196.6 1.311e+04 1.457e-08
 33.90083    197.4 1.332e+04 1.643e-08
 33.90635    197.5 1.324e+04 1.568e-08
 33.91680    196.8 1.331e+04 1.706e-08
 33.93728    196.7 1.323e+04 1.643e-08
 33.95523    196.5 1.315e+04 1.568e-08
 33.96568    195.7 1.322e+04 1.727e-08
 33.97907    195.4 1.307e+04 1.567e-08
 33.99997    195.3 1.287e+04 1.343e-08
 34.01455    195.2 1.262e+04 1.089e-08
 34.02500    194.4 1.268e+04 1.219e-08
 34.04177    194.4 1.237e+04 9.487e-09
 34.06266    194.4 1.207e+04 7.181e-09
 34.07388    194.5 1.183e+04 5.458e-09
 34.08433    193.8 1.212e+04 7.900e-09
 34.10446    193.8 1.185e+04 7.049e-09
 34.12276    194.1 1.159e+04 6.950e-09
 34.13321    193.4 1.232e+04 1.165e-08
 34.14625    194.0 1.218e+04 1.141e-08
 34.16715    194.7 1.199e+04 1.057e-08
 34.17922    195.2 1.184e+04 9.919e-09
 34.18371    195.9 1.170e+04 9.236e-09
 34.19254    195.1 1.213e+04 1.300e-08
 34.20895    196.1 1.177e+04 1.039e-08
 34.22985    196.9 1.151e+04 8.439e-09
 34.24151    199.0 1.121e+04 6.796e-09
 34.26251    197.2 1.115e+04 6.357e-09
 34.30318    199.6 1.071e+04 4.787e-09
 34.33937    202.1 1.036e+04 3.834e-09
 34.36027    200.8 9.839e+03 2.642e-09
 34.38677    203.5 9.457e+03 2.184e-09
 34.42857    206.2 9.309e+03 2.007e-09
 34.45781    209.0 9.310e+03 2.001e-09
 34.46637    209.9 9.393e+03 2.144e-09
 34.47892    209.4 8.888e+03 1.724e-09
 34.51216    212.3 8.902e+03 1.726e-09
 34.55396    215.1 9.002e+03 1.778e-09
 34.57668    217.7 9.271e+03 1.983e-09
 34.59758    217.5 9.099e+03 1.909e-09
 34.63755    220.0 9.383e+03 2.239e-09
 34.67444    221.9 9.678e+03 2.700e-09
 34.69533    222.1 9.576e+03 2.720e-09
 34.71059    222.8 9.754e+03 3.264e-09
 34.73139    223.8 9.911e+03 3.916e-09
 34.74402    224.9 1.007e+04 4.564e-09
 34.74863    225.2 9.961e+03 4.333e-09
 34.75691    225.7 9.798e+03 3.644e-09
 34.77319    226.8 9.964e+03 4.209e-09
 34.79289    227.7 1.016e+04 4.851e-09
 34.80334    228.2 1.005e+04 4.526e-09
 34.81498    229.1 1.028e+04 5.271e-09
 34.83588    230.0 1.055e+04 6.224e-09
 34.85222    230.6 1.086e+04 7.365e-09
 34.86267    231.3 1.081e+04 7.079e-09
 34.87767    231.5 1.117e+04 8.554e-09
 34.89857    231.7 1.158e+04 1.039e-08
 34.91155    231.6 1.205e+04 1.262e-08
 34.92200    232.2 1.226e+04 1.419e-08
 34.94037    231.9 1.290e+04 1.833e-08
 34.96043    231.1 1.346e+04 2.208e-08
 34.97088    231.9 1.402e+04 2.856e-08
 34.98216    230.3 1.451e+04 3.232e-08
 35.00306    227.6 1.494e+04 3.396e-08
 35.01869    225.3 1.531e+04 3.703e-08
 35.02488    222.5 1.588e+04 4.224e-08
 35.03011    222.6 1.622e+04 4.765e-08
 35.03520    218.5 1.725e+04 6.208e-08
 35.04043    217.4 1.766e+04 6.920e-08
 35.04932    214.6 1.807e+04 8.881e-08
 35.05455    214.0 1.855e+04 1.061e-07
 35.06043    209.0 1.943e+04 1.764e-07
 35.07088    204.8 1.963e+04 2.377e-07
 35.07899    200.5 1.962e+04 2.391e-07
 35.08421    200.3 1.968e+04 2.736e-07
 35.09178    196.8 1.947e+04 2.408e-07
 35.10750    192.7 1.881e+04 1.267e-07
 35.12796    187.6 1.694e+04 3.140e-08
 35.13841    185.5 1.637e+04 2.043e-08
 35.14934    177.7 1.109e+04 4.692e-09
 35.17024    174.1 1.002e+04 3.815e-09
 35.18729    174.1 9.986e+03 3.800e-09
 35.19774    174.0 1.021e+04 4.486e-09
 35.21204    174.1 1.022e+04 4.502e-09
 35.23294    174.0 1.025e+04 4.601e-09
 35.24662    173.6 1.045e+04 5.148e-09
 35.25707    172.8 1.108e+04 7.031e-09
 35.27473    171.0 1.223e+04 1.161e-08
 35.29550    169.0 1.322e+04 1.920e-08
 35.30590    168.3 1.365e+04 2.415e-08
 35.31120    167.3 1.425e+04 2.985e-08
 35.31882    165.7 1.527e+04 4.087e-08
 35.32405    166.4 1.501e+04 3.774e-08
 35.33029    164.6 1.607e+04 5.123e-08
 35.33551    162.4 1.728e+04 8.032e-08
 35.34255    160.3 1.809e+04 1.179e-07
 35.35300    158.4 1.864e+04 1.685e-07
 35.35995    156.7 1.898e+04 2.293e-07
 35.36517    154.9 1.927e+04 3.278e-07
 35.37390    153.2 1.945e+04 3.639e-07
 35.38435    151.5 1.955e+04 3.644e-07
 35.39480    147.4 1.956e+04 2.980e-07
 35.40524    145.8 1.929e+04 2.333e-07
 35.41405    144.4 1.885e+04 1.586e-07
 35.41928    142.3 1.816e+04 1.025e-07
 35.42614    140.4 1.740e+04 6.911e-08
 35.43659    137.5 1.653e+04 4.935e-08
 35.44372    134.5 1.550e+04 3.915e-08
 35.44894    133.6 1.500e+04 3.865e-08
 35.45749    131.5 1.476e+04 3.627e-08
 35.46324    130.5 1.459e+04 3.555e-08
 35.46847    130.4 1.527e+04 4.473e-08
 35.47338    128.7 1.507e+04 4.248e-08
 35.47860    129.0 1.533e+04 4.649e-08
 35.48884    127.9 1.510e+04 4.404e-08
 35.50456    126.1 1.462e+04 3.811e-08
 35.52236    124.4 1.398e+04 2.945e-08
 35.53281    124.2 1.447e+04 3.385e-08
 35.54640    121.9 1.328e+04 2.114e-08
 35.56730    118.9 1.219e+04 1.570e-08
 35.58168    116.7 1.208e+04 1.573e-08
 35.59213    116.0 1.225e+04 1.665e-08
 35.60254    113.9 1.263e+04 1.919e-08
 35.61299    111.0 1.403e+04 2.723e-08
 35.62999    109.1 1.470e+04 3.654e-08
 35.64101    108.6 1.483e+04 4.311e-08
 35.65146    107.1 1.565e+04 5.302e-08
 35.67179    107.1 1.557e+04 5.534e-08
 35.68989    106.7 1.524e+04 4.951e-08
 35.70034    106.2 1.597e+04 6.226e-08
 35.71358    105.7 1.522e+04 4.296e-08
 35.73448    104.4 1.406e+04 2.682e-08
 35.74922    103.1 1.261e+04 1.857e-08
 35.75967    102.3 1.250e+04 1.757e-08
 35.77628    101.9 1.165e+04 1.544e-08
 35.79717    102.4 1.156e+04 1.533e-08
 35.80854    103.4 1.170e+04 1.618e-08
 35.81899    103.0 1.163e+04 1.593e-08
 35.83897    104.1 1.199e+04 1.786e-08
 35.85742    105.1 1.243e+04 2.078e-08
 35.86787    105.1 1.234e+04 2.028e-08
 35.88076    106.0 1.282e+04 2.381e-08
 35.89138    106.6 1.317e+04 2.635e-08
 35.90183    105.4 1.318e+04 2.641e-08
 35.91675    105.6 1.319e+04 2.621e-08
 35.92720    106.0 1.311e+04 2.496e-08
 35.94346    106.3 1.306e+04 2.421e-08
 35.96436    106.4 1.285e+04 2.246e-08
 35.97608    106.4 1.248e+04 1.995e-08
 35.98653    107.2 1.266e+04 2.102e-08
 36.00615    107.2 1.228e+04 1.875e-08
 36.02496    107.4 1.187e+04 1.634e-08
 36.03541    108.4 1.232e+04 1.932e-08
 36.04795    108.8 1.191e+04 1.676e-08
 36.06884    109.2 1.149e+04 1.414e-08
 36.08428    109.6 1.109e+04 1.187e-08
 36.09473    110.9 1.156e+04 1.436e-08
 36.11064    111.1 1.114e+04 1.200e-08
 36.13154    111.2 1.101e+04 1.160e-08
 36.14361    111.2 1.103e+04 1.178e-08
 36.15406    112.7 1.145e+04 1.394e-08
 36.16978    112.5 1.157e+04 1.505e-08
 36.18022    112.9 1.169e+04 1.573e-08
 36.19249    112.3 1.196e+04 1.769e-08
 36.20294    114.0 1.258e+04 2.258e-08
 36.21513    112.7 1.342e+04 2.931e-08
 36.23603    110.5 1.460e+04 3.894e-08
 36.25165    108.7 1.542e+04 4.905e-08
 36.25694    107.5 1.574e+04 5.546e-08
 36.26217    108.2 1.616e+04 6.764e-08
 36.27250    106.0 1.652e+04 6.912e-08
 36.28138    104.7 1.627e+04 6.650e-08
 36.28661    105.4 1.679e+04 8.293e-08
 36.29867    102.3 1.660e+04 6.709e-08
 36.31115     97.0 1.625e+04 4.842e-08
 36.32159     99.2 1.734e+04 7.454e-08
 36.34051     92.6 1.600e+04 4.021e-08
 36.36002     86.2 1.439e+04 3.214e-08
 36.37047     86.9 1.455e+04 3.107e-08
 36.38231     81.5 1.443e+04 3.323e-08
 36.40321     77.7 1.508e+04 4.610e-08
 36.41935     75.8 1.543e+04 5.891e-08
 36.42980     75.8 1.557e+04 6.163e-08
 36.44500     73.7 1.630e+04 7.342e-08
 36.45862     68.8 1.749e+04 9.280e-08
 36.46907     66.8 1.724e+04 8.449e-08
 36.47868     63.6 1.720e+04 1.226e-07
 36.48913     63.2 1.799e+04 1.847e-07
 36.50770     61.2 1.767e+04 1.823e-07
 36.52756     61.1 1.732e+04 1.229e-07
 36.53801     58.6 1.811e+04 1.396e-07
 36.54949     55.5 1.790e+04 8.805e-08
 36.57039     50.9 1.675e+04 6.204e-08
 36.58689     48.9 1.608e+04 6.101e-08
 36.59733     47.2 1.657e+04 8.019e-08
 36.61218     46.4 1.647e+04 7.746e-08
 36.63308     45.9 1.646e+04 7.751e-08
 36.64621     45.2 1.664e+04 7.735e-08
 36.65666     43.5 1.576e+04 5.026e-08
 36.67488     42.2 1.516e+04 3.608e-08
 36.69509     40.8 1.435e+04 2.513e-08
 36.70554     37.5 1.105e+04 1.074e-08
 36.71667     36.4 1.007e+04 7.820e-09
 36.73701     35.5 9.781e+03 6.563e-09
 36.74746     33.8 9.078e+03 4.787e-09
 36.75442     32.9 9.053e+03 4.586e-09
 36.76487     32.8 8.846e+03 4.222e-09
 36.77937     32.0 9.180e+03 5.072e-09
 36.80026     31.5 9.639e+03 6.955e-09
 36.81375     31.5 1.029e+04 9.629e-09
 36.82419     31.9 1.014e+04 9.055e-09
 36.84206     32.3 1.077e+04 1.169e-08
 36.86262     32.6 1.115e+04 1.336e-08
 36.87307     32.7 1.099e+04 1.314e-08
 36.88386     32.4 1.116e+04 1.363e-08
 36.90475     31.6 1.123e+04 1.343e-08
 36.92195     30.3 1.096e+04 1.214e-08
 36.93240     30.2 1.107e+04 1.281e-08
 36.94655     29.3 1.116e+04 1.282e-08
 36.96745     27.8 1.108e+04 1.200e-08
 36.98128     26.6 1.107e+04 1.175e-08
 36.99173     26.1 1.130e+04 1.356e-08
 37.00924     25.5 1.101e+04 1.243e-08
 37.02586     25.4 1.079e+04 1.094e-08
 37.03631     26.0 1.074e+04 1.067e-08
 37.05104     25.4 1.025e+04 7.107e-09
 37.07193     24.5 9.879e+03 5.386e-09
 37.08949     23.7 9.460e+03 4.661e-09
 37.09993     23.2 9.208e+03 4.201e-09
 37.11373     23.6 9.157e+03 4.336e-09
 37.13846     23.6 9.143e+03 4.352e-09
 37.15946     23.6 9.047e+03 4.216e-09
 37.18707     24.8 8.807e+03 3.993e-09
 37.22886     26.8 8.739e+03 4.136e-09
 37.25721     29.1 8.687e+03 4.010e-09
 37.27811     30.4 8.740e+03 4.193e-09
 37.30445     33.1 8.615e+03 3.946e-09
 37.32534     33.7 8.312e+03 3.117e-09
 37.35425     36.7 8.140e+03 2.804e-09
 37.37587     39.8 8.057e+03 2.645e-09
 37.39677     41.0 8.078e+03 2.643e-09
 37.43784     44.3 8.034e+03 2.514e-09
 37.47363     47.5 7.995e+03 2.440e-09
 37.49452     48.6 7.915e+03 2.215e-09
 37.52143     52.0 7.900e+03 2.271e-09
 37.56323     55.4 7.934e+03 2.393e-09
 37.59228     58.9 7.972e+03 2.388e-09
 37.61318     60.2 7.900e+03 2.151e-09
 37.64682     63.4 8.013e+03 2.162e-09
 37.68861     66.7 8.162e+03 2.305e-09
 37.71094     69.6 8.630e+03 3.059e-09
 37.73183     70.9 8.580e+03 2.899e-09
 37.75972     72.1 8.723e+03 3.511e-09
 37.77007     72.8 8.647e+03 3.373e-09
 37.78246     74.8 8.913e+03 4.359e-09
 37.80335     76.4 9.492e+03 6.145e-09
 37.81895     77.9 1.022e+04 8.923e-09
 37.82940     78.6 1.020e+04 8.710e-09
 37.84515     79.9 1.098e+04 1.249e-08
 37.86605     81.1 1.183e+04 1.756e-08
 37.87827     82.3 1.283e+04 2.482e-08
 37.88371     83.0 1.289e+04 2.475e-08
 37.89239     82.9 1.187e+04 1.613e-08
 37.90784     83.0 1.274e+04 2.190e-08
 37.92715     81.9 1.451e+04 3.424e-08
 37.93760     82.3 1.425e+04 3.017e-08
 37.94964     79.1 1.713e+04 7.134e-08
 37.97054     77.5 1.816e+04 1.477e-07
 37.98648     77.2 1.809e+04 1.647e-07
 37.99693     77.3 1.797e+04 1.299e-07
 38.01233     76.1 1.794e+04 1.132e-07
 38.03323     73.7 1.755e+04 8.032e-08
 38.04581     70.9 1.576e+04 4.554e-08
 38.05098     70.8 1.600e+04 4.934e-08
 38.05925     70.3 1.569e+04 4.664e-08
 38.06970     68.1 1.439e+04 3.240e-08
 38.07537     67.8 1.416e+04 3.116e-08
 38.08060     67.7 1.455e+04 3.585e-08
 38.09060     66.1 1.473e+04 3.016e-08
 38.09981     65.5 1.472e+04 2.937e-08
 38.10504     65.2 1.530e+04 3.699e-08
 38.11150     62.9 1.558e+04 3.799e-08
 38.12195     62.7 1.557e+04 3.805e-08
 38.12948     60.9 1.590e+04 4.349e-08
 38.13470     61.0 1.622e+04 5.156e-08
 38.14284     60.5 1.644e+04 5.338e-08
 38.15397     58.6 1.739e+04 7.503e-08
 38.16441     58.7 1.755e+04 8.456e-08
 38.17068     57.5 1.803e+04 1.008e-07
 38.18118     58.9 1.825e+04 9.286e-08
 38.19514     54.1 1.986e+04 1.292e-07
 38.20554     51.6 2.074e+04 1.604e-07
 38.21324     47.6 2.065e+04 2.402e-07
 38.21847     46.2 2.051e+04 2.933e-07
 38.22644     43.6 2.010e+04 3.484e-07
 38.23688     41.0 1.985e+04 3.638e-07
 38.24291     38.4 1.986e+04 3.567e-07
 38.24813     37.4 1.983e+04 3.375e-07
 38.25778     34.4 1.988e+04 2.728e-07
 38.26735     30.9 2.022e+04 2.037e-07
 38.27257     30.1 2.006e+04 1.779e-07
 38.27868     25.8 1.981e+04 1.295e-07
 38.28913     21.9 1.943e+04 1.010e-07
 38.29701     17.8 1.844e+04 7.396e-08
 38.30224     17.3 1.794e+04 6.292e-08
 38.30988     13.9 1.696e+04 4.679e-08
 38.31510     17.0 1.848e+04 7.086e-08
 38.32048     12.8 1.723e+04 4.777e-08
 38.32667      9.0 1.651e+04 3.472e-08
 38.33190      8.0 1.601e+04 3.071e-08
 38.34665      2.4 1.495e+04 2.241e-08
 38.36759     -5.0 1.378e+04 1.696e-08
 38.38088    -10.8 1.289e+04 1.413e-08
 38.39132    -11.5 1.288e+04 1.427e-08
 38.40939    -15.5 1.269e+04 1.303e-08
 38.42975    -19.2 1.257e+04 1.226e-08
 38.44020    -20.3 1.289e+04 1.386e-08
 38.44917    -24.6 1.302e+04 1.381e-08
 38.45962    -27.4 1.345e+04 1.435e-08
 38.47208    -32.6 1.418e+04 1.815e-08
 38.48908    -36.7 1.467e+04 2.424e-08
 38.49953    -39.4 1.552e+04 3.451e-08
 38.51388    -41.6 1.546e+04 3.675e-08
 38.53477    -43.2 1.512e+04 3.409e-08
 38.54841    -45.1 1.470e+04 2.700e-08
 38.55886    -48.1 1.537e+04 2.838e-08
 38.57657    -51.2 1.506e+04 2.188e-08
 38.59729    -53.6 1.477e+04 2.006e-08
 38.60769    -56.2 1.543e+04 2.546e-08
 38.61304    -57.1 1.527e+04 2.800e-08
 38.62349    -57.4 1.555e+04 3.278e-08
 38.63208    -57.4 1.578e+04 3.891e-08
 38.63730    -58.6 1.641e+04 5.323e-08
 38.64439    -58.2 1.675e+04 6.232e-08
 38.65484    -57.7 1.715e+04 7.324e-08
 38.66174    -57.1 1.768e+04 8.667e-08
 38.66697    -58.9 1.896e+04 1.179e-07
 38.67574    -58.8 1.965e+04 1.576e-07
 38.68618    -58.8 2.009e+04 2.206e-07
 38.69663    -61.6 2.053e+04 4.748e-07
 38.70708    -60.9 2.023e+04 6.307e-07
 38.71584    -59.5 1.997e+04 7.578e-07
 38.72107    -62.9 2.008e+04 8.361e-07
 38.72798    -61.8 2.005e+04 8.960e-07
 38.73792    -62.1 2.075e+04 9.211e-07
 38.74314    -69.0 2.962e+04 8.033e-07
 38.74551    -77.8 2.975e+04 2.122e-06
 38.75073    -87.4 3.023e+04 1.059e-06
 38.75933   -103.4 3.193e+04 1.062e-06
 38.76978   -124.8 3.272e+04 6.008e-07
 38.77517   -143.8 2.830e+04 3.473e-07
 38.78040   -143.4 2.037e+04 2.217e-07
 38.79067   -150.2 1.954e+04 1.529e-07
 38.79961   -152.7 1.899e+04 1.105e-07
 38.80484   -150.0 1.869e+04 1.113e-07
 38.81157   -151.5 1.829e+04 8.315e-08
 38.82202   -152.1 1.788e+04 6.490e-08
 38.82927   -152.0 1.751e+04 5.245e-08
 38.83450   -151.2 1.720e+04 5.555e-08
 38.84292   -151.0 1.667e+04 4.519e-08
 38.85337   -150.6 1.602e+04 3.717e-08
 38.86909   -149.8 1.463e+04 2.892e-08
 38.88348   -148.5 1.359e+04 2.114e-08
 38.89392   -147.5 1.337e+04 2.440e-08
 38.91093   -144.5 1.231e+04 1.717e-08
 38.93183   -141.9 1.184e+04 1.348e-08
 38.94280   -139.6 1.166e+04 1.128e-08
 38.95325   -139.4 1.178e+04 1.042e-08
 38.97363   -137.4 1.163e+04 8.973e-09
 38.99168   -135.3 1.150e+04 8.047e-09
 39.00213   -135.5 1.151e+04 7.006e-09
 39.01542   -133.6 1.142e+04 6.732e-09
 39.02686   -131.9 1.140e+04 6.673e-09
 39.03731   -130.0 1.166e+04 8.787e-09
 39.05101   -128.1 1.165e+04 8.659e-09
 39.06146   -128.5 1.177e+04 8.401e-09
 39.07812   -126.7 1.185e+04 8.615e-09
 39.09901   -125.3 1.196e+04 8.958e-09
 39.11034   -124.6 1.210e+04 9.269e-09
 39.12079   -125.7 1.209e+04 9.138e-09
 39.14081   -125.8 1.227e+04 9.392e-09
 39.15922   -126.9 1.306e+04 1.075e-08
 39.16966   -127.7 1.242e+04 9.238e-09
 39.18260   -130.9 1.385e+04 1.284e-08
 39.20350   -134.8 1.526e+04 2.350e-08
 39.21854   -138.6 1.628e+04 4.097e-08
 39.22899   -137.9 1.543e+04 2.912e-08
 39.24530   -140.6 1.614e+04 4.655e-08
 39.26619   -142.5 1.644e+04 5.989e-08
 39.27787   -143.8 1.649e+04 6.349e-08
 39.28832   -141.9 1.644e+04 6.165e-08
 39.30525   -142.7 1.661e+04 6.433e-08
 39.31570   -146.1 1.760e+04 7.733e-08
 39.32675   -146.9 1.731e+04 6.366e-08
 39.33720   -144.9 1.755e+04 6.858e-08
 39.34979   -145.7 1.730e+04 6.172e-08
 39.37068   -146.2 1.682e+04 5.863e-08
 39.38608   -146.4 1.621e+04 5.720e-08
 39.39653   -145.3 1.696e+04 6.977e-08
 39.41248   -145.5 1.629e+04 6.689e-08
 39.43338   -145.5 1.558e+04 6.220e-08
 39.44540   -145.1 1.488e+04 5.439e-08
 39.45585   -144.5 1.570e+04 6.478e-08
 39.47517   -143.9 1.484e+04 5.186e-08
 39.49428   -142.9 1.408e+04 4.072e-08
 39.50473   -142.7 1.474e+04 4.668e-08
 39.51697   -141.7 1.393e+04 3.539e-08
 39.53787   -140.6 1.324e+04 2.747e-08
 39.55361   -139.5 1.279e+04 2.222e-08
 39.56406   -139.4 1.279e+04 2.133e-08
 39.57966   -138.4 1.236e+04 1.720e-08
 39.59410   -137.4 1.207e+04 1.438e-08
 39.60455   -137.8 1.165e+04 1.127e-08
 39.61294   -136.6 1.152e+04 1.024e-08
 39.62339   -137.0 1.133e+04 9.890e-09
 39.64235   -136.0 1.121e+04 9.055e-09
 39.66182   -135.1 1.111e+04 8.421e-09
 39.67226   -135.7 1.109e+04 8.515e-09
 39.68415   -135.0 1.108e+04 8.111e-09
 39.70505   -134.3 1.110e+04 7.910e-09
 39.72114   -133.7 1.113e+04 7.870e-09
 39.73159   -135.2 1.144e+04 9.810e-09
 39.74684   -134.9 1.169e+04 1.082e-08
 39.76774   -134.6 1.196e+04 1.237e-08
 39.78047   -134.4 1.224e+04 1.430e-08
 39.79092   -136.1 1.276e+04 1.932e-08
 39.80954   -135.8 1.291e+04 2.023e-08
 39.82935   -135.7 1.296e+04 2.027e-08
 39.83980   -137.7 1.288e+04 1.910e-08
 39.85133   -137.5 1.272e+04 1.700e-08
 39.87223   -137.3 1.249e+04 1.494e-08
 39.88294   -137.0 1.228e+04 1.340e-08
 39.88894   -136.4 1.168e+04 1.064e-08
 39.89913   -138.0 1.151e+04 9.142e-09
 39.91402   -137.5 1.149e+04 8.800e-09
 39.93492   -136.9 1.151e+04 8.599e-09
 39.94800   -136.2 1.153e+04 8.392e-09
 39.95845   -138.0 1.144e+04 7.269e-09
 39.97672   -137.4 1.146e+04 7.227e-09
 39.99688   -136.8 1.155e+04 7.186e-09
 40.00733   -138.7 1.155e+04 7.202e-09
 40.01851   -138.1 1.156e+04 7.188e-09
 40.03941   -137.3 1.153e+04 7.126e-09
 40.05621   -136.5 1.144e+04 6.919e-09
 40.06666   -137.8 1.124e+04 6.604e-09
 40.08121   -136.7 1.112e+04 5.987e-09
 40.10210   -135.6 1.102e+04 5.313e-09
 40.11554   -134.5 1.093e+04 4.661e-09
 40.12599   -135.4 1.067e+04 3.552e-09
 40.14390   -134.4 1.063e+04 3.057e-09
 40.16134   -133.5 1.063e+04 2.665e-09
 40.17140   -132.9 1.074e+04 3.480e-09
 40.17487   -134.5 1.115e+04 2.600e-09
 40.18569   -133.8 1.119e+04 2.395e-09
 40.20659   -133.1 1.123e+04 2.263e-09
 40.22374   -132.2 1.130e+04 2.188e-09
 40.23419   -133.0 1.102e+04 1.917e-09
 40.24839   -132.3 1.106e+04 1.925e-09
 40.26929   -131.6 1.123e+04 2.010e-09
 40.28307   -131.2 1.143e+04 2.120e-09
 40.29352   -133.3 1.144e+04 3.241e-09
 40.31108   -132.6 1.133e+04 4.502e-09
 40.33195   -132.1 1.130e+04 6.409e-09
 40.35285   -132.3 1.124e+04 9.754e-09
 40.37377   -131.6 1.126e+04 1.048e-08
 40.39128   -131.0 1.125e+04 1.064e-08
 40.40173   -131.8 1.066e+04 8.144e-09
 40.41557   -131.4 1.042e+04 6.977e-09
 40.43647   -131.0 1.011e+04 5.779e-09
 40.45018   -130.6 9.799e+03 4.774e-09
 40.45387   -129.7 1.037e+04 6.982e-09
 40.46105   -130.9 9.720e+03 4.540e-09
 40.47826   -130.5 9.428e+03 3.977e-09
 40.49916   -129.9 9.190e+03 3.647e-09
 40.50993   -129.3 9.013e+03 3.490e-09
 40.52038   -130.0 8.881e+03 3.078e-09
 40.54096   -129.1 8.829e+03 3.100e-09
 40.57240   -128.0 8.654e+03 3.115e-09
 40.60788   -126.2 8.633e+03 3.561e-09
 40.62878   -126.4 8.544e+03 3.572e-09
 40.65609   -124.5 8.509e+03 3.775e-09
 40.69788   -122.6 8.465e+03 3.869e-09
 40.72654   -120.9 8.425e+03 3.902e-09
 40.73653   -120.8 7.955e+03 2.702e-09
 40.74967   -120.8 8.160e+03 3.189e-09
 40.78147   -118.8 7.962e+03 2.996e-09
 40.82327   -116.8 7.847e+03 2.890e-09
 40.84519   -114.8 7.824e+03 2.855e-09
 40.86609   -114.8 7.622e+03 1.969e-09
 40.90686   -113.5 7.650e+03 2.190e-09
 40.94295   -112.6 8.010e+03 2.835e-09
 40.96385   -113.2 8.432e+03 3.532e-09
 40.99045   -112.7 9.198e+03 5.430e-09
 41.03225   -112.2 1.006e+04 8.370e-09
 41.06161   -111.7 1.086e+04 1.201e-08
 41.08250   -112.3 1.148e+04 1.594e-08
 41.11584   -112.2 1.180e+04 1.797e-08
 41.15763   -111.6 1.185e+04 1.836e-08
 41.18026   -110.5 1.156e+04 1.681e-08
 41.19061   -110.6 1.141e+04 1.613e-08
 41.20968   -109.7 1.116e+04 1.470e-08
 41.22894   -108.8 1.078e+04 1.258e-08
 41.23939   -108.5 1.072e+04 1.237e-08
 41.25148   -107.3 1.042e+04 1.101e-08
 41.27238   -106.3 1.012e+04 9.764e-09
 41.28827   -105.2 9.848e+03 8.558e-09
 41.29872   -105.6 1.026e+04 1.013e-08
 41.30626   -104.8 1.039e+04 9.879e-09
 41.32725   -104.4 9.955e+03 5.644e-09
 41.34770   -102.9 1.018e+04 5.887e-09
 41.35805   -103.6 1.103e+04 9.429e-09
 41.37686   -103.3 1.153e+04 1.021e-08
 41.39648   -103.7 1.272e+04 1.186e-08
 41.40693   -105.7 1.464e+04 3.266e-08
 41.41866   -106.7 1.576e+04 5.303e-08
 41.43956   -108.5 1.685e+04 1.044e-07
 41.45063   -109.8 1.767e+04 2.584e-07
 41.45581   -110.1 1.715e+04 1.535e-07
 41.46093   -111.3 1.749e+04 2.220e-07
 41.46616   -110.7 1.780e+04 2.425e-07
 41.47603   -112.0 1.809e+04 3.096e-07
 41.48537   -113.8 1.842e+04 3.879e-07
 41.49060   -113.3 1.879e+04 3.406e-07
 41.49693   -115.1 1.918e+04 3.658e-07
 41.50738   -116.9 1.949e+04 3.702e-07
 41.51504   -118.6 1.970e+04 3.595e-07
 41.52026   -118.5 1.974e+04 2.686e-07
 41.52827   -120.5 1.984e+04 2.634e-07
 41.53872   -122.3 1.993e+04 2.491e-07
 41.54470   -123.9 1.985e+04 2.225e-07
 41.54992   -123.6 1.944e+04 1.820e-07
 41.55962   -125.4 1.908e+04 1.690e-07
 41.56914   -127.1 1.868e+04 1.538e-07
 41.57441   -125.5 1.789e+04 1.150e-07
 41.58465   -127.3 1.722e+04 1.082e-07
 41.59510   -123.7 1.863e+04 1.637e-07
 41.60674   -125.8 1.780e+04 1.352e-07
 41.62334   -127.5 1.662e+04 9.260e-08
 41.63379   -125.7 1.696e+04 1.095e-07
 41.64853   -127.7 1.585e+04 6.657e-08
 41.66943   -130.2 1.441e+04 3.553e-08
 41.68267   -132.8 1.283e+04 1.940e-08
 41.69312   -133.8 1.315e+04 2.161e-08
 41.71123   -136.6 1.163e+04 1.284e-08
 41.73155   -138.0 1.096e+04 9.841e-09
 41.74199   -137.6 1.183e+04 1.427e-08
 41.75302   -138.7 1.101e+04 1.083e-08
 41.77392   -139.1 1.034e+04 8.394e-09
 41.79087   -139.1 9.967e+03 7.039e-09
 41.80132   -138.8 1.002e+04 7.301e-09
 41.81572   -138.5 9.785e+03 6.185e-09
 41.83661   -137.9 9.679e+03 5.543e-09
 41.85020   -137.3 9.695e+03 5.199e-09
 41.86065   -136.7 9.545e+03 4.712e-09
 41.87350   -136.1 9.607e+03 4.411e-09
 41.88395   -135.8 9.567e+03 4.244e-09
 41.89908   -135.2 9.592e+03 4.121e-09
 41.90953   -134.7 9.645e+03 3.320e-09
 41.92020   -134.3 9.695e+03 3.307e-09
 41.94110   -135.0 1.011e+04 3.442e-09
 41.95841   -136.9 1.223e+04 6.246e-09
 41.96886   -137.1 1.217e+04 4.899e-09
 41.98290   -138.6 1.463e+04 1.874e-08
 42.00380   -138.7 1.593e+04 5.179e-08
 42.01773   -138.7 1.680e+04 9.132e-08
 42.02818   -139.1 1.726e+04 1.230e-07
 42.04559   -139.3 1.784e+04 1.769e-07
 42.06649   -139.9 1.800e+04 1.900e-07
 42.07706   -140.3 1.784e+04 1.871e-07
 42.08751   -140.2 1.776e+04 2.087e-07
 42.10145   -139.8 1.768e+04 2.139e-07
 42.10663   -139.6 1.745e+04 2.085e-07
 42.11341   -139.4 1.719e+04 1.916e-07
 42.12386   -139.1 1.698e+04 1.760e-07
 42.13107   -139.0 1.680e+04 1.631e-07
 42.13629   -138.5 1.668e+04 1.327e-07
 42.14476   -138.1 1.651e+04 1.259e-07
 42.15521   -137.5 1.635e+04 1.168e-07
 42.16073   -136.8 1.623e+04 1.070e-07
 42.16254   -136.1 1.601e+04 8.282e-08
 42.16747   -135.4 1.688e+04 1.898e-07
 42.17610   -134.7 1.679e+04 1.795e-07
 42.18517   -134.2 1.671e+04 1.652e-07
 42.19039   -133.2 1.696e+04 9.750e-08
 42.19700   -132.7 1.704e+04 1.005e-07
 42.20745   -132.2 1.722e+04 1.019e-07
 42.21483   -131.8 1.736e+04 9.872e-08
 42.22006   -131.5 1.788e+04 7.051e-08
 42.22835   -130.9 1.761e+04 7.464e-08
 42.23880   -130.2 1.771e+04 7.983e-08
 42.24450   -129.9 1.865e+04 8.755e-08
 42.24972   -131.9 2.219e+04 9.021e-08
 42.25969   -132.3 2.191e+04 2.932e-07
 42.26894   -133.0 2.166e+04 7.819e-07
 42.27416   -135.0 1.906e+04 2.767e-06
 42.28059   -139.0 1.948e+04 3.598e-06
 42.28636   -149.8 1.854e+04 6.712e-06
 42.28894   -149.1 1.972e+04 3.716e-06
 42.29360   -154.3 1.928e+04 4.190e-06
 42.29855   -158.3 1.903e+04 4.366e-06
 42.30116   -160.4 2.126e+04 1.508e-06
 42.30400   -161.7 2.075e+04 1.751e-06
 42.30662   -165.9 1.933e+04 4.148e-06
 42.30928   -165.2 1.915e+04 4.013e-06
 42.31338   -163.9 1.898e+04 3.666e-06
 42.31600   -163.1 1.975e+04 2.180e-06
 42.31973   -161.9 1.921e+04 2.457e-06
 42.32495   -160.2 1.884e+04 2.797e-06
 42.32824   -158.1 1.860e+04 3.209e-06
 42.33349   -158.8 2.014e+04 8.598e-07
 42.34329   -157.2 2.008e+04 9.923e-07
 42.35270   -156.5 1.992e+04 1.201e-06
 42.35793   -158.2 1.882e+04 5.630e-07
 42.36418   -157.9 1.881e+04 6.427e-07
 42.37463   -157.7 1.885e+04 7.594e-07
 42.38237   -157.5 1.900e+04 8.846e-07
 42.38759   -158.6 1.910e+04 5.109e-07
 42.39553   -160.0 1.970e+04 4.537e-07
 42.40598   -162.1 2.035e+04 3.655e-07
 42.41203   -164.8 2.096e+04 2.708e-07
 42.41726   -165.7 2.098e+04 1.261e-07
 42.42688   -168.2 2.110e+04 9.960e-08
 42.43647   -170.6 2.095e+04 8.694e-08
 42.44169   -171.4 1.978e+04 5.817e-08
 42.44586   -173.0 1.942e+04 5.602e-08
 42.45113   -174.7 1.790e+04 3.508e-08
 42.46101   -177.9 1.706e+04 3.844e-08
 42.47146   -178.2 1.425e+04 2.370e-08
 42.48444   -179.4 1.401e+04 2.542e-08
 42.50534   -179.8 1.426e+04 3.168e-08
 42.52033   -179.7 1.469e+04 3.819e-08
 42.53078   -178.9 1.173e+04 2.085e-08
 42.54714   -178.5 1.217e+04 2.071e-08
 42.56803   -178.0 1.269e+04 2.102e-08
 42.57966   -177.4 1.323e+04 2.176e-08
 42.59011   -177.1 1.016e+04 7.335e-09
 42.60983   -176.5 1.072e+04 7.139e-09
 42.62854   -175.7 1.275e+04 7.208e-09
 42.63899   -175.8 9.311e+03 2.778e-09
 42.65162   -175.0 1.121e+04 2.759e-09
 42.67252   -175.3 1.838e+04 4.333e-09
 42.68787   -176.8 2.017e+04 2.099e-08
 42.69832   -176.1 1.890e+04 2.601e-09
 42.71432   -178.3 2.070e+04 1.756e-08
 42.72958   -180.7 2.020e+04 7.474e-08
 42.74003   -180.4 1.366e+04 8.349e-09
 42.74720   -182.3 1.526e+04 1.788e-08
 42.75764   -179.5 1.328e+04 9.371e-09
 42.77701   -181.9 1.474e+04 1.748e-08
 42.79607   -183.8 1.583e+04 3.191e-08
 42.80652   -181.3 1.503e+04 1.649e-08
 42.81881   -183.2 1.596e+04 3.130e-08
 42.83970   -184.4 1.559e+04 4.416e-08
 42.85540   -184.8 1.471e+04 4.227e-08
 42.86585   -182.8 1.522e+04 4.306e-08
 42.88150   -182.9 1.421e+04 3.623e-08
 42.90240   -182.9 1.320e+04 2.335e-08
 42.91473   -183.1 1.255e+04 1.580e-08
 42.92518   -181.0 1.283e+04 1.851e-08
 42.94419   -181.1 1.245e+04 1.453e-08
 42.96361   -181.2 1.237e+04 1.372e-08
 42.97406   -179.3 1.227e+04 1.271e-08
 42.98599   -179.2 1.226e+04 1.240e-08
 43.00689   -179.1 1.239e+04 1.255e-08
 43.01842   -179.0 1.246e+04 1.264e-08
 43.03942   -176.8 1.207e+04 1.014e-08
 43.07201   -176.7 1.212e+04 1.077e-08
 43.09291   -173.1 1.202e+04 9.037e-09
 43.12202   -173.3 1.200e+04 9.308e-09
 43.16381   -174.1 1.155e+04 8.716e-09
 43.19066   -174.7 1.115e+04 6.706e-09
 43.21156   -170.6 1.151e+04 8.252e-09
 43.24741   -171.7 1.106e+04 6.377e-09
 43.28842   -172.6 1.080e+04 4.932e-09
 43.30932   -169.8 1.132e+04 6.539e-09
 43.33100   -170.0 1.114e+04 5.383e-09
 43.37279   -170.2 1.123e+04 5.060e-09
 43.40708   -171.4 1.157e+04 5.228e-09
 43.42788   -169.7 1.147e+04 5.067e-09
 43.44574   -171.1 1.191e+04 5.683e-09
 43.46621   -172.9 1.277e+04 8.695e-09
 43.47666   -172.6 1.289e+04 8.611e-09
 43.48753   -174.9 1.366e+04 1.489e-08
 43.50843   -177.5 1.414e+04 2.228e-08
 43.52554   -180.6 1.427e+04 2.642e-08
 43.53598   -180.9 1.423e+04 2.636e-08
 43.55023   -184.3 1.415e+04 2.682e-08
 43.57112   -187.1 1.341e+04 2.303e-08
 43.58486   -189.5 1.248e+04 1.507e-08
 43.58895   -189.9 1.227e+04 1.310e-08
 43.59611   -188.9 1.277e+04 1.636e-08
 43.61292   -191.3 1.160e+04 8.455e-09
 43.63374   -193.0 1.072e+04 4.621e-09
 43.65464   -194.8 1.018e+04 2.937e-09
 43.67561   -195.4 9.990e+03 2.353e-09
 43.69307   -195.8 9.891e+03 2.154e-09
 43.70352   -196.5 9.908e+03 2.422e-09
 43.71741   -196.4 9.884e+03 2.329e-09
 43.73831   -195.9 9.897e+03 2.322e-09
 43.75240   -195.7 9.910e+03 2.347e-09
 43.76285   -197.5 9.989e+03 3.006e-09
 43.78010   -197.3 1.000e+04 3.101e-09
 43.80100   -197.0 1.002e+04 3.252e-09
 43.81172   -196.7 1.003e+04 3.428e-09
 43.82217   -198.6 1.023e+04 4.982e-09
 43.84279   -198.1 1.027e+04 5.405e-09
 43.86060   -197.6 1.030e+04 5.860e-09
 43.87105   -198.5 1.058e+04 8.118e-09
 43.87450   -197.8 1.059e+04 8.435e-09
 43.88495   -197.9 1.080e+04 9.376e-09
 43.90549   -197.1 1.078e+04 9.426e-09
 43.91993   -196.2 1.076e+04 9.263e-09
 43.93038   -197.0 1.075e+04 8.969e-09
 43.94728   -196.1 1.071e+04 8.623e-09
 43.96818   -195.2 1.068e+04 8.284e-09
 43.97926   -194.4 1.066e+04 7.971e-09
 43.98971   -195.4 1.057e+04 6.525e-09
 44.00998   -194.6 1.057e+04 6.410e-09
 44.02814   -193.8 1.058e+04 6.351e-09
 44.03858   -195.1 1.052e+04 5.082e-09
 44.05177   -194.3 1.055e+04 5.188e-09
 44.07267   -193.5 1.056e+04 5.211e-09
 44.08746   -192.7 1.054e+04 5.214e-09
 44.09791   -194.0 1.036e+04 4.702e-09
 44.11446   -193.1 1.032e+04 4.670e-09
 44.13536   -192.2 1.024e+04 4.516e-09
 44.14679   -191.3 1.016e+04 4.313e-09
 44.15388   -192.5 9.940e+03 4.062e-09
 44.16334   -192.8 9.991e+03 4.259e-09
 44.17716   -191.9 9.930e+03 4.097e-09
 44.19567   -191.0 9.882e+03 3.978e-09
 44.21666   -191.8 9.475e+03 3.145e-09
 44.25050   -189.9 9.460e+03 3.051e-09
 44.29229   -188.2 9.525e+03 3.122e-09
 44.31452   -186.9 9.612e+03 3.272e-09
 44.33542   -187.2 9.124e+03 2.059e-09
 44.37588   -186.1 9.176e+03 2.114e-09
 44.41228   -185.2 9.175e+03 2.111e-09
 44.43317   -185.5 8.910e+03 1.478e-09
 44.45947   -184.4 8.893e+03 1.475e-09
 44.50127   -183.0 8.852e+03 1.394e-09
 44.53093   -181.5 8.828e+03 1.264e-09
 44.55183   -181.1 8.773e+03 1.127e-09
 44.58486   -179.4 8.813e+03 1.104e-09
 44.62665   -177.7 8.858e+03 1.087e-09
 44.64959   -175.8 8.942e+03 1.076e-09
 44.67048   -175.5 9.007e+03 1.315e-09
 44.70988   -173.6 9.093e+03 1.419e-09
 44.73078   -173.2 9.163e+03 1.515e-09
 44.74734   -171.3 9.289e+03 1.699e-09
 44.76824   -171.1 9.385e+03 1.913e-09
 44.79384   -169.2 9.502e+03 1.971e-09
 44.83563   -167.3 9.590e+03 2.002e-09
 44.86600   -165.4 9.671e+03 2.017e-09
 44.88690   -165.1 9.607e+03 1.604e-09
 44.91922   -163.2 9.704e+03 1.510e-09
 44.96102   -161.4 9.760e+03 1.476e-09
 44.98465   -159.7 9.851e+03 1.467e-09
 45.00555   -159.5 9.773e+03 1.095e-09
 45.04461   -158.1 1.019e+04 1.112e-09
 45.08241   -156.8 1.029e+04 1.351e-09
 45.10331   -156.7 1.024e+04 1.365e-09
 45.12820   -155.5 1.035e+04 1.644e-09
 45.16999   -154.4 1.050e+04 1.994e-09
 45.20107   -153.4 1.073e+04 2.454e-09
 45.22196   -153.9 1.082e+04 2.588e-09
 45.25359   -153.6 1.124e+04 3.483e-09
 45.28757   -154.0 1.172e+04 4.949e-09
 45.30846   -157.1 1.188e+04 5.875e-09
 45.31972   -158.2 1.220e+04 7.546e-09
 45.34062   -159.7 1.221e+04 7.526e-09
 45.37897   -161.3 1.223e+04 7.571e-09
 45.41748   -163.0 1.204e+04 6.134e-09
 45.43838   -164.2 1.176e+04 4.186e-09
 45.46256   -166.0 1.148e+04 2.864e-09
 45.50436   -167.5 1.126e+04 2.266e-09
 45.53613   -168.6 1.118e+04 2.140e-09
 45.55703   -168.6 1.119e+04 1.719e-09
 45.58795   -169.0 1.117e+04 1.730e-09
 45.62974   -169.2 1.123e+04 1.935e-09
 45.65479   -169.3 1.125e+04 2.308e-09
 45.67569   -168.8 1.123e+04 2.053e-09
 45.71334   -168.5 1.126e+04 2.440e-09
 45.75255   -168.1 1.128e+04 2.806e-09
 45.77344   -167.6 1.131e+04 2.877e-09
 45.79693   -166.9 1.137e+04 3.183e-09
 45.83872   -165.7 1.146e+04 3.278e-09
 45.86515   -165.1 1.157e+04 3.345e-09
 45.87674   -166.5 1.157e+04 2.845e-09
 45.89200   -165.8 1.167e+04 3.033e-09
 45.92221   -166.2 1.168e+04 2.551e-09
 45.96411   -166.0 1.163e+04 2.267e-09
 45.98986   -165.5 1.153e+04 2.090e-09
 46.01075   -165.5 1.170e+04 2.467e-09
 46.04770   -165.2 1.170e+04 2.447e-09
 46.08761   -164.9 1.179e+04 2.543e-09
 46.10841   -164.4 1.191e+04 2.998e-09
 46.12065   -164.3 1.194e+04 3.050e-09
 46.14154   -164.2 1.197e+04 3.099e-09
 46.15390   -164.2 1.201e+04 3.147e-09
 46.15910   -164.6 1.199e+04 3.191e-09
 46.16764   -164.5 1.203e+04 3.289e-09
 46.18334   -164.4 1.202e+04 3.260e-09
 46.20617   -164.2 1.200e+04 3.240e-09
 46.22716   -163.5 1.234e+04 4.125e-09
 46.25668   -163.6 1.255e+04 4.520e-09
 46.29847   -164.5 1.276e+04 5.934e-09
 46.32482   -166.0 1.304e+04 8.695e-09
 46.33518   -166.4 1.315e+04 9.973e-09
 46.35052   -167.1 1.349e+04 1.517e-08
 46.37142   -167.6 1.387e+04 2.192e-08
 46.38405   -168.1 1.419e+04 2.789e-08
 46.39450   -169.4 1.421e+04 2.963e-08
 46.41321   -170.3 1.419e+04 2.978e-08
 46.43229   -171.0 1.384e+04 2.567e-08
 46.44156   -171.2 1.334e+04 1.709e-08
 46.44338   -172.4 1.294e+04 1.317e-08
 46.45501   -173.2 1.262e+04 1.001e-08
 46.47591   -173.7 1.230e+04 7.944e-09
 46.50735   -174.2 1.199e+04 6.553e-09
 46.54133   -173.6 1.163e+04 5.236e-09
 46.56223   -176.1 1.176e+04 5.920e-09
 46.59104   -175.5 1.156e+04 5.550e-09
 46.63283   -174.9 1.139e+04 5.267e-09
 46.65999   -174.5 1.116e+04 4.794e-09
 46.67034   -175.0 1.135e+04 5.612e-09
 46.68488   -175.0 1.123e+04 5.054e-09
 46.70578   -175.0 1.109e+04 4.482e-09
 46.71912   -174.9 1.098e+04 3.949e-09
 46.72403   -175.3 1.099e+04 4.012e-09
 46.73159   -175.2 1.108e+04 4.073e-09
 46.74758   -175.2 1.094e+04 3.593e-09
 46.76800   -175.1 1.078e+04 3.136e-09
 46.77845   -176.4 1.074e+04 3.469e-09
 46.78937   -176.2 1.060e+04 3.122e-09
 46.81027   -175.9 1.050e+04 2.848e-09
 46.84171   -175.7 1.039e+04 2.592e-09
 46.87640   -175.2 1.016e+04 2.373e-09
 46.89730   -173.8 1.039e+04 3.080e-09
 46.92540   -173.0 1.038e+04 2.983e-09
 46.96720   -172.0 1.037e+04 2.901e-09
 46.99506   -170.8 1.038e+04 2.880e-09
 47.00669   -170.9 1.035e+04 2.897e-09
 47.02053   -170.6 1.041e+04 3.081e-09
 47.04015   -169.8 1.044e+04 3.042e-09
 47.05419   -169.4 1.050e+04 3.028e-09
 47.06464   -169.5 1.046e+04 3.016e-09
 47.08194   -168.9 1.052e+04 3.012e-09
 47.10284   -168.7 1.053e+04 3.093e-09
 47.11352   -168.2 1.057e+04 3.252e-09
 47.13451   -168.2 1.060e+04 3.414e-09
 47.17618   -166.9 1.079e+04 3.725e-09
 47.20742   -166.0 1.073e+04 3.672e-09
 47.22172   -165.5 1.086e+04 3.957e-09
 47.23227   -166.5 1.060e+04 3.351e-09
 47.25977   -165.8 1.070e+04 3.697e-09
 47.28115   -165.0 1.080e+04 3.981e-09
 47.28896   -165.2 1.064e+04 3.873e-09
 47.29882   -165.6 1.072e+04 3.930e-09
 47.31182   -165.2 1.079e+04 4.006e-09
 47.33003   -164.7 1.082e+04 4.039e-09
 47.35102   -163.9 1.075e+04 4.702e-09
 47.38515   -163.2 1.079e+04 4.847e-09
 47.42695   -162.4 1.080e+04 4.657e-09
 47.44878   -161.4 1.078e+04 4.040e-09
 47.46968   -161.4 1.080e+04 4.243e-09
 47.51054   -160.3 1.083e+04 3.637e-09
 47.54654   -159.2 1.095e+04 3.219e-09
 47.56743   -159.2 1.077e+04 3.345e-09
 47.57741   -158.3 1.088e+04 3.392e-09
 47.59831   -158.6 1.094e+04 3.209e-09
 47.63593   -157.9 1.123e+04 3.728e-09
 47.66519   -157.6 1.147e+04 4.637e-09
 47.68609   -157.8 1.178e+04 5.489e-09
 47.71952   -157.8 1.199e+04 6.793e-09
 47.75077   -157.8 1.213e+04 7.763e-09
 47.77157   -158.2 1.224e+04 8.316e-09
 47.78365   -158.7 1.234e+04 9.044e-09
 47.79410   -159.2 1.249e+04 1.057e-08
 47.81336   -159.6 1.256e+04 1.070e-08
 47.83253   -160.2 1.266e+04 1.090e-08
 47.84298   -160.4 1.271e+04 1.104e-08
 47.85516   -160.9 1.279e+04 1.122e-08
 47.86606   -161.8 1.287e+04 1.163e-08
 47.87651   -162.0 1.280e+04 1.082e-08
 47.89186   -162.4 1.289e+04 1.127e-08
 47.90240   -162.1 1.264e+04 9.435e-09
 47.92849   -162.9 1.283e+04 9.703e-09
 47.95128   -163.3 1.300e+04 1.035e-08
 47.96163   -162.8 1.273e+04 8.850e-09
 47.98054   -162.9 1.277e+04 8.920e-09
 48.00006   -162.8 1.276e+04 9.020e-09
 48.02106   -161.7 1.253e+04 5.760e-09
 48.05388   -161.3 1.257e+04 6.649e-09
 48.09568   -160.5 1.262e+04 7.523e-09
 48.11881   -158.9 1.230e+04 6.382e-09
 48.13644   -158.8 1.222e+04 4.494e-09
 48.15510   -157.9 1.228e+04 3.726e-09
 48.17927   -156.9 1.238e+04 4.952e-09
 48.21667   -155.7 1.256e+04 5.989e-09
 48.23757   -154.0 1.197e+04 3.144e-09
 48.26286   -152.8 1.211e+04 3.862e-09
 48.30465   -151.6 1.234e+04 4.679e-09
 48.33532   -150.5 1.258e+04 5.807e-09
 48.35622   -148.9 1.214e+04 4.436e-09
 48.38824   -147.8 1.241e+04 5.780e-09
 48.43004   -147.0 1.278e+04 7.733e-09
 48.45388   -146.1 1.302e+04 9.395e-09
 48.47478   -144.9 1.269e+04 6.188e-09
 48.50276   -145.2 1.321e+04 8.153e-09
 48.51311   -144.7 1.276e+04 6.378e-09
 48.52388   -145.3 1.309e+04 7.821e-09
 48.54478   -145.8 1.336e+04 1.030e-08
 48.56199   -146.4 1.359e+04 1.427e-08
 48.57244   -145.1 1.332e+04 9.410e-09
 48.58658   -145.6 1.357e+04 1.235e-08
 48.60747   -146.0 1.373e+04 1.598e-08
 48.62132   -146.3 1.380e+04 1.905e-08
 48.63177   -145.9 1.370e+04 1.326e-08
 48.64927   -146.1 1.378e+04 1.429e-08
 48.67017   -146.2 1.382e+04 1.456e-08
 48.69106   -146.1 1.363e+04 1.213e-08
 48.71169   -146.0 1.370e+04 1.126e-08
 48.72214   -145.9 1.384e+04 1.178e-08
 48.72952   -145.5 1.387e+04 1.125e-08
 48.73997   -145.4 1.376e+04 1.110e-08
 48.75376   -144.9 1.375e+04 1.099e-08
 48.77466   -144.2 1.375e+04 1.104e-08
 48.78885   -143.5 1.376e+04 1.129e-08
 48.79930   -143.4 1.363e+04 1.186e-08
 48.81645   -142.5 1.355e+04 1.171e-08
 48.83735   -141.6 1.346e+04 1.113e-08
 48.84818   -140.6 1.344e+04 1.050e-08
 48.85863   -140.2 1.324e+04 9.450e-09
 48.87914   -139.2 1.324e+04 8.980e-09
 48.89706   -138.2 1.325e+04 8.950e-09
 48.90751   -137.8 1.308e+04 7.530e-09
 48.92094   -136.8 1.311e+04 7.629e-09
 48.94184   -135.9 1.318e+04 8.049e-09
 48.95638   -135.0 1.324e+04 8.649e-09
 48.96683   -134.6 1.312e+04 6.766e-09
 48.98363   -133.8 1.317e+04 7.352e-09
 49.00054   -133.1 1.321e+04 7.951e-09
 49.01098   -133.3 1.310e+04 7.861e-09
 49.01571   -132.7 1.313e+04 8.358e-09
 49.02616   -131.8 1.285e+04 6.478e-09
 49.04633   -131.2 1.285e+04 6.678e-09
 49.06459   -130.6 1.289e+04 6.899e-09
 49.07504   -130.5 1.290e+04 6.731e-09
 49.09867   -130.0 1.292e+04 7.148e-09
 49.12411   -128.5 1.283e+04 7.236e-09
 49.14501   -128.2 1.277e+04 7.094e-09
 49.18236   -126.5 1.269e+04 7.194e-09
 49.22187   -124.8 1.263e+04 7.200e-09
 49.24277   -124.4 1.244e+04 6.694e-09
 49.26595   -122.9 1.242e+04 6.442e-09
 49.28948   -121.8 1.252e+04 6.445e-09
 49.29418   -122.1 1.263e+04 6.483e-09
 49.30190   -122.0 1.252e+04 6.173e-09
 49.31800   -121.5 1.251e+04 5.970e-09
 49.33889   -120.9 1.251e+04 5.871e-09
 49.35078   -120.4 1.251e+04 5.852e-09
 49.36123   -120.1 1.247e+04 5.839e-09
 49.38069   -119.6 1.247e+04 5.840e-09
 49.39966   -119.2 1.245e+04 5.877e-09
 49.41011   -119.0 1.249e+04 6.035e-09
 49.42248   -118.7 1.246e+04 6.100e-09
 49.44338   -118.5 1.242e+04 6.169e-09
 49.45898   -118.4 1.236e+04 6.283e-09
 49.46943   -118.2 1.227e+04 7.177e-09
 49.48518   -118.2 1.223e+04 7.492e-09
 49.50608   -118.1 1.222e+04 7.955e-09
 49.51831   -118.1 1.226e+04 8.549e-09
 49.52876   -117.8 1.228e+04 9.067e-09
 49.54787   -117.8 1.234e+04 9.419e-09
 49.56719   -117.9 1.241e+04 9.724e-09
 49.57774   -117.4 1.221e+04 9.734e-09
 49.60031   -117.0 1.224e+04 9.708e-09
 49.64211   -116.7 1.233e+04 9.788e-09
 49.67335   -116.3 1.239e+04 9.613e-09
 49.68585   -116.3 1.252e+04 9.095e-09
 49.69629   -115.5 1.249e+04 9.584e-09
 49.71505   -115.5 1.249e+04 8.740e-09
 49.73472   -115.3 1.242e+04 7.457e-09
 49.74517   -114.5 1.255e+04 8.863e-09
 49.75685   -114.3 1.245e+04 7.373e-09
 49.77775   -114.1 1.232e+04 5.961e-09
 49.79405   -113.9 1.222e+04 4.859e-09
 49.80450   -113.2 1.234e+04 6.458e-09
 49.81954   -113.0 1.222e+04 5.382e-09
 49.84044   -112.8 1.213e+04 4.586e-09
 49.85338   -112.5 1.204e+04 3.946e-09
 49.85911   -111.9 1.217e+04 5.344e-09
 49.86707   -111.8 1.215e+04 5.167e-09
 49.88223   -111.4 1.207e+04 4.406e-09
 49.90226   -110.8 1.203e+04 3.735e-09
 49.91271   -110.6 1.217e+04 4.961e-09
 49.92403   -109.9 1.212e+04 4.111e-09
 49.94493   -109.1 1.213e+04 3.410e-09
 49.96159   -108.3 1.216e+04 2.930e-09
 49.97203   -108.1 1.222e+04 3.371e-09
 49.98672   -107.4 1.223e+04 2.787e-09
 50.01056   -106.7 1.222e+04 2.419e-09
 50.03156   -106.4 1.226e+04 2.604e-09
 50.06006   -104.0 1.222e+04 2.045e-09
 50.10186   -101.8 1.229e+04 1.861e-09
 50.12931    -99.9 1.233e+04 1.845e-09
 50.15021    -99.2 1.226e+04 1.884e-09
 50.18545    -97.7 1.254e+04 2.151e-09
 50.22707    -96.6 1.273e+04 2.962e-09
 50.25832    -95.2 1.290e+04 3.754e-09
 50.27929    -95.1 1.300e+04 4.090e-09
 50.29665    -94.6 1.312e+04 4.511e-09
 50.30710    -94.3 1.305e+04 4.304e-09
 50.32109    -93.8 1.307e+04 4.342e-09
 50.34198    -93.1 1.311e+04 4.211e-09
 50.35598    -92.2 1.317e+04 3.855e-09
 50.36643    -91.8 1.319e+04 3.062e-09
 50.39433    -91.1 1.322e+04 2.751e-09
 50.42405    -89.2 1.314e+04 2.219e-09
 50.44495    -88.6 1.313e+04 1.925e-09
 50.46438    -86.4 1.288e+04 1.594e-09
 50.48528    -85.8 1.314e+04 1.127e-09
 50.51981    -83.4 1.296e+04 1.052e-09
 50.56161    -80.9 1.291e+04 1.039e-09
 50.58304    -78.5 1.287e+04 1.063e-09
 50.60393    -78.7 1.302e+04 1.245e-09
 50.64520    -77.0 1.296e+04 1.799e-09
 50.68079    -75.2 1.297e+04 2.881e-09
 50.70169    -75.9 1.328e+04 3.871e-09
 50.72879    -74.2 1.345e+04 4.842e-09
 50.75047    -72.5 1.356e+04 5.542e-09
 50.76082    -73.1 1.366e+04 5.131e-09
 50.78084    -72.6 1.367e+04 5.171e-09
 50.79925    -72.0 1.383e+04 4.913e-09
 50.80970    -72.5 1.398e+04 3.931e-09
 50.82263    -71.9 1.409e+04 3.416e-09
 50.84353    -71.5 1.420e+04 3.014e-09
 50.85858    -71.0 1.425e+04 2.736e-09
 50.86903    -71.2 1.427e+04 2.690e-09
 50.88532    -70.5 1.433e+04 2.629e-09
 50.90622    -69.8 1.447e+04 2.590e-09
 50.91791    -69.1 1.456e+04 2.593e-09
 50.92836    -69.4 1.469e+04 3.200e-09
 50.94802    -68.8 1.468e+04 3.528e-09
 50.96679    -68.3 1.462e+04 4.001e-09
 50.97724    -68.8 1.468e+04 6.336e-09
 50.98981    -68.3 1.470e+04 7.488e-09
 51.00154    -67.9 1.472e+04 8.502e-09
 51.01199    -67.5 1.457e+04 9.646e-09
 51.02611    -67.1 1.456e+04 1.036e-08
 51.03656    -67.7 1.445e+04 1.305e-08
 51.05251    -67.4 1.437e+04 1.197e-08
 51.07340    -67.1 1.428e+04 1.054e-08
 51.08544    -66.9 1.415e+04 9.255e-09
 51.09589    -67.6 1.399e+04 9.280e-09
 51.11520    -67.3 1.379e+04 8.250e-09
 51.13432    -66.9 1.364e+04 7.466e-09
 51.15532    -67.4 1.330e+04 7.994e-09
 51.18854    -66.1 1.310e+04 6.343e-09
 51.23033    -64.6 1.281e+04 4.777e-09
 51.25317    -63.1 1.257e+04 3.952e-09
 51.26352    -63.4 1.229e+04 3.233e-09
 51.27993    -62.9 1.218e+04 3.038e-09
 51.29038    -62.7 1.205e+04 3.221e-09
 51.31383    -62.0 1.193e+04 2.737e-09
 51.35093    -60.6 1.170e+04 2.434e-09
 51.37183    -60.8 1.135e+04 2.326e-09
 51.39751    -59.3 1.122e+04 2.174e-09
 51.43931    -57.9 1.112e+04 2.032e-09
 51.46958    -56.5 1.102e+04 1.925e-09
 51.49048    -56.5 1.075e+04 2.043e-09
 51.52290    -55.1 1.071e+04 1.808e-09
 51.55852    -53.8 1.077e+04 1.635e-09
 51.57942    -53.8 1.076e+04 2.000e-09
 51.58824    -52.6 1.086e+04 1.956e-09
 51.60914    -52.4 1.044e+04 1.860e-09
 51.64829    -51.2 1.071e+04 1.896e-09
 51.68599    -50.1 1.108e+04 2.200e-09
 51.70689    -50.0 1.107e+04 2.465e-09
 51.72133    -49.5 1.129e+04 2.511e-09
 51.74213    -50.0 1.131e+04 3.124e-09
 51.75558    -50.4 1.125e+04 4.602e-09
 51.76602    -50.6 1.139e+04 5.769e-09
 51.78393    -50.8 1.148e+04 7.967e-09
 51.80445    -51.1 1.154e+04 9.646e-09
 51.81490    -51.3 1.175e+04 1.114e-08
 51.82572    -51.8 1.168e+04 1.132e-08
 51.84662    -51.9 1.118e+04 9.940e-09
 51.85762    -51.9 1.068e+04 7.234e-09
 51.86433    -52.3 1.052e+04 6.248e-09
 51.87423    -52.4 1.056e+04 6.281e-09
 51.88842    -52.4 1.019e+04 4.693e-09
 51.90931    -52.3 9.836e+03 3.702e-09
 51.92311    -52.0 9.590e+03 3.012e-09
 51.93356    -51.5 9.717e+03 3.387e-09
 51.95111    -51.2 9.575e+03 2.968e-09
 51.97199    -51.2 9.571e+03 2.789e-09
 51.99289    -60.3 1.753e+04 1.542e-08
 52.00683    -59.6 1.575e+04 1.648e-08
 52.01200    -65.8 1.933e+04 4.447e-08
 52.01893    -67.9 1.844e+04 8.451e-08
 52.02938    -68.5 1.759e+04 1.738e-07
 52.03644    -67.8 1.718e+04 2.826e-07
 52.04167    -65.4 1.723e+04 5.827e-07
 52.05027    -64.8 1.743e+04 5.927e-07
 52.06072    -64.7 1.792e+04 5.331e-07
 52.06611    -65.2 1.811e+04 4.136e-07
 52.07133    -67.1 1.943e+04 2.540e-07
 52.08162    -68.6 1.942e+04 1.738e-07
 52.09055    -69.9 1.908e+04 1.285e-07
 52.10104    -75.3 1.825e+04 2.931e-08
 52.11829    -77.3 1.596e+04 2.744e-08
 52.13602    -78.3 1.464e+04 2.874e-08
 52.14646    -78.4 1.406e+04 2.554e-08
 52.14997    -77.9 1.432e+04 3.431e-08
 52.16042    -78.4 1.485e+04 1.054e-08
 52.18098    -78.2 1.491e+04 1.650e-08
 52.19885    -78.8 1.519e+04 2.850e-08
 52.20930    -80.9 1.581e+04 1.135e-08
 52.22278    -83.5 1.732e+04 2.855e-08
 52.24368    -86.2 1.872e+04 6.145e-08
 52.25818    -88.6 1.938e+04 8.881e-08
 52.26863    -92.7 1.781e+04 1.526e-07
 52.28020    -93.8 1.758e+04 1.135e-07
 52.28556    -94.5 1.761e+04 1.093e-07
 52.28793    -95.6 1.738e+04 1.485e-07
 52.29297    -96.4 1.742e+04 2.018e-07
 52.30105    -97.0 1.661e+04 1.455e-07
 52.31150    -97.8 1.614e+04 8.330e-08
 52.31741    -99.2 1.555e+04 4.913e-08
 52.32263   -100.0 1.532e+04 4.942e-08
 52.33239   -101.4 1.459e+04 3.395e-08
 52.34812   -102.5 1.406e+04 2.497e-08
 52.36638   -104.1 1.329e+04 1.455e-08
 52.37683   -104.8 1.321e+04 1.493e-08
 52.38996   -105.6 1.268e+04 1.067e-08
 52.41086   -105.9 1.245e+04 8.107e-09
 52.42486   -106.1 1.231e+04 6.285e-09
 52.42926   -106.1 1.241e+04 7.166e-09
 52.43616   -105.9 1.251e+04 8.264e-09
 52.45265   -106.2 1.227e+04 6.582e-09
 52.47355   -106.3 1.206e+04 5.486e-09
 52.48504   -106.2 1.187e+04 4.882e-09
 52.49549   -105.9 1.182e+04 5.481e-09
 52.51535   -105.7 1.167e+04 5.130e-09
 52.53392   -105.4 1.157e+04 4.998e-09
 52.54436   -104.9 1.157e+04 5.413e-09
 52.55714   -104.6 1.151e+04 5.335e-09
 52.57804   -104.4 1.148e+04 5.238e-09
 52.59324   -104.2 1.144e+04 5.049e-09
 52.60369   -103.8 1.147e+04 5.294e-09
 52.61984   -103.8 1.142e+04 4.888e-09
 52.64073   -103.8 1.138e+04 4.347e-09
 52.65257   -103.9 1.134e+04 3.804e-09
 52.66302   -103.7 1.155e+04 4.131e-09
 52.68253   -104.1 1.155e+04 3.563e-09
 52.70145   -104.5 1.149e+04 3.263e-09
 52.71172   -104.6 1.169e+04 4.173e-09
 52.71370   -105.4 1.169e+04 4.432e-09
 52.72432   -105.8 1.163e+04 4.233e-09
 52.74522   -106.2 1.161e+04 4.204e-09
 52.76078   -106.4 1.152e+04 4.416e-09
 52.77123   -106.3 1.162e+04 5.663e-09
 52.78702   -106.4 1.161e+04 5.708e-09
 52.80791   -106.4 1.165e+04 6.061e-09
 52.82010   -106.5 1.173e+04 6.446e-09
 52.83055   -106.1 1.181e+04 6.496e-09
 52.84971   -106.2 1.192e+04 7.023e-09
 52.86898   -106.4 1.207e+04 7.860e-09
 52.87943   -105.7 1.205e+04 6.698e-09
 52.89151   -105.9 1.225e+04 8.076e-09
 52.91240   -106.2 1.246e+04 9.821e-09
 52.92831   -106.6 1.266e+04 1.156e-08
 52.93876   -105.7 1.248e+04 9.769e-09
 52.95420   -106.0 1.267e+04 1.113e-08
 52.97510   -106.5 1.273e+04 1.154e-08
 52.98764   -106.9 1.271e+04 1.148e-08
 52.99419   -105.7 1.257e+04 9.757e-09
 53.00254   -105.9 1.231e+04 8.059e-09
 53.01689   -106.1 1.230e+04 7.144e-09
 53.03652   -106.1 1.221e+04 5.609e-09
 53.04697   -104.8 1.208e+04 5.119e-09
 53.05869   -104.8 1.207e+04 3.975e-09
 53.07959   -104.8 1.202e+04 3.135e-09
 53.09584   -104.5 1.195e+04 2.583e-09
 53.10629   -104.0 1.199e+04 2.568e-09
 53.12138   -103.9 1.193e+04 2.346e-09
 53.14482   -103.7 1.176e+04 2.192e-09
 53.16582   -101.4 1.184e+04 2.030e-09
 53.19472   -100.6 1.172e+04 1.942e-09
 53.23651    -99.6 1.171e+04 1.945e-09
 53.26357    -99.0 1.189e+04 2.351e-09
 53.27685    -97.2 1.201e+04 2.458e-09
 53.29158    -97.3 1.209e+04 2.576e-09
 53.30956    -97.1 1.218e+04 3.395e-09
 53.32270    -97.4 1.227e+04 4.045e-09
 53.33315    -97.0 1.229e+04 4.143e-09
 53.35126    -97.4 1.249e+04 5.489e-09
 53.37158    -98.1 1.272e+04 6.525e-09
 53.38203    -97.3 1.281e+04 6.189e-09
 53.39305    -98.4 1.292e+04 6.466e-09
 53.41395    -99.5 1.293e+04 6.496e-09
 53.43091   -100.4 1.288e+04 5.943e-09
 53.44136    -99.9 1.274e+04 5.894e-09
 53.45574   -100.7 1.274e+04 4.771e-09
 53.47664   -101.3 1.274e+04 3.737e-09
 53.49024   -102.0 1.271e+04 2.943e-09
 53.50069   -102.3 1.279e+04 2.894e-09
 53.52898   -103.1 1.281e+04 2.281e-09
 53.57088   -103.5 1.273e+04 1.845e-09
 53.59864   -103.5 1.251e+04 1.395e-09
 53.61954   -102.8 1.265e+04 1.534e-09
 53.65447   -102.0 1.238e+04 1.200e-09
 53.69626   -100.7 1.229e+04 1.127e-09
 53.73806    -98.9 1.242e+04 1.226e-09
 53.77985    -97.5 1.217e+04 1.522e-09
 53.81505    -96.0 1.209e+04 2.000e-09
 53.83595    -95.3 1.265e+04 2.109e-09
 53.84827    -94.4 1.251e+04 2.663e-09
 53.85863    -94.9 1.244e+04 3.115e-09
 53.87370    -94.4 1.240e+04 3.564e-09
 53.88463    -93.8 1.237e+04 3.947e-09
 53.89508    -94.1 1.302e+04 4.509e-09
 53.91549    -93.6 1.304e+04 4.976e-09
 53.93351    -93.0 1.306e+04 5.168e-09
 53.94396    -93.5 1.302e+04 7.630e-09
 53.95729    -92.8 1.297e+04 7.670e-09
 53.97819    -92.0 1.278e+04 7.534e-09
 53.99284    -91.2 1.266e+04 7.014e-09
 54.00329    -91.1 1.276e+04 7.645e-09
 54.01998    -90.2 1.271e+04 7.140e-09
 54.04088    -89.2 1.270e+04 6.685e-09
 54.05217    -88.3 1.273e+04 6.265e-09
 54.06262    -89.0 1.284e+04 6.059e-09
 54.08268    -88.5 1.287e+04 6.023e-09
 54.11412    -87.9 1.298e+04 6.173e-09
 54.15012    -86.7 1.321e+04 6.828e-09
 54.17092    -88.4 1.330e+04 8.541e-09
 54.18716    -87.8 1.322e+04 8.702e-09
 54.20806    -88.8 1.364e+04 1.169e-08
 54.21970    -90.9 1.454e+04 2.086e-08
 54.23015    -93.6 1.507e+04 3.419e-08
 54.24986    -95.6 1.569e+04 6.611e-08
 54.26858    -97.3 1.607e+04 9.605e-08
 54.27903    -99.2 1.602e+04 7.701e-08
 54.29165   -100.7 1.581e+04 6.658e-08
 54.31255   -102.0 1.517e+04 3.623e-08
 54.32791   -103.8 1.426e+04 1.605e-08
 54.33835   -107.5 1.222e+04 5.604e-09
 54.35435   -108.5 1.154e+04 4.032e-09
 54.37524   -108.6 1.135e+04 3.634e-09
 54.38723   -108.1 1.135e+04 3.490e-09
 54.39768   -108.1 1.115e+04 2.804e-09
 54.41541   -107.4 1.119e+04 2.781e-09
 54.42586   -107.9 1.119e+04 2.881e-09
 54.43611   -107.2 1.124e+04 2.911e-09
 54.44656   -107.4 1.105e+04 2.640e-09
 54.45883   -106.7 1.107e+04 2.758e-09
 54.47973   -105.8 1.107e+04 2.925e-09
 54.49544   -104.9 1.105e+04 3.079e-09
 54.50599   -105.7 1.077e+04 2.811e-09
 54.53217   -103.9 1.083e+04 2.945e-09
 54.57397   -102.0 1.086e+04 2.961e-09
 54.60384    -99.7 1.080e+04 2.863e-09
 54.62474    -99.3 1.050e+04 2.117e-09
 54.65756    -96.7 1.047e+04 1.825e-09
 54.69935    -93.9 1.049e+04 1.567e-09
 54.72250    -91.1 1.053e+04 1.383e-09
 54.74339    -90.7 1.040e+04 1.018e-09
 54.78294    -88.0 1.056e+04 1.070e-09
 54.82025    -85.5 1.064e+04 1.258e-09
 54.84115    -85.2 1.058e+04 1.142e-09
 54.86654    -82.7 1.063e+04 1.579e-09
 54.90833    -80.1 1.074e+04 2.046e-09
 54.93891    -77.6 1.088e+04 2.378e-09
 54.95981    -77.2 1.070e+04 2.185e-09
 54.98285    -74.8 1.077e+04 2.262e-09
 55.00374    -75.8 1.073e+04 2.205e-09
 55.03372    -73.5 1.082e+04 2.042e-09
 55.05756    -71.3 1.091e+04 1.695e-09
 55.07846    -71.1 1.085e+04 1.889e-09
 55.11731    -69.1 1.089e+04 1.904e-09
 55.15532    -67.1 1.098e+04 1.847e-09
 55.17622    -67.0 1.089e+04 2.080e-09
 55.20090    -64.8 1.087e+04 1.802e-09
 55.24269    -62.5 1.084e+04 1.350e-09
 55.27397    -60.3 1.085e+04 9.578e-10
 55.29487    -60.3 1.111e+04 4.427e-10
 55.32628    -58.6 1.112e+04 3.241e-10
 55.36808    -56.5 1.109e+04 3.028e-10
 55.39263    -54.2 1.106e+04 3.086e-10
 55.41353    -54.5 1.124e+04 2.200e-10
 55.45167    -52.3 1.106e+04 2.953e-10
 55.49039    -49.9 1.073e+04 4.561e-10
 55.51128    -49.8 1.080e+04 4.271e-10
 55.53526    -47.2 1.052e+04 6.632e-10
 55.56053    -44.5 1.040e+04 9.555e-10
 55.58143    -44.3 1.050e+04 6.794e-10
 55.60904    -41.6 1.045e+04 9.819e-10
 55.62994    -41.8 1.042e+04 9.294e-10
 55.66065    -39.4 1.043e+04 1.236e-09
 55.70244    -37.1 1.048e+04 1.590e-09
 55.72770    -34.9 1.054e+04 1.986e-09
 55.74859    -35.8 1.048e+04 1.924e-09
 55.78603    -33.7 1.048e+04 2.282e-09
 55.82545    -31.6 1.046e+04 2.440e-09
 55.84635    -32.2 1.032e+04 1.941e-09
 55.86963    -30.2 1.032e+04 1.614e-09
 55.91142    -28.4 1.033e+04 1.367e-09
 55.94411    -26.8 1.033e+04 1.287e-09
 55.96501    -28.1 1.035e+04 8.457e-10
 55.99501    -27.0 1.041e+04 1.009e-09
 56.03681    -25.9 1.028e+04 1.386e-09
 56.06276    -24.6 1.024e+04 1.827e-09
 56.08366    -25.4 1.025e+04 1.737e-09
 56.11732    -24.1 1.027e+04 1.926e-09
 56.13822    -23.9 1.030e+04 1.798e-09
 56.16052    -23.0 1.049e+04 1.848e-09
 56.18142    -24.1 1.061e+04 1.319e-09
 56.20399    -24.6 1.083e+04 2.282e-09
 56.23020    -24.9 1.082e+04 3.292e-09
 56.24055    -25.2 1.081e+04 3.668e-09
 56.25604    -25.3 1.088e+04 5.239e-09
 56.27694    -24.7 1.133e+04 7.669e-09
 56.28943    -24.9 1.135e+04 8.820e-09
 56.29988    -25.3 1.129e+04 8.744e-09
 56.31873    -25.2 1.117e+04 9.248e-09
 56.33831    -24.8 1.091e+04 8.276e-09
 56.34876    -25.1 1.067e+04 7.534e-09
 56.36053    -25.0 1.052e+04 6.284e-09
 56.38142    -24.8 1.058e+04 5.312e-09
 56.39764    -25.2 1.038e+04 4.505e-09
 56.40808    -25.2 1.028e+04 4.558e-09
 56.41642    -24.6 1.034e+04 4.505e-09
 56.42687    -24.8 1.036e+04 5.087e-09
 56.45466    -24.7 1.016e+04 4.519e-09
 56.49559    -23.7 9.953e+03 4.276e-09
 56.51649    -24.1 9.942e+03 4.243e-09
 56.53835    -22.0 9.955e+03 4.920e-09
 56.58015    -20.0 9.959e+03 5.465e-09
 56.61424    -17.6 9.638e+03 4.529e-09
 56.63514    -17.8 9.798e+03 4.631e-09
 56.66374    -15.3 9.517e+03 3.038e-09
 56.69501    -13.2 9.329e+03 1.866e-09
 56.71591    -13.5 9.366e+03 2.192e-09
 56.73290    -11.7 9.245e+03 1.915e-09
 56.75380    -11.8 9.579e+03 2.572e-09
 56.78912    -10.1 9.749e+03 3.293e-09
 56.83066     -8.5 1.011e+04 5.311e-09
 56.85155     -8.9 1.034e+04 5.698e-09
 56.87272     -6.9 1.070e+04 9.498e-09
 56.91451     -5.4 1.097e+04 1.052e-08
 56.94931     -4.0 1.085e+04 8.294e-09
 56.97021     -4.6 1.090e+04 7.366e-09
 56.99810     -3.7 1.072e+04 5.294e-09
 57.03990     -3.2 1.073e+04 3.953e-09
 57.06787     -3.3 1.077e+04 4.187e-09
 57.07822     -3.1 1.086e+04 3.874e-09
 57.09195     -2.4 1.076e+04 3.524e-09
 57.11284     -2.4 1.076e+04 3.980e-09
 57.12710     -1.8 1.088e+04 4.354e-09
 57.13755     -2.0 1.098e+04 3.999e-09
 57.15464     -2.2 1.116e+04 4.766e-09
 57.17554     -2.4 1.134e+04 5.806e-09
 57.18642     -2.1 1.124e+04 7.250e-09
 57.19687     -1.6 1.121e+04 6.187e-09
 57.21733     -0.9 1.119e+04 5.932e-09
 57.23530     -1.0 1.131e+04 5.180e-09
 57.24575     -0.7 1.133e+04 4.580e-09
 57.25913     -0.6 1.117e+04 4.283e-09
 57.27260      0.1 1.085e+04 2.598e-09
 57.28730     -0.5 1.071e+04 2.021e-09
 57.30527      0.4 1.074e+04 1.972e-09
 57.33247     -0.1 1.085e+04 9.379e-10
 57.37426      0.2 1.043e+04 7.495e-10
 57.40303      1.4 1.033e+04 6.252e-10
 57.42393      2.1 1.058e+04 7.853e-10
 57.45785      3.4 1.033e+04 7.338e-10
 57.49965      4.9 1.028e+04 7.979e-10
 57.52169      6.7 1.027e+04 9.451e-10
 57.54258      7.2 1.040e+04 1.030e-09
 57.58324      9.2 1.045e+04 1.154e-09
 57.61944     11.2 1.056e+04 1.134e-09
 57.64034     11.7 1.067e+04 1.093e-09
 57.66683     13.8 1.076e+04 8.950e-10
 57.70862     15.9 1.088e+04 6.801e-10
 57.73810     18.0 1.101e+04 5.081e-10
 57.75900     18.3 1.122e+04 4.372e-10
 57.79222     20.2 1.131e+04 3.736e-10
 57.82948     22.4 1.131e+04 3.776e-10
 57.85038     21.8 1.129e+04 5.266e-10
 57.85675     23.8 1.142e+04 5.775e-10
 57.87765     23.8 1.155e+04 7.301e-10
 57.91760     26.0 1.149e+04 9.793e-10
 57.95451     28.4 1.152e+04 1.267e-09
 57.97541     29.0 1.158e+04 1.283e-09
 58.00119     31.6 1.164e+04 1.240e-09
 58.04299     34.0 1.178e+04 1.133e-09
 58.07317     36.4 1.197e+04 1.016e-09
 58.09406     36.9 1.226e+04 6.575e-10
 58.12658     39.2 1.233e+04 6.572e-10
 58.16837     41.5 1.245e+04 6.756e-10
 58.19182     43.9 1.249e+04 7.335e-10
 58.21272     44.7 1.255e+04 6.535e-10
 58.25197     47.3 1.255e+04 7.113e-10
 58.28958     49.8 1.254e+04 7.786e-10
 58.31048     50.8 1.267e+04 6.920e-10
 58.33556     53.4 1.278e+04 6.908e-10
 58.37735     56.0 1.292e+04 6.831e-10
 58.40717     58.6 1.305e+04 6.842e-10
 58.41715     58.2 1.328e+04 5.184e-10
 58.42913     59.2 1.333e+04 4.843e-10
 58.46094     61.7 1.342e+04 4.941e-10
 58.50274     64.2 1.358e+04 5.309e-10
 58.52689     66.7 1.365e+04 6.089e-10
 58.54779     67.8 1.373e+04 5.928e-10
 58.58633     70.3 1.381e+04 6.836e-10
 58.62465     72.9 1.391e+04 7.884e-10
 58.64554     73.8 1.403e+04 7.450e-10
 58.66992     76.2 1.415e+04 8.507e-10
 58.71171     78.5 1.433e+04 9.601e-10
 58.74330     80.9 1.450e+04 1.073e-09
 58.76420     81.7 1.438e+04 1.339e-09
 58.79531     84.0 1.443e+04 1.594e-09
 58.83710     86.3 1.486e+04 1.657e-09
 58.86196     88.4 1.501e+04 1.648e-09
 58.88285     89.3 1.490e+04 2.168e-09
 58.92069     91.3 1.497e+04 2.145e-09
 58.95971     93.4 1.504e+04 2.097e-09
 58.98061     94.2 1.502e+04 2.231e-09
 58.98486     96.2 1.502e+04 2.252e-09
 59.00575     96.1 1.527e+04 1.919e-09
 59.04608     98.0 1.510e+04 2.337e-09
 59.07837     99.7 1.496e+04 2.967e-09
 59.09926    100.5 1.520e+04 2.352e-09
 59.12967    102.1 1.517e+04 2.691e-09
 59.17146    103.5 1.515e+04 3.002e-09
 59.19702    104.8 1.499e+04 3.219e-09
 59.21792    105.2 1.507e+04 2.526e-09
 59.25506    106.5 1.483e+04 2.911e-09
 59.29478    107.8 1.463e+04 3.449e-09
 59.31568    108.1 1.440e+04 3.364e-09
 59.33865    109.6 1.421e+04 4.065e-09
 59.38044    111.0 1.423e+04 4.338e-09
 59.41343    112.2 1.423e+04 4.228e-09
 59.43433    112.6 1.425e+04 2.576e-09
 59.46403    113.7 1.427e+04 2.141e-09
 59.50583    114.5 1.429e+04 1.643e-09
 59.53209    115.2 1.406e+04 1.395e-09
 59.54701    115.6 1.382e+04 1.457e-09
 59.56254    115.1 1.379e+04 1.389e-09
 59.58942    116.2 1.373e+04 1.433e-09
 59.62985    117.2 1.363e+04 1.620e-09
 59.65074    117.4 1.330e+04 2.043e-09
 59.67301    118.1 1.333e+04 2.110e-09
 59.71481    118.7 1.340e+04 2.153e-09
 59.74850    119.1 1.349e+04 2.210e-09
 59.76940    119.3 1.336e+04 1.824e-09
 59.79840    119.9 1.343e+04 1.964e-09
 59.84019    120.3 1.343e+04 2.303e-09
 59.86706    120.6 1.334e+04 2.616e-09
 59.87741    120.6 1.353e+04 2.241e-09
 59.89224    121.2 1.342e+04 2.922e-09
 59.91314    121.7 1.345e+04 4.107e-09
 59.92629    121.6 1.353e+04 5.789e-09
 59.93674    121.3 1.347e+04 6.787e-09
 59.95493    121.1 1.351e+04 1.007e-08
 59.97517    120.6 1.366e+04 1.530e-08
 59.98562    120.5 1.332e+04 1.850e-08
 59.99673    119.5 1.372e+04 2.858e-08
 60.01763    118.3 1.419e+04 4.160e-08
 60.03449    116.9 1.453e+04 4.846e-08
 60.04494    116.3 1.471e+04 5.651e-08
 60.05942    114.3 1.466e+04 5.366e-08
 60.08032    112.7 1.429e+04 4.116e-08
 60.09382    111.3 1.366e+04 2.264e-08
 60.10427    110.6 1.370e+04 1.754e-08
 60.11923    106.4 1.303e+04 4.184e-09
 60.12968    108.4 1.331e+04 9.662e-09
 60.14270    105.7 1.298e+04 4.874e-09
 60.15315    104.0 1.289e+04 3.942e-09
 60.17446    101.5 1.209e+04 3.518e-09
 60.20222     99.4 1.167e+04 3.064e-09
 60.22312     98.2 1.142e+04 2.793e-09
 60.25815     97.8 1.133e+04 2.452e-09
 60.29994     97.9 1.130e+04 1.959e-09
 60.34174     97.8 1.111e+04 1.034e-09
 60.38353     98.8 1.111e+04 9.477e-10
 60.41864    100.1 1.117e+04 9.798e-10
 60.43953    100.1 1.112e+04 9.087e-10
 60.46712    100.9 1.131e+04 1.156e-09
 60.50892    100.8 1.137e+04 1.940e-09
 60.53729    100.6 1.154e+04 3.722e-09
 60.55819    101.4 1.127e+04 2.879e-09
 60.59251    100.6 1.164e+04 4.563e-09
 60.63430     98.6 1.203e+04 6.613e-09
 60.65595     96.1 1.236e+04 8.095e-09
 60.67684     97.7 1.192e+04 5.004e-09
 60.71790     94.3 1.218e+04 6.630e-09
 60.75370     92.6 1.205e+04 6.202e-09
 60.77460     94.3 1.197e+04 3.224e-09
 60.80149     93.3 1.187e+04 2.661e-09
 60.84328     93.1 1.184e+04 2.163e-09
 60.87236     93.1 1.184e+04 1.908e-09
 60.89325     93.9 1.170e+04 1.350e-09
 60.92687     94.3 1.169e+04 1.374e-09
 60.96867     95.2 1.179e+04 1.407e-09
 60.99101     96.1 1.185e+04 1.402e-09
 61.01191     96.8 1.199e+04 1.572e-09
 61.05226     97.6 1.209e+04 1.489e-09
 61.08877     98.6 1.226e+04 1.314e-09
 61.10967     98.9 1.227e+04 2.156e-09
 61.13585     99.9 1.240e+04 1.819e-09
 61.17765    100.9 1.243e+04 1.826e-09
 61.20742    102.0 1.248e+04 1.944e-09
 61.22832    102.0 1.255e+04 2.188e-09
 61.25381    102.9 1.260e+04 2.464e-09
 61.27470    102.6 1.264e+04 4.737e-09
 61.30303    103.4 1.280e+04 5.903e-09
 61.32608    104.1 1.300e+04 7.497e-09
 61.34698    103.5 1.337e+04 6.142e-09
 61.38662    103.7 1.351e+04 7.696e-09
 61.42384    103.7 1.353e+04 7.744e-09
 61.44473    102.6 1.380e+04 7.564e-09
 61.47021    102.7 1.377e+04 7.495e-09
 61.51201    102.9 1.374e+04 7.027e-09
 61.54249    103.1 1.371e+04 6.321e-09
 61.56339    102.5 1.368e+04 1.427e-08
 61.59560    102.7 1.368e+04 1.453e-08
 61.63739    102.9 1.363e+04 1.346e-08
 61.66115    103.3 1.356e+04 9.577e-09
 61.68204    102.6 1.410e+04 8.929e-09
 61.72099    103.5 1.416e+04 5.035e-09
 61.75890    104.2 1.437e+04 2.364e-09
 61.77980    104.0 1.419e+04 3.139e-09
 61.80458    105.1 1.423e+04 2.211e-09
 61.83149    106.4 1.416e+04 2.049e-09
 61.85239    106.6 1.414e+04 3.448e-09
 61.87756    108.0 1.416e+04 3.630e-09
 61.89846    108.3 1.421e+04 3.782e-09
 61.92996    109.3 1.436e+04 3.797e-09
 61.97176    110.1 1.447e+04 3.696e-09
 61.99621    110.6 1.471e+04 3.216e-09
 62.01711    110.9 1.472e+04 2.546e-09
 62.05535    111.4 1.490e+04 2.137e-09
 62.09397    112.0 1.506e+04 1.685e-09
 62.11487    112.4 1.485e+04 1.795e-09
 62.13894    113.2 1.502e+04 1.564e-09
 62.18074    114.2 1.520e+04 1.341e-09
 62.21263    115.4 1.536e+04 1.151e-09
 62.23352    115.9 1.527e+04 1.215e-09
 62.26433    117.2 1.540e+04 1.065e-09
 62.30612    118.7 1.544e+04 9.723e-10
 62.33128    120.1 1.544e+04 9.274e-10
 62.35218    120.6 1.534e+04 1.081e-09
 62.38828    122.2 1.537e+04 1.103e-09
 62.40918    122.5 1.526e+04 1.156e-09
 62.42904    124.0 1.532e+04 1.199e-09
 62.44994    124.5 1.525e+04 1.427e-09
 62.47330    125.9 1.529e+04 1.415e-09
 62.51510    127.3 1.523e+04 1.366e-09
 62.54769    128.6 1.516e+04 1.366e-09
 62.56859    129.0 1.506e+04 1.541e-09
 62.59869    129.8 1.510e+04 1.763e-09
 62.64049    130.2 1.515e+04 2.387e-09
 62.66635    130.4 1.508e+04 3.301e-09
 62.68725    130.2 1.495e+04 4.416e-09
 62.72408    129.9 1.485e+04 4.793e-09
 62.76410    129.5 1.483e+04 4.703e-09
 62.78500    129.3 1.483e+04 4.097e-09
 62.80767    129.3 1.485e+04 3.265e-09
 62.84946    129.5 1.497e+04 2.338e-09
 62.88276    129.7 1.513e+04 1.644e-09
 62.90366    129.9 1.526e+04 1.294e-09
 62.93305    130.7 1.517e+04 1.277e-09
 62.96597    131.7 1.515e+04 1.307e-09
 62.98686    131.6 1.495e+04 2.004e-09
 63.00141    132.5 1.492e+04 2.294e-09
 63.02231    133.0 1.500e+04 2.062e-09
 63.05844    133.9 1.503e+04 2.475e-09
 63.09917    134.5 1.511e+04 2.528e-09
 63.12007    135.4 1.506e+04 2.680e-09
 63.14203    136.2 1.510e+04 2.613e-09
 63.18383    137.2 1.520e+04 2.323e-09
 63.21783    138.1 1.531e+04 1.916e-09
 63.23872    139.2 1.517e+04 2.358e-09
 63.26742    140.1 1.528e+04 1.942e-09
 63.30921    141.0 1.531e+04 1.657e-09
 63.33648    142.0 1.525e+04 1.620e-09
 63.35738    143.1 1.532e+04 1.524e-09
 63.39280    144.2 1.530e+04 1.518e-09
 63.43424    145.4 1.530e+04 1.584e-09
 63.45514    146.6 1.545e+04 1.310e-09
 63.47639    147.7 1.548e+04 1.484e-09
 63.51819    148.7 1.527e+04 1.980e-09
 63.54365    149.6 1.506e+04 2.619e-09
 63.55746    149.4 1.504e+04 2.287e-09
 63.57379    150.5 1.506e+04 1.925e-09
 63.60178    151.3 1.500e+04 2.277e-09
 63.64358    151.7 1.504e+04 2.272e-09
 63.67155    152.2 1.508e+04 2.135e-09
 63.69245    153.3 1.512e+04 1.920e-09
 63.72717    153.8 1.522e+04 1.630e-09
 63.76896    154.5 1.537e+04 1.203e-09
 63.79020    155.4 1.557e+04 8.622e-10
 63.81110    156.3 1.563e+04 8.685e-10
 63.85255    157.6 1.570e+04 7.964e-10
 63.88796    159.1 1.569e+04 7.933e-10
 63.90886    160.2 1.568e+04 8.253e-10
 63.93614    161.8 1.563e+04 9.075e-10
 63.97794    163.4 1.546e+04 1.125e-09
 64.00662    164.9 1.528e+04 1.462e-09
 64.02751    165.8 1.529e+04 1.696e-09
 64.06153    167.2 1.514e+04 2.249e-09
 64.10044    168.5 1.509e+04 2.678e-09
 64.12134    168.4 1.511e+04 2.277e-09
 64.12527    169.4 1.512e+04 2.308e-09
 64.14617    170.2 1.504e+04 2.739e-09
 64.18692    171.1 1.503e+04 2.685e-09
 64.22303    171.9 1.500e+04 2.533e-09
 64.24393    172.7 1.499e+04 2.784e-09
 64.27051    173.8 1.500e+04 2.470e-09
 64.31230    175.0 1.509e+04 2.097e-09
 64.34168    176.3 1.526e+04 1.713e-09
 64.36258    177.2 1.515e+04 2.028e-09
 64.39589    178.4 1.526e+04 1.771e-09
 64.43769    179.5 1.534e+04 1.504e-09
 64.46034    180.4 1.536e+04 1.237e-09
 64.48124    181.1 1.522e+04 1.821e-09
 64.52128    181.8 1.519e+04 1.533e-09
 64.55809    182.4 1.517e+04 1.206e-09
 64.57899    182.9 1.510e+04 1.801e-09
 64.60487    183.5 1.507e+04 1.344e-09
 64.64667    184.2 1.510e+04 9.381e-10
 64.67675    184.9 1.523e+04 6.404e-10
 64.68731    185.6 1.515e+04 8.111e-10
 64.69903    185.4 1.509e+04 8.645e-10
 64.73026    186.2 1.528e+04 5.477e-10
 64.77205    187.1 1.488e+04 4.570e-10
 64.79540    188.2 1.471e+04 4.505e-10
 64.81630    188.9 1.469e+04 4.868e-10
 64.85564    190.1 1.467e+04 4.814e-10
 64.89316    191.3 1.462e+04 4.827e-10
 64.91406    192.0 1.461e+04 5.370e-10
 64.93923    193.1 1.451e+04 5.496e-10
 64.98103    194.0 1.436e+04 5.886e-10
 65.01182    194.9 1.421e+04 6.495e-10
 65.03271    195.2 1.420e+04 7.742e-10
 65.06462    195.9 1.405e+04 8.270e-10
 65.10642    196.5 1.388e+04 8.621e-10
 65.13047    197.2 1.383e+04 8.566e-10
 65.15137    197.4 1.377e+04 9.853e-10
 65.19001    198.2 1.369e+04 8.954e-10
 65.22823    199.3 1.363e+04 7.957e-10
 65.24913    199.6 1.366e+04 7.635e-10
 65.25581    200.8 1.366e+04 6.283e-10
 65.27671    200.7 1.367e+04 5.603e-10
 65.31539    201.9 1.372e+04 4.337e-10
 65.34688    203.1 1.377e+04 3.375e-10
 65.36778    203.7 1.375e+04 3.190e-10
 65.39898    205.0 1.378e+04 2.562e-10
 65.44078    206.4 1.380e+04 2.095e-10
 65.46554    208.0 1.368e+04 1.863e-10
 65.48644    209.0 1.366e+04 1.884e-10
 65.52437    211.0 1.358e+04 1.873e-10
 65.56330    213.1 1.357e+04 1.882e-10
 65.58419    214.2 1.356e+04 1.902e-10
 65.60796    216.3 1.351e+04 1.976e-10
 65.64976    218.4 1.344e+04 2.205e-10
 65.68195    220.5 1.336e+04 2.621e-10
 65.70285    221.7 1.338e+04 2.588e-10
 65.73335    223.8 1.330e+04 3.207e-10
 65.77514    225.7 1.322e+04 4.051e-10
 65.80061    227.6 1.316e+04 5.095e-10
 65.81717    228.8 1.324e+04 4.731e-10
 65.83350    228.8 1.316e+04 5.534e-10
 65.85873    230.6 1.310e+04 6.675e-10
 65.89836    232.2 1.305e+04 7.829e-10
 65.91926    233.4 1.316e+04 6.727e-10
 65.94232    234.9 1.309e+04 7.807e-10
 65.98412    236.4 1.303e+04 9.092e-10
 66.01702    237.8 1.298e+04 1.076e-09
 66.03792    239.0 1.310e+04 9.293e-10
 66.06771    240.1 1.306e+04 1.119e-09
 66.10951    241.0 1.306e+04 1.326e-09
 66.13567    241.6 1.310e+04 1.438e-09
 66.15657    242.7 1.320e+04 1.362e-09
 66.19310    243.1 1.315e+04 1.424e-09
 66.23343    243.4 1.314e+04 1.410e-09
 66.25433    244.5 1.319e+04 1.466e-09
 66.27669    244.8 1.314e+04 1.426e-09
 66.31848    245.5 1.306e+04 1.267e-09
 66.35208    246.6 1.304e+04 1.045e-09
 66.37298    247.4 1.307e+04 1.200e-09
 66.39029    248.7 1.307e+04 9.756e-10
 66.41119    248.2 1.302e+04 1.229e-09
 66.44387    249.9 1.301e+04 1.143e-09
 66.47074    251.8 1.302e+04 1.143e-09
 66.49164    252.3 1.305e+04 1.277e-09
 66.52746    254.1 1.308e+04 1.316e-09
 66.56850    255.9 1.314e+04 1.449e-09
 66.58939    256.2 1.317e+04 1.726e-09
 66.61105    257.8 1.322e+04 1.971e-09
 66.65285    259.2 1.326e+04 2.243e-09
 66.68715    260.6 1.330e+04 2.508e-09
 66.70805    260.8 1.340e+04 2.594e-09
 66.73644    262.2 1.345e+04 2.839e-09
 66.77823    263.4 1.356e+04 3.318e-09
 66.80581    264.1 1.376e+04 4.203e-09
 66.82670    263.9 1.387e+04 4.259e-09
 66.86182    263.6 1.408e+04 5.652e-09
 66.90356    263.0 1.425e+04 6.904e-09
 66.94536    260.7 1.423e+04 5.326e-09
 66.96798    259.5 1.409e+04 4.524e-09
 66.98887    258.7 1.398e+04 2.605e-09
 67.02222    258.2 1.381e+04 1.946e-09
 67.04312    257.4 1.374e+04 1.377e-09
 67.07080    257.0 1.341e+04 1.223e-09
 67.11260    256.9 1.332e+04 1.225e-09
 67.14087    256.8 1.327e+04 1.275e-09
 67.16177    256.4 1.327e+04 1.291e-09
 67.19619    256.0 1.318e+04 1.448e-09
 67.23798    255.6 1.312e+04 1.603e-09
 67.25953    254.8 1.310e+04 1.620e-09
 67.28043    254.5 1.311e+04 1.630e-09
 67.32157    254.1 1.298e+04 1.520e-09
 67.35729    253.9 1.284e+04 1.294e-09
 67.37818    254.3 1.280e+04 1.272e-09
 67.40516    254.5 1.274e+04 1.078e-09
 67.44696    254.8 1.272e+04 9.382e-10
 67.47594    255.0 1.272e+04 8.539e-10
 67.49684    255.6 1.274e+04 1.056e-09
 67.52476    255.7 1.272e+04 9.932e-10
 67.54566    256.0 1.267e+04 9.397e-10
 67.57235    256.0 1.265e+04 9.031e-10
 67.59460    256.0 1.262e+04 8.423e-10
 67.61549    256.2 1.266e+04 9.728e-10
 67.65594    256.1 1.263e+04 8.509e-10
 67.69235    256.1 1.250e+04 7.704e-10
 67.71325    256.1 1.256e+04 8.703e-10
 67.73953    256.2 1.236e+04 8.403e-10
 67.78132    256.6 1.234e+04 8.419e-10
 67.81101    257.1 1.229e+04 8.636e-10
 67.83191    257.1 1.232e+04 9.723e-10
 67.86491    257.6 1.225e+04 1.023e-09
 67.90671    258.1 1.219e+04 1.081e-09
 67.92966    258.7 1.212e+04 1.134e-09
 67.95056    258.6 1.223e+04 1.159e-09
 67.99030    259.4 1.216e+04 1.184e-09
 68.02742    260.3 1.207e+04 1.246e-09
 68.04832    260.3 1.209e+04 1.186e-09
 68.07389    261.3 1.206e+04 1.278e-09
 68.10245    261.9 1.208e+04 1.396e-09
 68.12335    261.8 1.202e+04 1.387e-09
 68.14607    262.1 1.204e+04 1.448e-09
 68.16697    262.5 1.206e+04 1.544e-09
 68.19928    262.6 1.206e+04 1.569e-09
 68.24107    262.7 1.202e+04 1.530e-09
 68.26473    262.9 1.193e+04 1.366e-09
 68.28563    263.3 1.197e+04 1.640e-09
 68.32466    263.7 1.187e+04 1.431e-09
 68.36249    264.2 1.178e+04 1.230e-09
 68.38338    264.7 1.183e+04 1.543e-09
 68.40825    265.2 1.181e+04 1.450e-09
 68.45005    265.7 1.181e+04 1.443e-09
 68.48114    266.2 1.182e+04 1.450e-09
 68.50204    266.3 1.186e+04 1.778e-09
 68.53364    266.6 1.186e+04 1.795e-09
 68.57544    266.9 1.187e+04 1.889e-09
 68.59980    267.0 1.192e+04 2.201e-09
 68.62069    267.1 1.194e+04 2.479e-09
 68.65903    267.1 1.211e+04 3.046e-09
 68.68014    266.6 1.241e+04 4.123e-09
 68.69777    266.0 1.248e+04 4.071e-09
 68.71845    265.2 1.253e+04 4.192e-09
 68.74262    264.0 1.276e+04 5.407e-09
 68.78441    262.4 1.296e+04 6.815e-09
 68.81621    260.1 1.318e+04 7.737e-09
 68.83711    257.9 1.290e+04 6.665e-09
 68.86800    254.2 1.290e+04 6.689e-09
 68.90980    249.9 1.286e+04 6.443e-09
 68.93486    245.7 1.265e+04 5.390e-09
 68.95576    245.0 1.265e+04 5.524e-09
 68.99339    241.4 1.226e+04 3.987e-09
 69.03262    238.3 1.176e+04 3.190e-09
 69.05352    237.8 1.191e+04 3.893e-09
 69.07698    235.4 1.184e+04 3.989e-09
 69.11878    233.4 1.174e+04 4.619e-09
 69.15128    231.6 1.176e+04 5.787e-09
 69.17217    231.1 1.192e+04 6.384e-09
 69.20237    229.0 1.194e+04 6.539e-09
 69.23693    226.5 1.188e+04 6.298e-09
 69.25782    225.5 1.191e+04 6.472e-09
 69.26993    223.2 1.163e+04 4.965e-09
 69.29083    223.0 1.151e+04 4.317e-09
 69.32775    221.0 1.127e+04 2.642e-09
 69.36769    219.3 1.098e+04 1.512e-09
 69.38859    219.4 1.089e+04 1.438e-09
 69.41135    218.3 1.045e+04 1.051e-09
 69.45314    218.0 1.029e+04 1.033e-09
 69.48634    217.8 1.028e+04 1.037e-09
 69.50724    218.0 1.031e+04 9.349e-10
 69.53673    217.9 1.028e+04 9.569e-10
 69.57853    217.9 1.022e+04 1.048e-09
 69.60500    217.9 1.020e+04 1.212e-09
 69.62590    217.9 1.026e+04 1.004e-09
 69.66212    217.8 1.023e+04 1.126e-09
 69.70276    217.8 1.019e+04 1.263e-09
 69.72365    217.9 1.018e+04 1.009e-09
 69.74571    218.1 1.011e+04 1.124e-09
 69.78750    218.5 1.006e+04 1.324e-09
 69.81461    218.6 1.006e+04 1.670e-09
 69.82762    218.2 1.014e+04 1.776e-09
 69.84231    218.6 1.018e+04 1.728e-09
 69.87110    218.5 1.033e+04 2.593e-09
 69.91289    218.2 1.060e+04 3.970e-09
 69.94006    217.2 1.100e+04 5.750e-09
 69.96096    217.4 1.120e+04 6.581e-09
 69.99648    215.2 1.167e+04 8.312e-09
 70.03782    212.1 1.181e+04 8.387e-09
 70.05872    212.0 1.201e+04 8.641e-09
 70.08007    208.7 1.193e+04 7.973e-09
 70.12187    206.0 1.156e+04 6.153e-09
 70.15648    204.4 1.109e+04 4.266e-09
 70.17737    204.3 1.107e+04 3.996e-09
 70.20546    203.5 1.072e+04 2.826e-09
 70.24725    203.1 1.060e+04 2.368e-09
 70.27513    203.0 1.058e+04 2.354e-09
 70.29603    203.2 1.065e+04 2.429e-09
 70.33084    203.2 1.066e+04 2.444e-09
 70.37140    203.3 1.073e+04 2.573e-09
 70.39230    202.5 1.078e+04 2.716e-09
 70.39379    202.3 1.098e+04 3.118e-09
 70.41468    201.9 1.101e+04 2.738e-09
 70.45623    201.4 1.122e+04 2.822e-09
 70.49154    200.4 1.127e+04 2.756e-09
 70.51244    200.0 1.124e+04 2.097e-09
 70.53982    199.1 1.128e+04 1.897e-09
 70.58162    198.5 1.124e+04 1.584e-09
 70.61020    198.1 1.118e+04 1.310e-09
 70.63110    198.1 1.117e+04 1.447e-09
 70.66521    198.0 1.119e+04 1.456e-09
 70.70700    197.9 1.124e+04 1.501e-09
 70.72885    197.8 1.134e+04 1.535e-09
 70.74975    197.7 1.148e+04 2.132e-09
 70.79059    197.4 1.154e+04 2.086e-09
 70.82661    197.1 1.161e+04 2.000e-09
 70.84751    196.7 1.174e+04 2.551e-09
 70.87419    196.1 1.178e+04 2.417e-09
 70.91598    195.3 1.181e+04 2.360e-09
 70.94527    194.4 1.186e+04 2.338e-09
 70.95747    193.4 1.207e+04 2.372e-09
 70.96998    193.0 1.203e+04 2.273e-09
 70.99957    192.1 1.205e+04 2.273e-09
 71.04137    191.0 1.204e+04 2.205e-09
 71.06392    190.1 1.197e+04 1.943e-09
 71.08482    189.2 1.197e+04 1.885e-09
 71.12496    188.7 1.187e+04 1.420e-09
 71.16168    188.2 1.182e+04 9.648e-10
 71.18258    187.6 1.182e+04 9.118e-10
 71.20855    187.2 1.183e+04 6.246e-10
 71.25034    187.0 1.179e+04 4.588e-10
 71.28033    186.8 1.148e+04 4.219e-10
 71.30123    186.5 1.165e+04 4.851e-10
 71.33394    186.7 1.164e+04 4.854e-10
 71.37573    186.9 1.163e+04 4.944e-10
 71.39899    187.1 1.165e+04 5.352e-10
 71.41989    186.5 1.167e+04 7.662e-10
 71.45932    186.5 1.168e+04 8.533e-10
 71.49675    186.5 1.170e+04 9.410e-10
 71.51764    185.7 1.173e+04 1.180e-09
 71.52677    185.6 1.176e+04 1.202e-09
 71.54767    185.2 1.185e+04 1.384e-09
 71.58471    185.1 1.193e+04 1.318e-09
 71.61540    185.0 1.196e+04 1.312e-09
 71.63630    183.9 1.207e+04 1.540e-09
 71.66830    183.8 1.215e+04 1.574e-09
 71.71009    183.8 1.224e+04 1.608e-09
 71.73406    183.7 1.232e+04 1.633e-09
 71.75495    182.5 1.239e+04 1.643e-09
 71.79368    182.5 1.248e+04 1.659e-09
 71.83181    182.4 1.250e+04 1.737e-09
 71.85271    181.6 1.259e+04 1.676e-09
 71.87728    181.7 1.265e+04 1.635e-09
 71.91907    181.8 1.274e+04 1.527e-09
 71.95047    181.8 1.286e+04 1.374e-09
 71.97136    181.2 1.294e+04 1.195e-09
 72.00266    181.1 1.305e+04 1.146e-09
 72.04446    181.0 1.309e+04 1.163e-09
 72.06912    180.9 1.320e+04 1.263e-09
 72.08733    180.4 1.325e+04 1.394e-09
 72.10446    179.9 1.326e+04 1.216e-09
 72.12805    179.3 1.340e+04 1.587e-09
 72.16688    178.6 1.351e+04 1.982e-09
 72.18778    178.1 1.342e+04 1.979e-09
 72.20109    177.7 1.342e+04 2.608e-09
 72.22189    177.1 1.351e+04 3.851e-09
 72.23646    176.0 1.371e+04 6.202e-09
 72.24691    175.5 1.372e+04 6.428e-09
 72.26369    173.8 1.402e+04 9.932e-09
 72.28459    171.5 1.427e+04 1.262e-08
 72.29579    168.5 1.431e+04 1.278e-08
 72.30624    167.9 1.430e+04 1.236e-08
 72.32638    164.8 1.423e+04 1.160e-08
 72.34467    161.8 1.404e+04 9.737e-09
 72.35512    161.4 1.395e+04 9.036e-09
 72.36818    158.9 1.373e+04 7.346e-09
 72.38266    156.6 1.336e+04 6.611e-09
 72.39311    156.6 1.331e+04 5.914e-09
 72.40399    154.8 1.316e+04 5.905e-09
 72.41444    155.0 1.315e+04 5.940e-09
 72.43087    153.7 1.313e+04 6.049e-09
 72.45177    152.4 1.311e+04 6.680e-09
 72.46332    151.1 1.321e+04 8.383e-09
 72.47377    151.5 1.324e+04 8.568e-09
 72.49356    150.3 1.342e+04 1.099e-08
 72.51220    149.1 1.359e+04 1.399e-08
 72.52265    149.6 1.358e+04 1.313e-08
 72.53536    148.5 1.360e+04 1.471e-08
 72.55626    147.5 1.345e+04 1.520e-08
 72.57153    146.8 1.336e+04 1.521e-08
 72.58198    147.3 1.324e+04 1.128e-08
 72.59805    146.8 1.312e+04 1.121e-08
 72.61895    146.6 1.309e+04 1.145e-08
 72.63085    146.5 1.307e+04 1.257e-08
 72.64130    146.9 1.302e+04 8.140e-09
 72.66074    146.9 1.308e+04 9.334e-09
 72.67150    146.9 1.324e+04 1.158e-08
 72.68004    147.2 1.299e+04 6.331e-09
 72.69018    147.2 1.296e+04 3.835e-09
 72.70254    147.4 1.310e+04 4.257e-09
 72.72344    147.4 1.332e+04 5.272e-09
 72.73906    147.3 1.356e+04 7.684e-09
 72.74951    147.5 1.309e+04 3.789e-09
 72.76523    147.4 1.339e+04 5.535e-09
 72.78613    147.1 1.372e+04 9.929e-09
 72.79839    146.8 1.408e+04 1.875e-08
 72.80884    147.4 1.358e+04 8.190e-09
 72.82793    147.1 1.391e+04 1.530e-08
 72.84727    146.8 1.422e+04 2.512e-08
 72.85772    147.4 1.359e+04 1.295e-08
 72.86972    147.1 1.392e+04 2.084e-08
 72.89062    146.8 1.415e+04 2.624e-08
 72.90659    146.3 1.412e+04 2.581e-08
 72.91704    146.9 1.388e+04 2.215e-08
 72.93242    146.3 1.382e+04 2.134e-08
 72.94990    145.6 1.354e+04 1.809e-08
 72.96034    145.5 1.403e+04 2.417e-08
 72.96592    144.9 1.357e+04 1.861e-08
 72.97637    145.4 1.383e+04 2.237e-08
 72.99511    144.8 1.342e+04 1.619e-08
 73.01480    144.5 1.296e+04 1.115e-08
 73.02525    144.8 1.332e+04 1.536e-08
 73.04745    144.8 1.248e+04 6.853e-09
 73.07432    145.2 1.167e+04 3.335e-09
 73.09522    145.1 1.200e+04 4.985e-09
 73.13114    145.9 1.147e+04 3.241e-09
 73.17208    147.4 1.126e+04 3.011e-09
 73.19288    147.2 1.161e+04 3.984e-09
 73.20409    148.2 1.155e+04 3.924e-09
 73.22498    149.0 1.151e+04 3.882e-09
 73.23874    150.1 1.148e+04 3.835e-09
 73.24497    149.4 1.154e+04 4.212e-09
 73.25211    149.2 1.159e+04 4.308e-09
 73.26678    150.1 1.162e+04 4.270e-09
 73.28768    151.0 1.163e+04 4.275e-09
 73.30099    151.8 1.166e+04 4.298e-09
 73.31144    151.3 1.197e+04 4.600e-09
 73.32947    151.8 1.219e+04 5.026e-09
 73.34987    152.1 1.249e+04 5.799e-09
 73.36032    150.4 1.295e+04 8.555e-09
 73.37127    150.4 1.330e+04 1.177e-08
 73.39216    150.4 1.362e+04 1.657e-08
 73.40919    150.4 1.399e+04 2.282e-08
 73.41964    149.8 1.367e+04 2.686e-08
 73.43396    150.1 1.391e+04 2.970e-08
 73.45486    150.2 1.412e+04 3.073e-08
 73.46852    150.2 1.408e+04 2.998e-08
 73.47897    149.7 1.333e+04 1.383e-08
 73.49665    149.3 1.327e+04 1.071e-08
 73.51713    148.8 1.310e+04 8.207e-09
 73.52743    147.1 1.273e+04 4.025e-09
 73.52785    144.3 1.174e+04 2.016e-09
 73.53845    144.2 1.160e+04 2.102e-09
 73.55935    144.3 1.142e+04 2.382e-09
 73.57673    144.6 1.137e+04 2.778e-09
 73.58718    144.2 1.119e+04 2.500e-09
 73.60114    144.7 1.126e+04 2.889e-09
 73.62204    145.1 1.137e+04 3.287e-09
 73.63606    145.3 1.150e+04 3.612e-09
 73.64650    144.8 1.145e+04 3.046e-09
 73.66384    144.8 1.157e+04 3.248e-09
 73.68473    144.6 1.167e+04 3.324e-09
 73.69538    144.1 1.173e+04 3.358e-09
 73.70583    143.8 1.158e+04 3.028e-09
 73.72653    142.9 1.161e+04 3.131e-09
 73.74426    141.2 1.172e+04 3.510e-09
 73.75471    140.4 1.191e+04 3.633e-09
 73.76305    138.7 1.249e+04 4.082e-09
 73.77345    135.2 1.439e+04 5.651e-09
 73.77905    124.0 1.940e+04 1.975e-08
 73.78428    115.8 2.028e+04 6.857e-08
 73.79435    107.8 1.930e+04 2.948e-07
 73.80349    104.0 1.882e+04 4.924e-07
 73.80872    102.3 1.925e+04 4.263e-07
 73.81110     98.6 2.037e+04 3.525e-07
 73.81633     96.8 2.121e+04 2.788e-07
 73.82569     90.8 2.534e+04 1.288e-07
 73.83316     84.2 2.745e+04 6.485e-08
 73.83838     76.6 2.876e+04 3.614e-08
 73.85187     62.3 2.302e+04 2.039e-08
 73.86292     48.4 1.344e+04 1.784e-08
 73.87337     43.7 1.324e+04 1.635e-08
 73.89371     40.3 1.322e+04 1.785e-08
 73.91180     37.6 1.301e+04 1.852e-08
 73.92224     35.6 1.290e+04 1.895e-08
 73.93551     34.4 1.241e+04 1.714e-08
 73.95640     33.3 1.193e+04 1.426e-08
 73.97112     32.2 1.140e+04 1.150e-08
 73.98157     30.7 1.101e+04 9.505e-09
 73.99820     29.9 1.052e+04 7.915e-09
 74.01910     29.3 1.018e+04 6.874e-09
 74.03045     28.7 9.942e+03 6.374e-09
 74.04090     28.0 9.778e+03 6.066e-09
 74.06089     27.4 9.763e+03 6.110e-09
 74.07933     26.8 9.728e+03 6.394e-09
 74.08978     26.5 9.693e+03 6.374e-09
 74.09482     26.1 9.680e+03 7.111e-09
 74.10527     25.7 9.408e+03 6.215e-09
 74.12358     25.5 9.348e+03 6.219e-09
 74.13866     25.5 9.218e+03 6.002e-09
 74.14911     25.4 9.239e+03 6.089e-09
 74.16538     25.4 8.998e+03 5.305e-09
 74.18628     25.2 8.718e+03 4.432e-09
 74.19798     24.6 8.461e+03 3.509e-09
 74.20843     24.5 8.463e+03 3.431e-09
 74.22807     24.2 8.349e+03 3.163e-09
 74.25952     23.6 8.258e+03 3.039e-09
 74.29594     22.9 8.172e+03 3.041e-09
 74.31683     23.2 8.109e+03 3.000e-09
 74.34321     22.9 7.965e+03 2.855e-09
 74.37341     22.7 7.738e+03 2.487e-09
 74.39431     23.0 7.705e+03 2.393e-09
 74.41459     22.9 7.453e+03 1.952e-09
 74.43549     23.2 7.130e+03 1.456e-09
 74.46859     23.0 6.941e+03 1.144e-09
 74.51039     23.1 6.916e+03 1.106e-09
 74.53325     23.4 6.952e+03 1.137e-09
 74.55414     23.9 6.872e+03 1.021e-09
 74.59398     24.2 7.036e+03 1.145e-09
 74.63100     24.1 7.407e+03 1.570e-09
 74.65190     24.5 7.406e+03 1.526e-09
 74.67757     24.2 7.965e+03 2.449e-09
 74.71937     23.7 8.571e+03 3.615e-09
 74.74956     23.2 8.870e+03 4.188e-09
 74.75991     23.3 9.255e+03 4.965e-09
 74.77141     22.8 9.283e+03 4.953e-09
 74.79231     22.3 9.266e+03 4.795e-09
 74.80879     22.0 9.136e+03 4.307e-09
 74.81924     22.0 9.413e+03 5.020e-09
 74.83411     21.4 9.208e+03 3.830e-09
 74.85500     21.2 9.167e+03 3.580e-09
 74.86822     21.2 9.040e+03 2.925e-09
 74.88921     21.2 9.196e+03 3.040e-09
 74.92834     21.3 9.017e+03 2.375e-09
 74.95110     22.0 9.044e+03 2.085e-09
 74.96793     22.2 8.924e+03 1.888e-09
 74.98697     22.4 9.090e+03 1.922e-09
 75.01193     23.4 9.117e+03 1.921e-09
 75.05373     24.6 9.226e+03 1.945e-09
 75.08473     25.7 9.408e+03 1.961e-09
 75.10562     25.6 9.644e+03 2.295e-09
 75.13732     26.9 9.807e+03 2.418e-09
 75.17911     28.1 9.885e+03 2.561e-09
 75.20338     29.4 9.932e+03 2.846e-09
 75.22428     29.1 9.965e+03 3.145e-09
 75.26271     30.1 9.870e+03 3.463e-09
 75.29395     30.8 9.704e+03 3.602e-09
 75.31139     31.4 9.610e+03 3.822e-09
 75.32194     30.9 9.490e+03 3.173e-09
 75.33575     31.7 9.413e+03 3.429e-09
 75.35655     32.5 9.416e+03 3.826e-09
 75.37072     33.1 9.493e+03 4.357e-09
 75.38117     32.5 9.272e+03 3.611e-09
 75.39835     33.0 9.406e+03 4.272e-09
 75.41924     33.4 9.600e+03 5.044e-09
 75.43005     33.6 9.808e+03 5.925e-09
 75.44049     33.1 9.730e+03 5.705e-09
 75.46104     33.3 9.949e+03 6.785e-09
 75.47892     33.6 1.011e+04 7.680e-09
 75.48937     33.1 1.006e+04 7.334e-09
 75.50283     33.3 1.007e+04 7.333e-09
 75.51814     33.5 1.002e+04 7.093e-09
 75.52859     33.9 1.006e+04 7.185e-09
 75.53825     34.1 9.901e+03 6.551e-09
 75.54870     33.3 9.752e+03 6.023e-09
 75.56553     33.3 9.598e+03 5.593e-09
 75.58643     33.3 9.540e+03 5.516e-09
 75.59758     33.2 9.575e+03 5.701e-09
 75.60803     32.3 9.691e+03 6.131e-09
 75.62822     32.4 9.862e+03 6.857e-09
 75.64646     32.5 1.009e+04 7.794e-09
 75.65691     31.6 1.019e+04 7.935e-09
 75.67002     31.5 1.039e+04 8.694e-09
 75.69091     30.8 1.082e+04 9.955e-09
 75.70579     26.1 1.317e+04 1.612e-08
 75.71623     20.5 1.490e+04 2.441e-08
 75.73271     12.5 1.730e+04 7.844e-08
 75.75361      7.2 1.731e+04 1.071e-07
 75.76511      3.5 1.672e+04 8.189e-08
 75.77556      1.0 1.602e+04 5.251e-08
 75.79540     -7.7 1.527e+04 2.563e-08
 75.80698    -22.4 1.617e+04 3.449e-08
 75.81512    -25.1 1.646e+04 4.205e-08
 75.82444    -26.9 1.559e+04 4.233e-08
 75.83720    -29.6 1.523e+04 6.978e-08
 75.85810    -30.1 1.467e+04 5.661e-08
 75.87332    -32.6 1.381e+04 3.067e-08
 75.88377    -34.9 1.258e+04 1.888e-08
 75.89989    -41.5 1.031e+04 8.237e-09
 75.92079    -47.8 9.049e+03 5.227e-09
 75.93265    -59.9 1.644e+04 6.268e-09
 75.94310    -65.0 1.898e+04 7.488e-09
 75.96258    -86.9 2.253e+04 6.966e-08
 75.97821    -95.2 2.163e+04 1.915e-07
 75.98665   -101.6 2.167e+04 2.468e-07
 75.99188   -102.7 2.137e+04 2.377e-07
 75.99906   -110.7 1.968e+04 1.441e-07
 76.00951   -119.2 1.735e+04 3.220e-08
 76.02523   -128.0 1.345e+04 9.866e-09
 76.04085   -134.9 1.062e+04 4.484e-09
 76.05130   -134.9 1.014e+04 3.984e-09
 76.06707   -138.6 8.867e+03 2.795e-09
 76.08538   -139.4 8.832e+03 2.724e-09
 76.09582   -139.0 8.822e+03 2.719e-09
 76.10018   -139.5 8.856e+03 2.703e-09
 76.11063   -138.7 8.803e+03 2.587e-09
 76.12977   -139.4 8.963e+03 2.683e-09
 76.14906   -140.3 9.161e+03 2.991e-09
 76.15951   -139.5 9.079e+03 2.762e-09
 76.18211   -141.4 9.438e+03 3.656e-09
 76.20858   -143.5 1.036e+04 6.553e-09
 76.22948   -141.8 1.003e+04 5.347e-09
 76.26580   -143.8 1.062e+04 8.066e-09
 76.30634   -145.8 1.086e+04 9.082e-09
 76.32724   -143.9 1.056e+04 7.672e-09
 76.34939   -145.7 1.058e+04 7.663e-09
 76.39118   -147.2 1.043e+04 6.112e-09
 76.42499   -148.2 1.014e+04 4.060e-09
 76.44589   -146.2 1.013e+04 4.061e-09
 76.47477   -146.8 9.981e+03 2.857e-09
 76.51657   -147.0 9.987e+03 2.510e-09
 76.54365   -147.2 1.001e+04 2.461e-09
 76.56455   -145.4 1.000e+04 2.379e-09
 76.60016   -145.3 1.018e+04 2.415e-09
 76.64141   -145.0 1.045e+04 2.622e-09
 76.66230   -143.4 1.040e+04 2.430e-09
 76.66316   -143.2 1.057e+04 2.630e-09
 76.68406   -142.9 1.059e+04 2.616e-09
 76.71108   -143.1 1.077e+04 2.966e-09
 76.72144   -141.9 1.069e+04 2.859e-09
 76.73580   -142.1 1.082e+04 3.091e-09
 76.75670   -142.5 1.093e+04 3.556e-09
 76.77031   -142.7 1.103e+04 4.062e-09
 76.78076   -141.4 1.099e+04 3.978e-09
 76.79849   -141.5 1.112e+04 4.587e-09
 76.81919   -141.5 1.126e+04 5.125e-09
 76.82964   -140.3 1.130e+04 5.229e-09
 76.84029   -140.2 1.144e+04 5.676e-09
 76.86119   -140.2 1.147e+04 5.772e-09
 76.87852   -140.1 1.134e+04 5.604e-09
 76.88897   -139.0 1.162e+04 6.631e-09
 76.90298   -138.8 1.140e+04 5.621e-09
 76.92388   -138.7 1.105e+04 4.159e-09
 76.93785   -138.8 1.069e+04 3.032e-09
 76.94498   -137.8 1.099e+04 3.666e-09
 76.95190   -137.4 1.128e+04 4.157e-09
 76.96567   -137.7 1.088e+04 2.799e-09
 76.98657   -138.1 1.059e+04 2.149e-09
 76.99718   -138.5 1.048e+04 1.997e-09
 77.00762   -137.9 1.053e+04 2.168e-09
 77.02837   -138.3 1.051e+04 2.095e-09
 77.04605   -138.7 1.054e+04 2.083e-09
 77.05650   -139.0 1.070e+04 2.785e-09
 77.07016   -139.8 1.095e+04 3.231e-09
 77.09106   -140.6 1.116e+04 3.878e-09
 77.10538   -141.4 1.133e+04 4.641e-09
 77.11583   -141.7 1.156e+04 6.035e-09
 77.13286   -142.4 1.168e+04 6.675e-09
 77.15375   -143.2 1.173e+04 7.120e-09
 77.16471   -143.9 1.172e+04 7.299e-09
 77.17516   -144.2 1.181e+04 7.852e-09
 77.19555   -144.7 1.164e+04 7.579e-09
 77.21359   -145.0 1.145e+04 7.124e-09
 77.22404   -145.1 1.139e+04 7.094e-09
 77.23030   -145.2 1.117e+04 6.273e-09
 77.24075   -145.0 1.124e+04 6.232e-09
 77.25824   -144.8 1.100e+04 5.276e-09
 77.27291   -144.3 1.076e+04 4.225e-09
 77.28336   -144.1 1.068e+04 4.017e-09
 77.30004   -143.4 1.049e+04 3.181e-09
 77.32094   -143.0 1.043e+04 2.748e-09
 77.33234   -142.8 1.038e+04 2.427e-09
 77.35334   -142.3 1.031e+04 2.376e-09
 77.39427   -141.0 1.008e+04 1.802e-09
 77.43019   -139.3 9.882e+03 1.425e-09
 77.45109   -138.4 9.862e+03 1.413e-09
 77.47786   -136.4 9.802e+03 1.188e-09
 77.51966   -134.4 9.820e+03 1.117e-09
 77.54885   -132.4 9.832e+03 1.108e-09
 77.56975   -131.3 9.872e+03 1.119e-09
 77.60325   -129.7 1.011e+04 1.194e-09
 77.64505   -128.5 1.045e+04 1.780e-09
 77.66750   -127.4 1.072e+04 2.831e-09
 77.68840   -126.6 1.082e+04 3.147e-09
 77.72864   -125.8 1.104e+04 4.470e-09
 77.76526   -125.3 1.111e+04 5.139e-09
 77.78616   -124.5 1.121e+04 5.512e-09
 77.79773   -124.2 1.122e+04 5.686e-09
 77.81863   -123.8 1.138e+04 5.910e-09
 77.85402   -123.3 1.125e+04 5.556e-09
 77.88392   -122.1 1.097e+04 4.321e-09
 77.90481   -121.4 1.093e+04 4.316e-09
 77.93761   -119.9 1.078e+04 3.279e-09
 77.97941   -118.4 1.075e+04 2.749e-09
 78.00257   -116.8 1.075e+04 2.605e-09
 78.02347   -116.2 1.077e+04 2.491e-09
 78.06300   -114.7 1.079e+04 2.484e-09
 78.10033   -113.6 1.103e+04 2.866e-09
 78.12123   -113.2 1.123e+04 3.009e-09
 78.14659   -112.7 1.156e+04 4.133e-09
 78.18839   -112.7 1.189e+04 5.622e-09
 78.21898   -114.1 1.234e+04 7.795e-09
 78.22933   -114.0 1.236e+04 8.506e-09
 78.24043   -115.5 1.279e+04 9.855e-09
 78.26133   -118.4 1.380e+04 1.421e-08
 78.27812   -121.8 1.480e+04 2.580e-08
 78.28856   -124.9 1.596e+04 5.589e-08
 78.30313   -127.3 1.609e+04 6.766e-08
 78.32403   -129.3 1.578e+04 6.275e-08
 78.33744   -130.8 1.501e+04 3.824e-08
 78.34789   -133.0 1.487e+04 2.996e-08
 78.36477   -134.9 1.404e+04 1.344e-08
 78.37522   -134.6 1.412e+04 1.322e-08
 78.38632   -136.3 1.398e+04 8.227e-09
 78.39677   -137.9 1.398e+04 8.573e-09
 78.40762   -138.4 1.398e+04 8.474e-09
 78.42851   -138.8 1.406e+04 8.886e-09
 78.44565   -139.0 1.408e+04 9.318e-09
 78.45610   -139.6 1.415e+04 1.075e-08
 78.47031   -139.7 1.414e+04 1.082e-08
 78.49121   -139.7 1.398e+04 9.731e-09
 78.50498   -139.6 1.379e+04 7.512e-09
 78.51543   -140.1 1.378e+04 7.548e-09
 78.53300   -139.9 1.363e+04 5.591e-09
 78.55386   -139.5 1.352e+04 4.234e-09
 78.57475   -139.3 1.344e+04 3.465e-09
 78.59570   -138.7 1.339e+04 2.968e-09
 78.61318   -138.1 1.341e+04 2.681e-09
 78.62363   -138.7 1.358e+04 3.420e-09
 78.63749   -138.3 1.362e+04 3.452e-09
 78.65362   -138.2 1.378e+04 3.631e-09
 78.66407   -138.1 1.371e+04 3.665e-09
 78.67251   -138.1 1.377e+04 4.175e-09
 78.68296   -138.9 1.391e+04 7.209e-09
 78.70018   -138.9 1.393e+04 8.240e-09
 78.72108   -139.0 1.394e+04 9.838e-09
 78.73184   -139.3 1.398e+04 1.198e-08
 78.74229   -140.0 1.425e+04 1.507e-08
 78.76288   -140.5 1.416e+04 1.541e-08
 78.78072   -141.1 1.405e+04 1.543e-08
 78.79117   -141.7 1.425e+04 1.757e-08
 78.80467   -142.0 1.396e+04 1.557e-08
 78.82557   -142.2 1.368e+04 1.350e-08
 78.84004   -142.3 1.345e+04 1.075e-08
 78.85049   -142.3 1.359e+04 1.081e-08
 78.86737   -142.4 1.327e+04 7.832e-09
 78.88826   -142.6 1.310e+04 5.627e-09
 78.89937   -142.8 1.291e+04 4.237e-09
 78.90982   -142.7 1.294e+04 4.192e-09
 78.93006   -143.1 1.276e+04 3.329e-09
 78.94246   -143.3 1.261e+04 2.855e-09
 78.95020   -142.5 1.269e+04 3.105e-09
 78.95870   -142.5 1.305e+04 3.193e-09
 78.97186   -142.8 1.271e+04 2.772e-09
 78.99275   -143.0 1.251e+04 2.565e-09
 79.00758   -143.2 1.246e+04 2.450e-09
 79.01803   -143.6 1.296e+04 2.513e-09
 79.03455   -143.6 1.271e+04 2.432e-09
 79.05545   -143.7 1.267e+04 2.420e-09
 79.06690   -143.9 1.267e+04 2.463e-09
 79.07735   -144.8 1.329e+04 4.126e-09
 79.09724   -145.1 1.323e+04 4.616e-09
 79.11578   -145.4 1.318e+04 5.252e-09
 79.12623   -146.0 1.354e+04 9.131e-09
 79.13904   -146.2 1.341e+04 9.115e-09
 79.15993   -146.4 1.337e+04 9.073e-09
 79.17511   -146.8 1.338e+04 8.979e-09
 79.18556   -147.9 1.389e+04 1.232e-08
 79.20173   -149.8 1.446e+04 1.399e-08
 79.22085   -152.4 1.515e+04 2.013e-08
 79.23130   -152.9 1.544e+04 2.971e-08
 79.23444   -155.4 1.595e+04 4.533e-08
 79.24489   -156.9 1.623e+04 6.314e-08
 79.26442   -158.9 1.631e+04 7.012e-08
 79.28332   -160.5 1.614e+04 6.686e-08
 79.29377   -161.8 1.517e+04 3.459e-08
 79.30622   -163.6 1.440e+04 1.803e-08
 79.32712   -165.6 1.366e+04 9.855e-09
 79.34264   -167.2 1.314e+04 6.785e-09
 79.35309   -168.1 1.252e+04 4.541e-09
 79.36891   -168.4 1.244e+04 4.386e-09
 79.38981   -168.5 1.243e+04 4.357e-09
 79.40197   -168.5 1.245e+04 4.429e-09
 79.41242   -168.3 1.229e+04 3.656e-09
 79.43160   -168.1 1.234e+04 3.790e-09
 79.45085   -168.0 1.239e+04 4.072e-09
 79.46130   -167.7 1.224e+04 3.200e-09
 79.47340   -167.7 1.225e+04 3.444e-09
 79.49430   -167.7 1.224e+04 3.919e-09
 79.50970   -167.7 1.224e+04 4.694e-09
 79.51513   -167.3 1.207e+04 3.388e-09
 79.52063   -166.8 1.195e+04 2.600e-09
 79.53609   -166.8 1.190e+04 3.170e-09
 79.55699   -166.8 1.191e+04 3.985e-09
 79.56951   -166.7 1.199e+04 5.013e-09
 79.57995   -166.1 1.182e+04 3.757e-09
 79.59879   -165.9 1.188e+04 4.713e-09
 79.61838   -165.6 1.196e+04 5.575e-09
 79.62883   -165.1 1.180e+04 4.403e-09
 79.64058   -164.7 1.187e+04 5.173e-09
 79.66148   -164.2 1.195e+04 5.738e-09
 79.67771   -163.7 1.203e+04 6.057e-09
 79.68816   -163.2 1.192e+04 5.363e-09
 79.70328   -162.7 1.199e+04 5.623e-09
 79.72417   -162.1 1.202e+04 5.699e-09
 79.73704   -161.6 1.208e+04 5.557e-09
 79.74749   -161.1 1.201e+04 5.309e-09
 79.76597   -160.5 1.210e+04 5.320e-09
 79.78592   -160.1 1.222e+04 5.290e-09
 79.79637   -159.7 1.224e+04 5.106e-09
 79.79854   -159.5 1.243e+04 5.650e-09
 79.80899   -158.9 1.240e+04 5.647e-09
 79.82866   -158.7 1.264e+04 6.777e-09
 79.84524   -158.7 1.293e+04 8.913e-09
 79.85569   -158.6 1.298e+04 9.119e-09
 79.87046   -158.6 1.339e+04 1.259e-08
 79.89135   -158.7 1.383e+04 1.681e-08
 79.90457   -159.5 1.412e+04 2.013e-08
 79.91502   -159.7 1.395e+04 1.960e-08
 79.93315   -160.6 1.395e+04 2.038e-08
 79.95345   -161.1 1.383e+04 2.024e-08
 79.96390   -161.1 1.356e+04 1.775e-08
 79.97495   -161.2 1.332e+04 1.649e-08
 79.99584   -161.2 1.312e+04 1.407e-08
 80.01278   -161.1 1.297e+04 1.135e-08
 80.02323   -160.9 1.285e+04 1.144e-08
 80.03764   -160.6 1.273e+04 9.453e-09
 80.05854   -160.4 1.260e+04 7.742e-09
 80.07211   -160.0 1.249e+04 6.407e-09
 80.08006   -159.7 1.248e+04 7.174e-09
 80.08738   -159.5 1.249e+04 7.964e-09
 80.10033   -159.3 1.245e+04 7.253e-09
 80.12098   -159.0 1.245e+04 6.854e-09
 80.13143   -158.7 1.248e+04 7.501e-09
 80.14213   -158.4 1.250e+04 7.337e-09
 80.16302   -158.3 1.251e+04 7.306e-09
 80.18031   -158.3 1.249e+04 7.360e-09
 80.19076   -158.2 1.251e+04 7.910e-09
 80.20482   -158.4 1.245e+04 7.972e-09
 80.22572   -158.6 1.239e+04 8.147e-09
 80.23964   -158.9 1.233e+04 8.370e-09
 80.25009   -158.9 1.235e+04 8.494e-09
 80.26751   -159.1 1.230e+04 8.596e-09
 80.28841   -159.4 1.228e+04 8.795e-09
 80.31986   -159.8 1.227e+04 8.998e-09
 80.34794   -160.1 1.256e+04 1.157e-08
 80.35829   -160.7 1.260e+04 1.166e-08
 80.36578   -160.9 1.291e+04 1.415e-08
 80.37623   -160.6 1.265e+04 1.207e-08
 80.39290   -160.9 1.309e+04 1.617e-08
 80.40717   -161.2 1.359e+04 2.222e-08
 80.41762   -161.2 1.317e+04 1.659e-08
 80.43470   -161.7 1.338e+04 1.979e-08
 80.45559   -162.3 1.339e+04 2.062e-08
 80.46650   -162.8 1.327e+04 2.035e-08
 80.47695   -162.7 1.281e+04 1.429e-08
 80.49739   -163.1 1.257e+04 1.280e-08
 80.51538   -163.5 1.232e+04 1.134e-08
 80.52583   -163.4 1.208e+04 8.969e-09
 80.53918   -163.9 1.195e+04 8.550e-09
 80.56008   -164.3 1.181e+04 8.247e-09
 80.57471   -164.7 1.166e+04 7.855e-09
 80.58516   -164.6 1.157e+04 7.122e-09
 80.60188   -165.0 1.138e+04 6.528e-09
 80.62277   -165.3 1.117e+04 5.583e-09
 80.63403   -165.5 1.094e+04 4.542e-09
 80.64448   -165.2 1.083e+04 4.096e-09
 80.65462   -165.3 1.060e+04 3.281e-09
 80.66507   -164.9 1.070e+04 3.736e-09
 80.68291   -164.9 1.050e+04 2.979e-09
 80.69336   -164.7 1.045e+04 2.850e-09
 80.70637   -164.6 1.033e+04 2.553e-09
 80.73781   -164.6 1.019e+04 2.371e-09
 80.77970   -164.7 9.917e+03 2.023e-09
 80.80176   -164.6 9.691e+03 1.792e-09
 80.82266   -164.0 9.672e+03 1.755e-09
 80.86329   -163.6 9.540e+03 1.594e-09
 80.89952   -162.9 9.482e+03 1.545e-09
 80.92042   -162.6 9.529e+03 1.559e-09
 80.94688   -161.7 9.505e+03 1.540e-09
 80.98868   -160.9 9.498e+03 1.591e-09
 81.01817   -160.3 9.662e+03 2.024e-09
 81.03907   -160.6 9.999e+03 2.600e-09
 81.07227   -160.3 1.011e+04 3.276e-09
 81.11407   -160.4 1.019e+04 3.860e-09
 81.13683   -160.6 1.019e+04 4.167e-09
 81.15773   -161.4 1.040e+04 5.025e-09
 81.19766   -161.6 1.015e+04 4.452e-09
 81.22205   -161.3 9.982e+03 4.042e-09
 81.23809   -161.5 9.812e+03 3.982e-09
 81.25548   -161.7 9.850e+03 4.084e-09
 81.28125   -161.0 9.606e+03 3.429e-09
 81.32304   -160.6 9.562e+03 3.329e-09
 81.35324   -160.7 9.772e+03 4.128e-09
 81.37414   -160.7 9.975e+03 4.117e-09
 81.40663   -161.8 1.078e+04 7.008e-09
 81.44843   -162.7 1.142e+04 1.131e-08
 81.47180   -163.8 1.206e+04 1.669e-08
 81.48215   -164.2 1.247e+04 2.099e-08
 81.50025   -164.6 1.242e+04 2.108e-08
 81.51070   -163.5 1.199e+04 1.627e-08
 81.52058   -163.8 1.188e+04 1.624e-08
 81.53103   -164.1 1.197e+04 1.787e-08
 81.54227   -164.1 1.161e+04 1.389e-08
 81.56317   -164.1 1.117e+04 1.034e-08
 81.57991   -164.0 1.089e+04 8.061e-09
 81.59036   -164.4 1.076e+04 7.107e-09
 81.60497   -164.0 1.043e+04 5.129e-09
 81.62586   -163.2 1.017e+04 3.776e-09
 81.63923   -162.3 1.007e+04 3.018e-09
 81.64968   -162.2 1.006e+04 2.763e-09
 81.66766   -161.6 1.005e+04 2.525e-09
 81.68821   -161.0 1.005e+04 2.380e-09
 81.70921   -160.9 1.005e+04 2.212e-09
 81.74100   -159.0 9.966e+03 2.085e-09
 81.77884   -156.8 9.947e+03 2.058e-09
 81.79974   -156.1 9.936e+03 2.065e-09
 81.80696   -153.9 9.939e+03 2.055e-09
 81.82786   -153.4 9.987e+03 1.923e-09
 81.86638   -151.4 1.017e+04 1.994e-09
 81.90472   -150.3 1.074e+04 2.745e-09
 81.92562   -150.3 1.127e+04 3.391e-09
 81.94997   -149.7 1.209e+04 7.139e-09
 81.97440   -149.5 1.229e+04 8.759e-09
 81.98475   -149.5 1.269e+04 1.229e-08
 82.00202   -149.2 1.320e+04 1.676e-08
 82.02292   -149.4 1.365e+04 2.149e-08
 82.03363   -150.3 1.379e+04 2.387e-08
 82.04408   -150.0 1.470e+04 3.583e-08
 82.06472   -150.8 1.470e+04 3.611e-08
 82.07794   -151.3 1.425e+04 3.126e-08
 82.08528   -150.7 1.488e+04 4.052e-08
 82.09296   -150.4 1.557e+04 5.910e-08
 82.10651   -150.3 1.493e+04 4.302e-08
 82.12741   -150.0 1.412e+04 2.790e-08
 82.14184   -149.5 1.324e+04 1.749e-08
 82.15228   -148.9 1.416e+04 2.876e-08
 82.16921   -148.2 1.354e+04 1.942e-08
 82.19010   -147.3 1.284e+04 1.243e-08
 82.20116   -146.3 1.202e+04 7.602e-09
 82.21161   -145.8 1.357e+04 1.701e-08
 82.23190   -144.7 1.316e+04 1.122e-08
 82.25004   -143.7 1.268e+04 7.026e-09
 82.26049   -143.4 1.425e+04 2.159e-08
 82.27369   -142.5 1.408e+04 1.649e-08
 82.29459   -141.4 1.378e+04 1.251e-08
 82.30937   -140.2 1.337e+04 9.680e-09
 82.31982   -140.4 1.499e+04 3.439e-08
 82.33639   -139.4 1.476e+04 2.895e-08
 82.35633   -138.3 1.444e+04 2.319e-08
 82.36678   -137.8 1.507e+04 3.887e-08
 82.36870   -136.5 1.486e+04 3.271e-08
 82.37915   -137.3 1.595e+04 6.635e-08
 82.39908   -136.3 1.575e+04 5.819e-08
 82.41758   -135.2 1.551e+04 4.993e-08
 82.42802   -136.3 1.592e+04 6.244e-08
 82.44088   -135.3 1.580e+04 5.672e-08
 82.46177   -134.2 1.573e+04 5.271e-08
 82.47690   -133.1 1.570e+04 4.936e-08
 82.48735   -134.5 1.569e+04 5.093e-08
 82.50357   -133.6 1.568e+04 4.796e-08
 82.52447   -132.6 1.560e+04 4.424e-08
 82.53623   -131.8 1.550e+04 4.060e-08
 82.54668   -133.6 1.467e+04 2.965e-08
 82.56626   -133.2 1.444e+04 2.501e-08
 82.58511   -133.0 1.427e+04 2.272e-08
 82.59556   -134.6 1.328e+04 1.688e-08
 82.60806   -134.9 1.321e+04 1.600e-08
 82.62896   -135.6 1.329e+04 1.729e-08
 82.64444   -136.2 1.370e+04 2.240e-08
 82.65021   -136.6 1.294e+04 1.661e-08
 82.65563   -135.2 1.315e+04 1.653e-08
 82.67075   -136.1 1.337e+04 2.170e-08
 82.69165   -136.8 1.393e+04 2.884e-08
 82.70376   -137.6 1.457e+04 3.591e-08
 82.71421   -138.4 1.391e+04 2.835e-08
 82.73344   -139.7 1.422e+04 2.949e-08
 82.75264   -141.3 1.437e+04 2.916e-08
 82.76309   -142.1 1.392e+04 2.581e-08
 82.77524   -143.8 1.363e+04 2.056e-08
 82.79614   -145.5 1.325e+04 1.723e-08
 82.81197   -147.1 1.299e+04 1.639e-08
 82.82242   -147.4 1.272e+04 1.455e-08
 82.83793   -148.8 1.263e+04 1.452e-08
 82.85883   -150.3 1.252e+04 1.614e-08
 82.87130   -151.7 1.253e+04 1.800e-08
 82.88175   -151.4 1.234e+04 1.684e-08
 82.90063   -152.7 1.227e+04 1.758e-08
 82.92018   -153.8 1.222e+04 1.772e-08
 82.93062   -153.3 1.214e+04 1.700e-08
 82.93402   -153.9 1.172e+04 1.650e-08
 82.94447   -154.0 1.178e+04 1.440e-08
 82.96332   -154.4 1.136e+04 1.420e-08
 82.97950   -154.3 1.099e+04 1.217e-08
 82.98995   -153.8 1.097e+04 1.209e-08
 83.00511   -153.6 1.056e+04 9.943e-09
 83.02601   -153.3 1.013e+04 7.545e-09
 83.03883   -152.7 9.682e+03 5.403e-09
 83.04928   -152.4 9.772e+03 5.921e-09
 83.06781   -151.7 9.410e+03 4.199e-09
 83.08771   -151.1 9.143e+03 2.942e-09
 83.09816   -151.0 9.237e+03 3.495e-09
 83.10960   -150.5 8.997e+03 2.548e-09
 83.13050   -150.1 8.800e+03 2.191e-09
 83.14713   -149.9 8.690e+03 2.155e-09
 83.15758   -150.1 8.654e+03 2.165e-09
 83.17230   -149.7 8.564e+03 2.132e-09
 83.20374   -149.6 8.462e+03 2.242e-09
 83.24499   -148.6 8.364e+03 2.167e-09
 83.26589   -149.1 8.366e+03 2.592e-09
 83.28743   -148.1 8.251e+03 2.417e-09
 83.32922   -147.3 8.301e+03 2.789e-09
 83.36364   -146.8 8.462e+03 3.302e-09
 83.38454   -146.7 8.271e+03 2.985e-09
 83.41281   -146.2 8.535e+03 3.613e-09
 83.44406   -145.8 8.802e+03 4.258e-09
 83.46486   -145.6 8.792e+03 4.431e-09
 83.48210   -145.4 8.957e+03 5.207e-09
 83.49255   -145.5 9.179e+03 5.271e-09
 83.50126   -146.4 9.776e+03 7.470e-09
 83.51171   -144.9 9.009e+03 5.489e-09
 83.52756   -145.9 9.973e+03 7.770e-09
 83.54143   -147.7 1.171e+04 1.373e-08
 83.55188   -147.1 1.148e+04 1.348e-08
 83.56935   -148.8 1.352e+04 2.793e-08
 83.59025   -150.0 1.525e+04 5.822e-08
 83.61115   -149.9 1.642e+04 1.035e-07
 83.63205   -150.6 1.737e+04 1.616e-07
 83.64964   -151.8 1.772e+04 1.907e-07
 83.66009   -150.9 1.764e+04 1.861e-07
 83.67384   -152.5 1.780e+04 2.031e-07
 83.69474   -154.2 1.736e+04 1.733e-07
 83.70896   -155.6 1.651e+04 1.107e-07
 83.71941   -155.1 1.684e+04 1.305e-07
 83.73653   -156.5 1.599e+04 8.538e-08
 83.75743   -157.9 1.485e+04 4.933e-08
 83.76829   -158.9 1.380e+04 2.947e-08
 83.77874   -158.5 1.451e+04 4.254e-08
 83.79010   -159.2 1.354e+04 2.715e-08
 83.80055   -159.4 1.319e+04 2.394e-08
 83.81717   -159.8 1.233e+04 1.630e-08
 83.82762   -159.5 1.271e+04 1.877e-08
 83.84102   -159.8 1.200e+04 1.436e-08
 83.86192   -159.7 1.171e+04 1.329e-08
 83.87650   -158.8 1.159e+04 1.300e-08
 83.88695   -158.9 1.149e+04 1.144e-08
 83.90372   -158.1 1.142e+04 1.125e-08
 83.92461   -157.4 1.142e+04 1.108e-08
 83.93583   -157.0 1.147e+04 1.083e-08
 83.94627   -157.1 1.133e+04 9.680e-09
 83.96641   -156.9 1.142e+04 9.706e-09
 83.98470   -157.0 1.156e+04 9.898e-09
 83.99515   -157.0 1.154e+04 9.706e-09
 84.00820   -157.6 1.188e+04 1.125e-08
 84.02910   -159.1 1.243e+04 1.497e-08
 84.04403   -161.0 1.321e+04 2.139e-08
 84.05448   -160.3 1.289e+04 2.040e-08
 84.06849   -161.9 1.365e+04 2.674e-08
 84.07894   -161.6 1.557e+04 3.813e-08
 84.09180   -163.6 1.726e+04 7.561e-08
 84.10331   -164.2 1.771e+04 8.369e-08
 84.11376   -163.6 1.802e+04 1.001e-07
 84.12775   -165.2 1.906e+04 8.497e-08
 84.13293   -164.0 1.885e+04 8.318e-08
 84.13872   -165.2 1.965e+04 8.362e-08
 84.14917   -166.9 2.028e+04 8.021e-08
 84.15736   -168.7 2.050e+04 7.978e-08
 84.16259   -167.3 2.077e+04 7.575e-08
 84.17006   -169.6 2.069e+04 7.299e-08
 84.18051   -171.7 1.974e+04 7.447e-08
 84.18703   -173.5 1.829e+04 8.330e-08
 84.19225   -172.6 1.859e+04 8.232e-08
 84.20141   -174.0 1.763e+04 9.278e-08
 84.21152   -175.4 1.725e+04 1.004e-07
 84.22201   -173.7 1.769e+04 9.865e-08
 84.23808   -176.1 1.658e+04 1.030e-07
 84.25898   -177.3 1.617e+04 1.095e-07
 84.27089   -178.3 1.571e+04 1.035e-07
 84.28134   -177.4 1.568e+04 9.976e-08
 84.30077   -178.2 1.472e+04 7.990e-08
 84.31977   -178.4 1.374e+04 5.886e-08
 84.33022   -177.5 1.344e+04 5.284e-08
 84.34257   -177.5 1.244e+04 3.822e-08
 84.35734   -177.5 1.161e+04 2.883e-08
 84.36779   -177.0 1.157e+04 2.064e-08
 84.37910   -177.1 1.072e+04 1.657e-08
 84.38955   -176.6 1.046e+04 1.494e-08
 84.40526   -176.5 9.967e+03 1.296e-08
 84.42616   -175.6 9.648e+03 1.159e-08
 84.43843   -174.7 9.412e+03 1.042e-08
 84.44888   -174.2 9.243e+03 9.962e-09
 84.46795   -173.4 9.089e+03 9.095e-09
 84.48730   -172.6 8.948e+03 8.232e-09
 84.49775   -172.2 8.801e+03 7.981e-09
 84.50975   -171.6 8.691e+03 7.275e-09
 84.53065   -170.9 8.612e+03 6.720e-09
 84.54663   -170.3 8.574e+03 6.385e-09
 84.55708   -169.9 8.481e+03 6.322e-09
 84.57244   -169.4 8.491e+03 6.272e-09
 84.59334   -168.9 8.511e+03 6.263e-09
 84.60596   -168.4 8.535e+03 6.298e-09
 84.61641   -168.3 8.522e+03 6.320e-09
 84.63514   -167.9 8.566e+03 6.395e-09
 84.64618   -167.6 8.607e+03 6.505e-09
 84.65543   -167.5 8.377e+03 5.354e-09
 84.66529   -167.4 8.275e+03 5.174e-09
 84.67693   -167.2 8.335e+03 5.238e-09
 84.69783   -167.2 8.420e+03 5.337e-09
 84.71417   -167.4 8.535e+03 5.535e-09
 84.72461   -167.4 8.366e+03 5.033e-09
 84.73962   -167.6 8.537e+03 5.366e-09
 84.76052   -168.1 8.784e+03 6.117e-09
 84.77349   -168.7 9.108e+03 7.397e-09
 84.78394   -168.9 8.981e+03 6.784e-09
 84.80232   -169.6 9.409e+03 8.727e-09
 84.82237   -170.1 9.891e+03 1.125e-08
 84.83282   -170.6 9.797e+03 1.072e-08
 84.84411   -171.2 1.027e+04 1.350e-08
 84.86501   -171.8 1.062e+04 1.556e-08
 84.88170   -172.7 1.075e+04 1.618e-08
 84.89215   -173.5 1.046e+04 1.439e-08
 84.90681   -174.5 1.045e+04 1.435e-08
 84.92458   -175.3 1.029e+04 1.309e-08
 84.93502   -175.5 9.851e+03 1.090e-08
 84.94103   -176.1 9.597e+03 9.421e-09
 84.95148   -177.0 9.504e+03 8.828e-09
 84.96950   -177.7 9.441e+03 8.301e-09
 84.98991   -178.5 9.436e+03 8.139e-09
 85.00035   -179.9 9.600e+03 8.623e-09
 85.01129   -181.0 9.937e+03 9.507e-09
 85.03219   -182.2 1.033e+04 1.094e-08
 85.04923   -183.4 1.067e+04 1.254e-08
 85.05968   -185.0 1.108e+04 1.536e-08
 85.07399   -185.9 1.118e+04 1.599e-08
 85.09489   -186.6 1.119e+04 1.605e-08
 85.10856   -187.0 1.115e+04 1.540e-08
 85.11901   -188.3 1.111e+04 1.536e-08
 85.13668   -188.3 1.092e+04 1.336e-08
 85.15744   -188.1 1.065e+04 1.112e-08
 85.16789   -188.9 1.039e+04 9.454e-09
 85.17848   -188.4 1.015e+04 7.808e-09
 85.19937   -187.8 9.933e+03 6.468e-09
 85.21342   -187.1 9.740e+03 5.396e-09
 85.22397   -187.3 9.406e+03 5.095e-09
 85.25181   -185.3 9.082e+03 3.476e-09
 85.27629   -183.2 9.117e+03 2.982e-09
 85.29719   -184.2 9.087e+03 2.873e-09
 85.33540   -182.1 9.192e+03 2.614e-09
 85.37405   -180.2 9.259e+03 2.538e-09
 85.39494   -181.2 9.390e+03 3.159e-09
 85.41900   -179.4 9.727e+03 3.434e-09
 85.46079   -178.0 1.006e+04 4.011e-09
 85.49270   -176.7 1.038e+04 4.844e-09
 85.51360   -177.7 1.076e+04 6.766e-09
 85.54438   -176.4 1.086e+04 6.920e-09
 85.58618   -174.9 1.088e+04 6.647e-09
 85.61136   -173.2 1.084e+04 6.049e-09
 85.63225   -173.9 1.089e+04 6.070e-09
 85.66977   -171.8 1.092e+04 5.664e-09
 85.70911   -169.8 1.097e+04 5.620e-09
 85.73001   -170.8 1.104e+04 6.406e-09
 85.75336   -169.1 1.142e+04 7.559e-09
 85.78085   -167.5 1.184e+04 9.884e-09
 85.80175   -165.9 1.180e+04 8.963e-09
 85.82777   -164.5 1.221e+04 1.120e-08
 85.84867   -165.9 1.207e+04 1.150e-08
 85.87875   -164.5 1.228e+04 1.339e-08
 85.92054   -163.1 1.233e+04 1.411e-08
 85.94633   -161.9 1.205e+04 1.284e-08
 85.96722   -161.7 1.164e+04 1.017e-08
 85.99359   -160.6 1.180e+04 1.089e-08
 86.00556   -160.0 1.193e+04 1.135e-08
 86.01600   -160.2 1.157e+04 9.341e-09
 86.03528   -159.6 1.166e+04 9.631e-09
 86.05443   -159.2 1.171e+04 9.851e-09
 86.06498   -159.8 1.132e+04 7.780e-09
 86.06960   -159.1 1.139e+04 8.036e-09
 86.07995   -158.8 1.143e+04 7.777e-09
 86.09798   -158.6 1.145e+04 7.447e-09
 86.11376   -158.3 1.146e+04 7.125e-09
 86.12421   -158.5 1.119e+04 6.174e-09
 86.13977   -158.5 1.120e+04 5.988e-09
 86.16067   -158.4 1.122e+04 5.742e-09
 86.17309   -158.4 1.122e+04 5.689e-09
 86.18354   -158.2 1.099e+04 4.971e-09
 86.20246   -158.3 1.100e+04 4.950e-09
 86.22197   -158.5 1.120e+04 5.179e-09
 86.23242   -157.9 1.090e+04 4.329e-09
 86.24426   -158.2 1.112e+04 4.681e-09
 86.26516   -158.4 1.127e+04 5.392e-09
 86.28129   -158.5 1.136e+04 6.218e-09
 86.29174   -157.7 1.115e+04 4.611e-09
 86.30695   -157.7 1.119e+04 5.148e-09
 86.32785   -157.5 1.122e+04 5.536e-09
 86.34062   -157.3 1.123e+04 5.681e-09
 86.35022   -156.4 1.108e+04 4.565e-09
 86.35834   -156.6 1.116e+04 5.289e-09
 86.36965   -156.1 1.115e+04 5.338e-09
 86.38950   -155.6 1.122e+04 5.157e-09
 86.39995   -154.8 1.108e+04 4.517e-09
 86.41144   -154.4 1.115e+04 4.513e-09
 86.43234   -154.1 1.124e+04 4.517e-09
 86.44883   -153.8 1.144e+04 4.493e-09
 86.45928   -153.0 1.122e+04 4.042e-09
 86.47414   -152.8 1.149e+04 4.037e-09
 86.49503   -153.0 1.189e+04 4.681e-09
 86.50816   -153.4 1.223e+04 6.588e-09
 86.51860   -152.3 1.188e+04 4.333e-09
 86.53683   -152.8 1.221e+04 6.572e-09
 86.55703   -153.1 1.260e+04 1.046e-08
 86.56748   -152.4 1.224e+04 7.165e-09
 86.57862   -152.6 1.273e+04 1.173e-08
 86.59952   -152.8 1.330e+04 1.635e-08
 86.61636   -153.3 1.368e+04 1.846e-08
 86.62681   -152.5 1.343e+04 1.689e-08
 86.63674   -153.3 1.364e+04 1.803e-08
 86.64719   -153.0 1.336e+04 1.471e-08
 86.66221   -153.7 1.336e+04 1.471e-08
 86.67569   -154.0 1.310e+04 1.285e-08
 86.68614   -153.3 1.296e+04 1.212e-08
 86.70401   -153.3 1.271e+04 1.048e-08
 86.72457   -153.1 1.249e+04 8.756e-09
 86.73502   -152.3 1.234e+04 7.997e-09
 86.74581   -152.0 1.221e+04 6.912e-09
 86.76670   -151.5 1.207e+04 5.843e-09
 86.78390   -150.8 1.190e+04 4.828e-09
 86.79434   -150.2 1.189e+04 4.917e-09
 86.80850   -149.3 1.178e+04 4.280e-09
 86.82940   -148.5 1.171e+04 3.806e-09
 86.84322   -147.5 1.170e+04 3.511e-09
 86.85367   -147.1 1.171e+04 3.873e-09
 86.87119   -146.1 1.172e+04 3.782e-09
 86.89209   -145.3 1.174e+04 3.770e-09
 86.91299   -144.3 1.191e+04 4.208e-09
 86.92558   -143.9 1.203e+04 4.479e-09
 86.93603   -142.8 1.202e+04 4.699e-09
 86.95143   -142.5 1.210e+04 5.154e-09
 86.96188   -142.2 1.209e+04 5.826e-09
 86.97568   -141.9 1.219e+04 6.439e-09
 86.99658   -141.7 1.238e+04 7.370e-09
 87.01076   -142.4 1.280e+04 9.423e-09
 87.02121   -142.1 1.269e+04 9.960e-09
 87.03837   -143.6 1.337e+04 1.471e-08
 87.05927   -145.8 1.432e+04 2.409e-08
 87.07008   -148.6 1.526e+04 3.754e-08
 87.08053   -148.1 1.530e+04 3.956e-08
 87.10107   -152.2 1.598e+04 5.093e-08
 87.11896   -157.4 1.609e+04 5.346e-08
 87.12941   -157.1 1.610e+04 5.420e-08
 87.14286   -162.4 1.575e+04 5.214e-08
 87.16376   -167.0 1.496e+04 4.423e-08
 87.17829   -170.3 1.429e+04 3.813e-08
 87.18874   -170.8 1.472e+04 4.591e-08
 87.20397   -173.1 1.434e+04 4.278e-08
 87.21442   -173.9 1.444e+04 4.744e-08
 87.22645   -175.4 1.417e+04 4.061e-08
 87.23762   -176.7 1.389e+04 3.453e-08
 87.24807   -177.5 1.383e+04 3.523e-08
 87.26825   -178.3 1.333e+04 2.784e-08
 87.28650   -178.8 1.293e+04 2.206e-08
 87.29694   -179.0 1.250e+04 1.750e-08
 87.31004   -179.2 1.220e+04 1.371e-08
 87.33094   -179.2 1.200e+04 1.154e-08
 87.34582   -179.0 1.187e+04 1.033e-08
 87.35627   -178.8 1.147e+04 7.261e-09
 87.37274   -178.2 1.141e+04 6.864e-09
 87.39363   -177.3 1.138e+04 6.639e-09
 87.40515   -176.4 1.137e+04 6.479e-09
 87.41560   -176.1 1.106e+04 4.698e-09
 87.43543   -175.0 1.108e+04 4.715e-09
 87.45403   -173.9 1.109e+04 4.706e-09
 87.46448   -173.2 1.090e+04 3.314e-09
 87.47723   -172.3 1.092e+04 3.302e-09
 87.49282   -171.0 1.097e+04 3.262e-09
 87.50327   -171.1 1.108e+04 4.394e-09
 87.51336   -169.9 1.112e+04 4.408e-09
 87.52381   -169.5 1.096e+04 3.117e-09
 87.53992   -168.3 1.101e+04 3.132e-09
 87.56082   -167.4 1.102e+04 3.134e-09
 87.57268   -166.1 1.107e+04 3.144e-09
 87.58313   -165.6 1.099e+04 2.561e-09
 87.60261   -164.8 1.102e+04 2.558e-09
 87.62156   -163.5 1.110e+04 2.609e-09
 87.64256   -162.9 1.103e+04 2.328e-09
 87.66540   -161.2 1.110e+04 2.344e-09
 87.68089   -160.4 1.114e+04 2.495e-09
 87.69134   -160.3 1.108e+04 2.293e-09
 87.70710   -159.1 1.118e+04 2.505e-09
 87.72800   -158.6 1.122e+04 2.639e-09
 87.74022   -157.6 1.131e+04 3.004e-09
 87.75067   -157.4 1.125e+04 2.567e-09
 87.76979   -156.8 1.131e+04 2.913e-09
 87.78166   -156.0 1.142e+04 3.486e-09
 87.79051   -155.8 1.142e+04 3.681e-09
 87.79955   -155.6 1.137e+04 3.010e-09
 87.81159   -155.1 1.143e+04 3.362e-09
 87.83249   -154.2 1.156e+04 3.976e-09
 87.84842   -153.5 1.168e+04 4.523e-09
 87.85887   -153.5 1.159e+04 3.636e-09
 87.87428   -152.8 1.169e+04 4.100e-09
 87.89518   -152.3 1.178e+04 4.528e-09
 87.90775   -151.7 1.190e+04 4.831e-09
 87.91820   -151.6 1.175e+04 3.886e-09
 87.93698   -151.1 1.181e+04 3.996e-09
 87.95663   -150.6 1.185e+04 4.045e-09
 87.96708   -150.3 1.173e+04 3.221e-09
 87.97877   -149.6 1.174e+04 3.234e-09
 87.99967   -148.7 1.175e+04 3.188e-09
 88.01596   -147.8 1.177e+04 2.957e-09
 88.02641   -147.7 1.171e+04 2.630e-09
 88.04970   -146.8 1.180e+04 2.669e-09
 88.07070   -146.1 1.185e+04 2.645e-09
 88.07548   -144.8 1.188e+04 2.322e-09
 88.09638   -144.3 1.176e+04 2.247e-09
 88.13570   -142.5 1.172e+04 1.945e-09
 88.17324   -140.6 1.170e+04 1.651e-09
 88.19414   -140.0 1.164e+04 1.841e-09
 88.21929   -138.1 1.166e+04 1.589e-09
 88.26109   -136.1 1.172e+04 1.383e-09
 88.29189   -134.0 1.185e+04 1.263e-09
 88.31279   -133.5 1.179e+04 1.557e-09
 88.34468   -131.4 1.190e+04 1.483e-09
 88.38647   -129.3 1.193e+04 1.472e-09
 88.41055   -127.3 1.207e+04 1.469e-09
 88.43145   -127.1 1.206e+04 1.801e-09
 88.47006   -125.2 1.216e+04 1.821e-09
 88.50830   -123.3 1.225e+04 1.876e-09
 88.52920   -123.4 1.221e+04 2.043e-09
 88.55365   -121.9 1.234e+04 2.043e-09
 88.59545   -120.7 1.258e+04 2.162e-09
 88.62696   -119.6 1.268e+04 2.754e-09
 88.63810   -119.7 1.263e+04 2.209e-09
 88.64839   -119.6 1.262e+04 2.171e-09
 88.67904   -118.5 1.268e+04 2.749e-09
 88.72083   -117.4 1.278e+04 3.738e-09
 88.74561   -116.4 1.301e+04 4.872e-09
 88.76651   -115.9 1.282e+04 2.834e-09
 88.80443   -114.8 1.297e+04 3.638e-09
 88.84337   -113.5 1.313e+04 4.366e-09
 88.86427   -112.0 1.288e+04 2.501e-09
 88.88802   -110.5 1.289e+04 3.030e-09
 88.92981   -109.0 1.293e+04 3.554e-09
 88.96203   -107.4 1.295e+04 3.807e-09
 88.98292   -105.8 1.270e+04 2.899e-09
 89.01340   -104.2 1.264e+04 3.059e-09
 89.05520   -102.6 1.258e+04 3.068e-09
 89.08068   -100.8 1.244e+04 2.932e-09
 89.10158    -99.5 1.238e+04 2.829e-09
 89.13879    -97.8 1.229e+04 2.624e-09
 89.17844    -96.1 1.219e+04 2.431e-09
 89.19934    -95.1 1.224e+04 2.462e-09
 89.20517    -93.2 1.211e+04 2.259e-09
 89.22607    -93.3 1.214e+04 2.396e-09
 89.26418    -91.3 1.199e+04 2.082e-09
 89.29709    -89.2 1.185e+04 1.898e-09
 89.31799    -88.3 1.184e+04 1.875e-09
 89.34777    -86.3 1.168e+04 1.756e-09
 89.38956    -84.3 1.163e+04 1.745e-09
 89.41575    -82.5 1.159e+04 1.780e-09
 89.43665    -81.4 1.149e+04 1.708e-09
 89.47315    -79.6 1.144e+04 1.825e-09
 89.51351    -77.8 1.134e+04 1.888e-09
 89.53440    -76.5 1.134e+04 2.105e-09
 89.55674    -74.8 1.124e+04 2.149e-09
 89.59854    -73.1 1.092e+04 1.942e-09
 89.63216    -71.4 1.067e+04 1.516e-09
 89.65306    -70.2 1.079e+04 2.079e-09
 89.68213    -68.4 1.059e+04 1.427e-09
 89.72393    -66.7 1.039e+04 1.005e-09
 89.75082    -65.0 1.032e+04 7.747e-10
 89.76796    -63.6 1.037e+04 8.742e-10
 89.78286    -63.2 1.029e+04 9.407e-10
 89.80752    -61.2 1.018e+04 7.070e-10
 89.84857    -59.3 1.005e+04 6.320e-10
 89.86947    -57.9 1.018e+04 6.750e-10
 89.89111    -55.9 1.012e+04 6.431e-10
 89.93290    -54.1 1.025e+04 6.393e-10
 89.96723    -52.8 1.062e+04 9.144e-10
 89.98813    -51.4 1.071e+04 7.883e-10
 90.01649    -50.6 1.091e+04 1.521e-09
 90.05829    -49.7 1.105e+04 3.153e-09
 90.08588    -49.1 1.134e+04 5.438e-09
 90.10678    -48.1 1.125e+04 4.542e-09
 90.14188    -48.0 1.145e+04 6.372e-09
 90.18364    -48.5 1.151e+04 7.052e-09
 90.22544    -49.0 1.130e+04 6.352e-09
 90.26727    -49.6 1.127e+04 6.194e-09
 90.29851    -49.0 1.146e+04 6.220e-09
 90.31255    -49.4 1.167e+04 6.210e-09
 90.32300    -50.2 1.194e+04 7.579e-09
 90.33945    -51.3 1.219e+04 1.052e-08
 90.34990    -50.2 1.221e+04 1.033e-08
 90.36111    -51.3 1.259e+04 1.760e-08
 90.37188    -51.8 1.325e+04 3.014e-08
 90.38232    -51.5 1.290e+04 2.856e-08
 90.40291    -51.7 1.325e+04 3.565e-08
 90.42075    -52.2 1.334e+04 3.744e-08
 90.43120    -52.4 1.246e+04 2.328e-08
 90.44470    -52.9 1.208e+04 2.079e-08
 90.46560    -53.4 1.150e+04 1.572e-08
 90.48008    -54.0 1.092e+04 1.108e-08
 90.49053    -53.8 1.072e+04 1.041e-08
 90.50739    -54.0 1.036e+04 7.924e-09
 90.52829    -54.2 1.003e+04 6.046e-09
 90.53941    -54.6 9.798e+03 5.012e-09
 90.54986    -53.7 9.957e+03 5.817e-09
 90.57009    -54.0 9.766e+03 4.969e-09
 90.58829    -54.2 9.699e+03 4.741e-09
 90.59874    -53.5 9.724e+03 5.651e-09
 90.61188    -53.6 9.717e+03 5.571e-09
 90.62830    -54.1 9.983e+03 5.931e-09
 90.63875    -54.7 9.977e+03 6.215e-09
 90.64762    -55.6 1.059e+04 8.789e-09
 90.65806    -55.5 1.078e+04 9.899e-09
 90.67458    -56.9 1.159e+04 1.569e-08
 90.69547    -58.5 1.248e+04 2.448e-08
 90.70694    -60.4 1.343e+04 3.662e-08
 90.71739    -60.1 1.365e+04 4.004e-08
 90.73727    -62.0 1.442e+04 5.649e-08
 90.75582    -63.7 1.491e+04 6.965e-08
 90.76627    -63.8 1.469e+04 6.366e-08
 90.77906    -65.5 1.498e+04 7.176e-08
 90.79996    -67.1 1.497e+04 7.177e-08
 90.81515    -68.2 1.432e+04 5.433e-08
 90.82560    -68.8 1.408e+04 5.042e-08
 90.84176    -69.8 1.321e+04 3.457e-08
 90.86266    -70.8 1.210e+04 2.077e-08
 90.87448    -71.8 1.123e+04 1.388e-08
 90.88493    -72.3 1.121e+04 1.481e-08
 90.90445    -73.0 1.093e+04 1.275e-08
 90.91714    -73.2 1.087e+04 1.247e-08
 90.92559    -72.5 1.067e+04 1.143e-08
 90.93380    -73.4 1.116e+04 1.454e-08
 90.94625    -73.2 1.129e+04 1.486e-08
 90.96714    -72.8 1.158e+04 1.677e-08
 90.98268    -72.3 1.189e+04 1.947e-08
 90.99313    -73.2 1.256e+04 2.813e-08
 91.00894    -72.5 1.283e+04 3.161e-08
 91.02984    -71.9 1.292e+04 3.320e-08
 91.04201    -71.3 1.291e+04 3.331e-08
 91.05246    -71.6 1.327e+04 3.987e-08
 91.07163    -70.7 1.281e+04 3.249e-08
 91.09089    -69.8 1.222e+04 2.404e-08
 91.10134    -70.0 1.220e+04 2.303e-08
 91.11343    -69.3 1.155e+04 1.572e-08
 91.13433    -68.8 1.104e+04 1.120e-08
 91.15022    -68.2 1.071e+04 8.654e-09
 91.16066    -68.3 1.072e+04 8.469e-09
 91.18667    -67.1 1.041e+04 6.783e-09
 91.20974    -64.1 9.710e+03 4.043e-09
 91.23064    -63.9 9.720e+03 3.762e-09
 91.27036    -61.1 9.461e+03 2.485e-09
 91.30750    -58.6 9.421e+03 1.893e-09
 91.32839    -57.8 9.484e+03 1.950e-09
 91.35395    -55.7 9.528e+03 1.745e-09
 91.39574    -53.8 9.597e+03 1.725e-09
 91.42615    -52.2 9.801e+03 1.816e-09
 91.44705    -52.1 1.030e+04 2.902e-09
 91.47412    -50.7 1.038e+04 2.947e-09
 91.49502    -50.1 1.041e+04 3.620e-09
 91.52113    -48.8 1.049e+04 3.544e-09
 91.54481    -47.6 1.066e+04 3.218e-09
 91.56570    -48.5 1.150e+04 8.154e-09
 91.60472    -47.4 1.160e+04 8.056e-09
 91.64256    -46.2 1.172e+04 8.439e-09
 91.66346    -47.3 1.275e+04 1.527e-08
 91.68831    -46.1 1.255e+04 1.274e-08
 91.73011    -44.6 1.241e+04 1.119e-08
 91.76122    -43.2 1.241e+04 9.991e-09
 91.78212    -44.4 1.210e+04 6.777e-09
 91.81370    -42.9 1.202e+04 6.216e-09
 91.85549    -41.3 1.203e+04 5.908e-09
 91.87987    -39.9 1.200e+04 5.219e-09
 91.90077    -40.3 1.171e+04 3.766e-09
 91.93908    -38.8 1.168e+04 3.625e-09
 91.97763    -37.4 1.164e+04 3.167e-09
 91.99853    -37.3 1.157e+04 3.146e-09
 92.02267    -35.9 1.159e+04 2.640e-09
 92.05181    -34.8 1.163e+04 2.332e-09
 92.07271    -33.6 1.158e+04 2.837e-09
 92.09628    -32.7 1.161e+04 2.668e-09
 92.11718    -32.7 1.163e+04 3.772e-09
 92.14806    -32.0 1.171e+04 3.695e-09
 92.18986    -31.2 1.177e+04 3.586e-09
 92.21494    -30.4 1.176e+04 2.965e-09
 92.23584    -30.3 1.186e+04 3.471e-09
 92.27345    -29.6 1.186e+04 2.325e-09
 92.31270    -28.9 1.185e+04 1.870e-09
 92.33359    -28.7 1.193e+04 2.222e-09
 92.35704    -27.9 1.183e+04 1.975e-09
 92.39883    -27.3 1.173e+04 1.932e-09
 92.43135    -26.7 1.160e+04 2.318e-09
 92.45225    -26.9 1.157e+04 2.192e-09
 92.48242    -26.1 1.145e+04 2.264e-09
 92.52422    -25.1 1.138e+04 2.096e-09
 92.55001    -24.5 1.135e+04 1.920e-09
 92.57090    -24.8 1.122e+04 1.526e-09
 92.60781    -23.9 1.120e+04 1.578e-09
 92.62950    -23.2 1.117e+04 2.005e-09
 92.64855    -23.1 1.112e+04 1.985e-09
 92.66866    -23.2 1.104e+04 1.827e-09
 92.69140    -22.1 1.106e+04 2.151e-09
 92.73320    -21.4 1.115e+04 2.484e-09
 92.76445    -20.9 1.139e+04 2.924e-09
 92.77667    -21.1 1.141e+04 3.033e-09
 92.78722    -21.3 1.123e+04 2.563e-09
 92.80624    -20.8 1.165e+04 3.725e-09
 92.82555    -21.4 1.167e+04 4.325e-09
 92.83600    -21.4 1.153e+04 3.852e-09
 92.84794    -21.4 1.183e+04 4.893e-09
 92.86884    -21.7 1.200e+04 5.196e-09
 92.88488    -22.1 1.201e+04 5.193e-09
 92.89533    -22.5 1.199e+04 5.073e-09
 92.90770    -23.0 1.206e+04 4.579e-09
 92.91814    -23.0 1.204e+04 4.604e-09
 92.93153    -23.7 1.200e+04 4.207e-09
 92.94421    -24.0 1.196e+04 3.985e-09
 92.95465    -24.2 1.200e+04 4.622e-09
 92.97332    -24.5 1.183e+04 4.199e-09
 92.99308    -24.4 1.177e+04 3.867e-09
 93.00353    -24.8 1.173e+04 4.057e-09
 93.02567    -25.0 1.149e+04 3.277e-09
 93.06756    -24.4 1.129e+04 2.579e-09
 93.10149    -23.2 1.100e+04 1.766e-09
 93.12238    -23.2 1.087e+04 1.526e-09
 93.15115    -22.0 1.089e+04 1.231e-09
 93.18628    -20.5 1.090e+04 1.194e-09
 93.20718    -20.1 1.088e+04 1.366e-09
 93.22014    -18.6 1.095e+04 1.424e-09
 93.24104    -18.1 1.089e+04 1.380e-09
 93.27654    -16.5 1.091e+04 1.411e-09
 93.31790    -15.0 1.102e+04 1.370e-09
 93.33880    -14.5 1.096e+04 1.332e-09
 93.36013    -13.2 1.110e+04 1.351e-09
 93.40192    -11.9 1.118e+04 1.723e-09
 93.43655    -10.6 1.149e+04 2.290e-09
 93.45745    -10.4 1.145e+04 2.213e-09
 93.47497     -9.5 1.163e+04 2.841e-09
 93.49568     -9.6 1.181e+04 3.081e-09
 93.51658     -9.3 1.170e+04 4.341e-09
 93.53756     -9.3 1.228e+04 5.388e-09
 93.55501     -9.5 1.244e+04 8.447e-09
 93.56546     -9.0 1.235e+04 6.700e-09
 93.57936     -9.1 1.265e+04 9.462e-09
 93.60026     -8.7 1.256e+04 1.358e-08
 93.61434     -7.9 1.275e+04 1.468e-08
 93.62479     -7.5 1.258e+04 1.409e-08
 93.64205     -7.1 1.309e+04 1.102e-08
 93.66295     -6.7 1.286e+04 8.950e-09
 93.67367     -6.4 1.317e+04 5.904e-09
 93.68412     -5.7 1.306e+04 6.342e-09
 93.70474     -5.6 1.290e+04 5.086e-09
 93.72255     -4.9 1.284e+04 3.926e-09
 93.73299     -4.0 1.299e+04 3.815e-09
 93.74654     -3.6 1.264e+04 3.614e-09
 93.76378     -2.8 1.308e+04 3.046e-09
 93.77422     -2.9 1.314e+04 2.831e-09
 93.78187     -2.2 1.283e+04 3.147e-09
 93.79232     -1.5 1.276e+04 3.078e-09
 93.80923     -0.4 1.306e+04 3.061e-09
 93.83013      0.2 1.315e+04 3.652e-09
 93.84120      0.8 1.355e+04 4.485e-09
 93.85165      2.1 1.314e+04 3.632e-09
 93.87193      2.6 1.361e+04 4.509e-09
 93.89008      3.3 1.345e+04 7.141e-09
 93.90053      4.3 1.353e+04 4.850e-09
 93.91372      5.3 1.342e+04 7.294e-09
 93.93462      6.7 1.328e+04 1.131e-08
 93.94941      8.1 1.349e+04 1.505e-08
 93.95986      8.7 1.350e+04 1.034e-08
 93.97642      9.8 1.369e+04 1.473e-08
 93.99731     10.7 1.422e+04 2.344e-08
 94.00869     11.4 1.491e+04 3.295e-08
 94.01913     12.1 1.453e+04 2.550e-08
 94.03312     11.7 1.549e+04 4.010e-08
 94.03830     12.6 1.501e+04 3.235e-08
 94.04423     12.3 1.588e+04 4.146e-08
 94.05252     10.5 1.739e+04 7.390e-08
 94.05775     10.0 1.812e+04 9.553e-08
 94.06274      6.9 1.937e+04 1.995e-07
 94.06796      8.3 1.926e+04 1.131e-07
 94.07558      5.6 1.934e+04 3.355e-07
 94.08603      4.2 1.845e+04 1.003e-06
 94.09240      2.8 1.804e+04 2.018e-06
 94.09763      2.4 1.815e+04 2.132e-06
 94.10693      0.4 1.780e+04 3.715e-06
 94.11684     -2.5 1.736e+04 5.094e-06
 94.12207     -3.3 1.729e+04 5.338e-06
 94.12783     -5.8 1.724e+04 5.089e-06
 94.13827     -7.6 1.800e+04 2.421e-06
 94.14651    -10.1 1.866e+04 1.045e-06
 94.15173    -10.5 1.933e+04 5.109e-07
 94.15917    -12.5 1.877e+04 3.341e-07
 94.16962    -13.3 1.857e+04 2.525e-07
 94.17617    -13.4 1.841e+04 2.156e-07
 94.18667    -16.1 1.759e+04 8.384e-08
 94.20629    -16.9 1.709e+04 7.713e-08
 94.22515    -17.1 1.677e+04 7.470e-08
 94.23560    -17.6 1.635e+04 6.014e-08
 94.24809    -17.4 1.623e+04 5.347e-08
 94.26898    -17.3 1.616e+04 4.175e-08
 94.28447    -17.3 1.602e+04 3.396e-08
 94.29492    -17.2 1.582e+04 2.992e-08
 94.31078    -16.6 1.572e+04 2.664e-08
 94.33101    -15.8 1.562e+04 2.299e-08
 94.34146    -15.8 1.548e+04 1.902e-08
 94.34380    -15.2 1.541e+04 1.528e-08
 94.36480    -14.8 1.521e+04 1.221e-08
 94.40501    -13.5 1.530e+04 9.029e-09
 94.44175    -11.7 1.538e+04 7.913e-09
 94.46265    -11.4 1.539e+04 5.681e-09
 94.48860     -9.7 1.539e+04 5.206e-09
 94.53040     -7.8 1.538e+04 5.261e-09
 94.56041     -6.0 1.528e+04 6.347e-09
 94.58131     -5.8 1.551e+04 3.493e-09
 94.60344     -4.3 1.534e+04 5.487e-09
 94.61954     -4.2 1.545e+04 5.660e-09
 94.62560     -4.0 1.551e+04 5.359e-09
 94.63031     -4.0 1.559e+04 5.752e-09
 94.64514     -3.1 1.513e+04 7.819e-09
 94.66604     -2.2 1.521e+04 8.445e-09
 94.67887     -1.7 1.548e+04 7.615e-09
 94.68932     -1.9 1.555e+04 7.488e-09
 94.70784     -1.5 1.518e+04 8.515e-09
 94.72775     -1.3 1.586e+04 7.094e-09
 94.73820     -1.9 1.555e+04 1.097e-08
 94.74963     -2.1 1.549e+04 1.277e-08
 94.77053     -2.0 1.530e+04 1.398e-08
 94.78707     -1.3 1.518e+04 1.422e-08
 94.79752     -1.3 1.533e+04 1.647e-08
 94.81232     -1.4 1.576e+04 1.163e-08
 94.83322     -1.6 1.539e+04 1.100e-08
 94.84640     -1.8 1.583e+04 8.811e-09
 94.85685     -2.5 1.579e+04 7.989e-09
 94.87502     -3.0 1.571e+04 8.676e-09
 94.89528     -3.1 1.544e+04 1.000e-08
 94.90573     -3.6 1.537e+04 1.033e-08
 94.90870     -3.3 1.539e+04 1.111e-08
 94.91915     -3.6 1.530e+04 1.080e-08
 94.93771     -3.3 1.521e+04 1.107e-08
 94.95461     -2.9 1.489e+04 1.116e-08
 94.96506     -3.1 1.483e+04 1.007e-08
 94.97951     -2.6 1.530e+04 7.608e-09
 95.00040     -2.4 1.480e+04 8.273e-09
 95.01394     -1.9 1.513e+04 6.714e-09
 95.02438     -1.9 1.509e+04 6.917e-09
 95.04220     -1.6 1.497e+04 7.312e-09
 95.06281     -1.1 1.473e+04 8.353e-09
 95.07326     -1.0 1.474e+04 8.306e-09
 95.08399     -0.2 1.459e+04 9.285e-09
 95.10489      0.4 1.450e+04 1.020e-08
 95.12214      0.7 1.456e+04 1.050e-08
 95.13269      0.1 1.438e+04 1.039e-08
 95.15733      0.9 1.433e+04 1.576e-08
 95.18157      1.7 1.448e+04 1.668e-08
 95.19053      1.5 1.461e+04 1.990e-08
 95.19754      0.9 1.444e+04 2.098e-08
 95.20938      1.2 1.461e+04 2.423e-08
 95.23028      1.6 1.476e+04 3.263e-08
 95.25118      2.1 1.543e+04 5.923e-08
 95.27207      2.1 1.580e+04 8.166e-08
 95.28968      2.3 1.615e+04 1.078e-07
 95.30012      1.7 1.594e+04 8.970e-08
 95.31387      1.7 1.611e+04 1.040e-07
 95.33477      1.8 1.605e+04 1.036e-07
 95.34900      2.1 1.584e+04 9.026e-08
 95.35945      2.2 1.499e+04 3.476e-08
 95.37656      3.1 1.484e+04 3.303e-08
 95.39746      4.2 1.469e+04 2.497e-08
 95.40833      4.4 1.458e+04 2.003e-08
 95.41878      4.2 1.409e+04 1.269e-08
 95.44686      5.7 1.414e+04 1.418e-08
 95.46785      6.5 1.384e+04 8.475e-09
 95.47603      8.1 1.392e+04 8.012e-09
 95.49693      9.3 1.381e+04 6.570e-09
 95.51663      9.9 1.425e+04 6.270e-09
 95.52698     10.6 1.397e+04 5.504e-09
 95.54374     11.2 1.414e+04 5.316e-09
 95.56464     12.0 1.419e+04 5.396e-09
 95.57586     12.8 1.422e+04 5.718e-09
 95.58631     13.4 1.421e+04 5.510e-09
 95.60644     14.1 1.427e+04 6.179e-09
 95.62474     14.6 1.438e+04 7.436e-09
 95.63519     15.1 1.440e+04 7.779e-09
 95.64823     15.5 1.432e+04 1.102e-08
 95.66913     16.3 1.452e+04 1.342e-08
 95.68407     16.7 1.478e+04 1.274e-08
 95.69452     17.1 1.471e+04 1.905e-08
 95.71093     17.3 1.489e+04 1.749e-08
 95.73182     17.4 1.513e+04 1.316e-08
 95.74340     16.9 1.535e+04 9.934e-09
 95.75385     17.3 1.521e+04 1.488e-08
 95.76478     17.1 1.525e+04 9.618e-09
 95.77523     17.2 1.532e+04 1.292e-08
 95.79228     16.6 1.534e+04 9.901e-09
 95.80272     16.7 1.540e+04 1.216e-08
 95.81541     16.9 1.513e+04 9.053e-09
 95.83631     16.7 1.513e+04 7.974e-09
 95.86776     17.4 1.470e+04 6.537e-09
 95.90068     18.9 1.446e+04 4.521e-09
 95.92157     18.7 1.433e+04 4.671e-09
 95.95144     20.5 1.432e+04 2.858e-09
 95.99324     22.1 1.414e+04 2.225e-09
 96.01933     24.5 1.404e+04 2.236e-09
 96.03812     24.1 1.384e+04 2.091e-09
 96.05382     23.2 1.364e+04 3.003e-09
 96.07683     25.2 1.356e+04 3.632e-09
 96.11709     27.3 1.351e+04 5.142e-09
 96.13799     26.9 1.339e+04 4.098e-09
 96.16042     28.8 1.347e+04 4.766e-09
 96.20222     30.3 1.350e+04 4.712e-09
 96.23574     31.8 1.347e+04 4.216e-09
 96.25664     31.6 1.332e+04 2.790e-09
 96.28581     33.3 1.334e+04 2.433e-09
 96.32760     35.1 1.333e+04 2.075e-09
 96.35440     37.0 1.334e+04 1.819e-09
 96.37530     37.3 1.329e+04 1.609e-09
 96.41119     39.5 1.331e+04 1.443e-09
 96.45216     41.8 1.337e+04 1.278e-09
 96.47305     42.2 1.342e+04 1.076e-09
 96.49479     44.5 1.352e+04 9.134e-10
 96.53658     46.8 1.368e+04 7.800e-10
 96.57081     49.1 1.374e+04 7.168e-10
 96.59171     49.6 1.368e+04 5.780e-10
 96.61061     52.1 1.364e+04 5.725e-10
 96.63151     51.9 1.359e+04 5.768e-10
 96.66197     54.5 1.364e+04 5.855e-10
 96.68947     57.0 1.370e+04 6.196e-10
 96.71036     57.8 1.375e+04 5.192e-10
 96.74556     60.4 1.383e+04 5.132e-10
 96.78722     63.0 1.391e+04 5.112e-10
 96.82902     66.4 1.403e+04 4.074e-10
 96.87094     68.9 1.411e+04 4.199e-10
 96.90588     71.5 1.417e+04 4.507e-10
 96.92678     72.4 1.415e+04 4.013e-10
 96.95453     74.9 1.421e+04 4.315e-10
 96.99633     77.5 1.423e+04 4.769e-10
 97.02453     80.1 1.430e+04 5.445e-10
 97.04543     81.1 1.427e+04 5.163e-10
 97.07992     83.7 1.431e+04 6.088e-10
 97.12172     86.4 1.434e+04 7.163e-10
 97.14319     89.1 1.446e+04 7.948e-10
 97.16409     90.1 1.447e+04 7.848e-10
 97.18829     92.7 1.480e+04 7.819e-10
 97.20919     92.8 1.470e+04 8.460e-10
 97.24095     95.2 1.480e+04 8.412e-10
 97.26184     96.2 1.489e+04 8.249e-10
 97.28890     98.6 1.504e+04 7.831e-10
 97.33069    101.1 1.519e+04 7.453e-10
 97.35960    103.7 1.523e+04 7.453e-10
 97.38050    104.8 1.531e+04 7.885e-10
 97.41428    107.5 1.534e+04 8.027e-10
 97.45608    110.1 1.538e+04 8.630e-10
 97.47825    112.6 1.527e+04 1.024e-09
 97.49915    113.9 1.556e+04 1.094e-09
 97.53967    116.3 1.539e+04 1.217e-09
 97.57601    118.6 1.509e+04 1.413e-09
 97.59691    119.7 1.520e+04 1.983e-09
 97.62326    122.3 1.497e+04 2.148e-09
 97.66506    125.2 1.480e+04 2.602e-09
 97.69457    126.4 1.486e+04 3.024e-09
 97.70492    127.8 1.478e+04 3.718e-09
 97.71711    129.0 1.467e+04 4.246e-09
 97.73800    130.1 1.464e+04 4.954e-09
 97.75380    131.1 1.473e+04 5.820e-09
 97.76068    131.5 1.503e+04 6.652e-09
 97.76578    131.4 1.498e+04 6.828e-09
 97.77980    132.2 1.505e+04 8.330e-09
 97.80070    132.7 1.518e+04 9.920e-09
 97.81313    133.2 1.538e+04 1.088e-08
 97.82358    134.1 1.571e+04 1.713e-08
 97.84249    134.5 1.594e+04 1.728e-08
 97.86201    134.6 1.599e+04 1.671e-08
 97.87245    135.9 1.606e+04 3.856e-08
 97.88429    135.9 1.625e+04 3.491e-08
 97.90519    135.8 1.642e+04 2.491e-08
 97.92133    135.5 1.631e+04 1.530e-08
 97.93178    136.5 1.757e+04 6.330e-08
 97.94698    136.2 1.763e+04 3.503e-08
 97.96788    135.3 1.736e+04 1.627e-08
 97.98066    133.3 1.763e+04 9.520e-09
 97.98584    128.1 2.703e+04 2.722e-08
 97.99390    124.4 3.152e+04 2.401e-08
 98.00435    121.8 3.235e+04 2.612e-08
 98.01023    121.4 3.111e+04 2.764e-08
 98.01545    116.3 1.950e+04 1.108e-06
 98.02525    114.6 2.029e+04 8.161e-07
 98.03467    115.5 2.234e+04 4.052e-07
 98.03989    111.3 1.678e+04 5.587e-06
 98.04408    112.1 1.766e+04 2.189e-06
 98.04931    111.6 1.802e+04 1.665e-06
 98.05660    112.4 1.806e+04 1.314e-06
 98.06433    113.1 1.799e+04 1.327e-06
 98.06955    111.0 1.874e+04 1.367e-06
 98.07749    111.3 1.913e+04 1.259e-06
 98.08794    111.1 1.957e+04 1.148e-06
 98.09399    110.2 2.052e+04 8.884e-07
 98.09922     99.3 1.990e+04 5.926e-08
 98.10884     97.5 1.879e+04 8.228e-08
 98.11843     96.1 1.833e+04 1.256e-07
 98.12366     94.5 1.709e+04 9.855e-08
 98.12974     94.0 1.763e+04 1.640e-07
 98.14019     93.4 1.826e+04 2.605e-07
 98.14810     92.4 1.878e+04 3.383e-07
 98.15332     92.0 1.846e+04 2.809e-07
 98.16108     90.8 1.865e+04 2.943e-07
 98.17681     88.4 1.838e+04 2.332e-07
 98.19707     87.4 1.775e+04 1.435e-07
 98.20752     87.2 1.717e+04 1.066e-07
 98.21865     86.9 1.642e+04 6.248e-08
 98.23955     86.7 1.565e+04 3.354e-08
 98.25640     86.5 1.501e+04 2.069e-08
 98.26685     86.5 1.494e+04 2.452e-08
 98.28134     86.9 1.452e+04 1.947e-08
 98.30224     87.6 1.411e+04 1.597e-08
 98.31573     88.5 1.381e+04 1.345e-08
 98.32561     88.7 1.386e+04 1.664e-08
 98.33302     88.6 1.374e+04 1.470e-08
 98.34404     89.6 1.356e+04 1.268e-08
 98.36470     91.2 1.334e+04 9.471e-09
 98.38570     90.8 1.324e+04 1.269e-08
 98.41737     92.6 1.290e+04 1.082e-08
 98.45917     94.5 1.253e+04 9.437e-09
 98.48346     96.4 1.232e+04 8.439e-09
 98.50435     95.5 1.201e+04 8.555e-09
 98.54276     97.3 1.165e+04 6.769e-09
 98.58121     99.0 1.131e+04 5.106e-09
 98.60211     98.5 1.102e+04 3.417e-09
 98.62635    100.0 1.077e+04 2.616e-09
 98.66815    101.5 1.056e+04 2.053e-09
 98.69987    103.0 1.038e+04 1.619e-09
 98.72077    103.1 1.036e+04 1.643e-09
 98.75174    104.8 1.018e+04 1.315e-09
 98.79353    106.6 1.001e+04 1.080e-09
 98.81852    108.8 9.852e+03 9.407e-10
 98.83942    108.9 9.956e+03 1.090e-09
 98.87712    111.2 9.845e+03 9.596e-10
 98.90046    113.6 9.763e+03 8.951e-10
 98.91871    113.8 9.586e+03 7.992e-10
 98.93718    113.6 9.687e+03 9.157e-10
 98.96072    116.1 9.675e+03 9.178e-10
 99.00251    118.7 9.657e+03 9.340e-10
 99.03494    121.2 9.647e+03 9.681e-10
 99.05583    120.6 9.745e+03 1.315e-09
 99.08610    122.9 9.796e+03 1.465e-09
 99.12790    125.2 9.848e+03 1.643e-09
 99.15359    127.3 9.920e+03 1.824e-09
 99.17449    126.4 1.024e+04 2.458e-09
 99.21149    128.1 1.040e+04 2.671e-09
 99.25135    129.8 1.061e+04 2.870e-09
 99.27225    128.2 1.077e+04 2.919e-09
 99.29508    129.5 1.099e+04 3.086e-09
 99.33687    130.5 1.116e+04 3.259e-09
 99.37000    131.3 1.121e+04 3.387e-09
 99.39090    129.9 1.110e+04 2.449e-09
 99.42047    130.8 1.110e+04 2.428e-09
 99.45724    131.6 1.109e+04 2.289e-09
 99.47814    130.6 1.094e+04 2.136e-09
 99.48866    131.4 1.087e+04 1.927e-09
 99.50955    129.8 1.086e+04 1.475e-09
 99.54585    130.6 1.082e+04 1.367e-09
 99.58641    131.5 1.082e+04 1.307e-09
 99.60731    129.6 1.084e+04 1.289e-09
 99.62944    130.5 1.094e+04 1.337e-09
 99.67124    131.3 1.124e+04 1.519e-09
 99.70507    132.1 1.148e+04 1.839e-09
 99.72587    130.9 1.190e+04 2.916e-09
 99.74418    130.9 1.204e+04 3.335e-09
 99.75634    130.5 1.215e+04 3.975e-09
 99.76591    130.0 1.215e+04 3.853e-09
 99.77465    127.9 1.207e+04 4.577e-09
 99.78598    127.5 1.205e+04 4.858e-09
 99.80688    127.1 1.201e+04 5.100e-09
 99.82353    126.7 1.191e+04 5.353e-09
 99.83398    124.4 1.190e+04 5.033e-09
 99.84867    123.5 1.193e+04 5.227e-09
 99.86957    122.6 1.197e+04 5.416e-09
 99.88286    121.6 1.199e+04 5.653e-09
 99.89331    118.9 1.191e+04 5.988e-09
 99.91137    118.0 1.183e+04 6.336e-09
 99.93173    117.1 1.181e+04 6.529e-09
 99.94218    115.0 1.165e+04 6.422e-09
 99.95316    114.1 1.149e+04 6.046e-09
 99.97406    113.2 1.141e+04 5.402e-09
 99.99106    112.2 1.137e+04 4.677e-09
100.00151    109.1 1.123e+04 3.382e-09
