# Columns:
#   distance along LOS (in CHIMPs)
#   peculiar velocity  (in km/s)
#   temperature (K)
#   HI number density
# pos=(205.257,103.107,225.281), angles=(1.65138,0.215864)
  0.01968      7.3 1.048e+04 1.305e-09
  0.04979      8.7 1.048e+04 1.536e-09
  0.06985      9.0 1.051e+04 1.107e-09
  0.09216      9.7 1.060e+04 1.528e-09
  0.11212      8.6 1.116e+04 1.920e-09
  0.12944      7.1 1.198e+04 3.572e-09
  0.14950      5.6 1.230e+04 6.958e-09
  0.16957      6.5 1.143e+04 1.467e-08
  0.18786      8.9 1.103e+04 1.841e-08
  0.19789      9.9 1.142e+04 1.988e-08
  0.20969     10.7 1.207e+04 1.157e-08
  0.22975      9.2 1.185e+04 7.423e-09
  0.24981      7.7 1.111e+04 5.400e-09
  0.26987      7.3 1.059e+04 4.371e-09
  0.28375      7.7 1.024e+04 3.841e-09
  0.29378      6.5 1.033e+04 5.509e-09
  0.30130      7.1 1.022e+04 5.323e-09
  0.31133      7.1 1.022e+04 5.396e-09
  0.34018      8.4 1.028e+04 4.539e-09
  0.38039     10.3 1.018e+04 2.949e-09
  0.42052     11.9 9.950e+03 2.368e-09
  0.45567     14.0 9.817e+03 2.464e-09
  0.47573     13.1 1.028e+04 4.373e-09
  0.50076     15.5 1.032e+04 4.540e-09
  0.53075     17.8 1.024e+04 4.554e-09
  0.54297     18.5 1.049e+04 5.144e-09
  0.55300     18.9 1.059e+04 5.232e-09
  0.56140     19.8 1.072e+04 6.134e-09
  0.57143     18.9 1.082e+04 6.628e-09
  0.59083     19.4 1.114e+04 8.404e-09
  0.61089     19.9 1.150e+04 1.102e-08
  0.63095     19.9 1.197e+04 1.508e-08
  0.64726     19.6 1.230e+04 1.928e-08
  0.65729     18.6 1.234e+04 2.135e-08
  0.67108     18.8 1.222e+04 2.184e-08
  0.69114     19.2 1.200e+04 1.801e-08
  0.71120     18.8 1.169e+04 1.170e-08
  0.73126     17.1 1.121e+04 7.361e-09
  0.74315     14.4 1.052e+04 5.359e-09
  0.75318     13.0 1.021e+04 4.679e-09
  0.77138     11.5 9.908e+03 4.441e-09
  0.78465     11.0 9.723e+03 4.275e-09
  0.79468     12.2 9.740e+03 4.160e-09
  0.81150     12.0 9.731e+03 3.810e-09
  0.82901     11.4 9.682e+03 3.435e-09
  0.83904     11.3 9.646e+03 3.329e-09
  0.86175     10.3 9.576e+03 3.262e-09
  0.89184     10.7 9.608e+03 3.502e-09
  0.91180     10.6 9.606e+03 3.589e-09
  0.92491     10.7 9.530e+03 3.909e-09
  0.93494     10.6 9.558e+03 4.127e-09
  0.95192     10.9 9.491e+03 4.187e-09
  0.98211     11.6 9.327e+03 3.424e-09
  1.01096     12.9 9.196e+03 2.834e-09
  1.02518     12.4 9.270e+03 2.881e-09
  1.03645     12.9 9.415e+03 3.351e-09
  1.06235     13.5 9.265e+03 2.804e-09
  1.10257     14.4 9.094e+03 2.327e-09
  1.14269     15.4 9.056e+03 1.974e-09
  1.18269     16.3 9.102e+03 1.992e-09
  1.22281     16.3 8.984e+03 1.966e-09
  1.26305     17.4 9.171e+03 2.164e-09
  1.30317     18.6 9.308e+03 2.281e-09
  1.34329     20.1 9.362e+03 2.332e-09
  1.37447     22.0 9.294e+03 2.254e-09
  1.39453     21.3 9.412e+03 2.231e-09
  1.42354     23.4 9.398e+03 1.964e-09
  1.46366     25.6 9.377e+03 1.824e-09
  1.49365     27.1 9.346e+03 1.823e-09
  1.50966     27.8 9.406e+03 1.873e-09
  1.51970     27.7 9.478e+03 1.915e-09
  1.53367     27.8 9.845e+03 2.082e-09
  1.55373     26.4 1.092e+04 2.927e-09
  1.56606     24.1 1.230e+04 7.194e-09
  1.57609     21.1 1.397e+04 2.381e-08
  1.59385     21.5 1.489e+04 5.597e-08
  1.61391     22.8 1.558e+04 8.516e-08
  1.63398     23.7 1.574e+04 9.200e-08
  1.65192     24.0 1.571e+04 7.308e-08
  1.66196     22.0 1.557e+04 6.261e-08
  1.67410     21.5 1.488e+04 3.972e-08
  1.69416     21.5 1.385e+04 2.293e-08
  1.71422     21.3 1.301e+04 1.437e-08
  1.73428     22.9 1.244e+04 9.361e-09
  1.74782     23.2 1.252e+04 9.349e-09
  1.75485     21.4 1.228e+04 6.715e-09
  1.76137     20.6 1.201e+04 5.117e-09
  1.78453     22.4 1.149e+04 3.754e-09
  1.82474     24.6 1.117e+04 3.378e-09
  1.86487     27.1 1.117e+04 3.484e-09
  1.90499     29.6 1.120e+04 3.772e-09
  1.92977     31.9 1.132e+04 3.932e-09
  1.94983     30.8 1.137e+04 3.583e-09
  1.98318     33.1 1.140e+04 3.278e-09
  2.00324     32.7 1.141e+04 2.367e-09
  2.02535     34.7 1.138e+04 2.195e-09
  2.06547     36.6 1.135e+04 2.118e-09
  2.10149     38.5 1.132e+04 2.122e-09
  2.12155     37.6 1.136e+04 2.244e-09
  2.14571     39.7 1.125e+04 2.127e-09
  2.18583     41.9 1.108e+04 1.852e-09
  2.22595     44.0 1.104e+04 1.562e-09
  2.26607     45.9 1.102e+04 1.395e-09
  2.29328     47.8 1.100e+04 1.374e-09
  2.31334     46.7 1.107e+04 1.440e-09
  2.34632     48.5 1.115e+04 1.608e-09
  2.38644     50.2 1.134e+04 1.992e-09
  2.42656     51.4 1.159e+04 2.744e-09
  2.46500     52.2 1.192e+04 4.222e-09
  2.48491     50.5 1.201e+04 4.705e-09
  2.50664     50.5 1.199e+04 6.218e-09
  2.54692     50.7 1.188e+04 5.997e-09
  2.58704     50.9 1.159e+04 5.116e-09
  2.62716     51.4 1.125e+04 3.684e-09
  2.65679     52.1 1.094e+04 2.478e-09
  2.67685     51.4 1.075e+04 1.856e-09
  2.70740     52.4 1.059e+04 1.468e-09
  2.74752     53.6 1.050e+04 1.190e-09
  2.78764     54.9 1.045e+04 9.837e-10
  2.82776     56.2 1.030e+04 9.017e-10
  2.84857     57.7 1.025e+04 9.077e-10
  2.86863     56.6 1.026e+04 9.281e-10
  2.90801     58.0 1.016e+04 1.001e-09
  2.94813     59.4 1.007e+04 1.130e-09
  2.96993     61.0 9.956e+03 1.278e-09
  2.98999     61.1 1.002e+04 1.539e-09
  3.02030     62.8 9.935e+03 1.717e-09
  3.04036     61.5 9.972e+03 1.627e-09
  3.06849     63.0 9.891e+03 1.574e-09
  3.10861     64.6 9.766e+03 1.452e-09
  3.14873     66.3 9.615e+03 1.285e-09
  3.18885     68.2 9.459e+03 1.125e-09
  3.21208     70.1 9.326e+03 1.012e-09
  3.23214     69.3 9.338e+03 9.399e-10
  3.26909     71.4 9.287e+03 9.204e-10
  3.30921     73.6 9.262e+03 9.769e-10
  3.34934     75.8 9.190e+03 1.130e-09
  3.38381     78.1 9.198e+03 1.396e-09
  3.40387     77.4 9.265e+03 1.458e-09
  3.42958     79.5 9.362e+03 1.868e-09
  3.45327     81.5 9.493e+03 2.358e-09
  3.47333     81.4 9.298e+03 1.917e-09
  3.50982     83.5 9.328e+03 2.095e-09
  3.54994     85.4 9.317e+03 2.134e-09
  3.57559     87.2 9.309e+03 2.116e-09
  3.59565     86.7 9.264e+03 1.829e-09
  3.63018     88.6 9.236e+03 1.819e-09
  3.67030     90.6 9.179e+03 1.777e-09
  3.71042     92.8 9.168e+03 1.658e-09
  3.74732     95.1 9.129e+03 1.503e-09
  3.76738     95.1 9.221e+03 1.595e-09
  3.79066     97.6 9.192e+03 1.437e-09
  3.83079    100.1 9.179e+03 1.269e-09
  3.87091    102.7 9.188e+03 1.115e-09
  3.91103    105.3 9.195e+03 9.885e-10
  3.93662    108.0 9.144e+03 9.054e-10
  3.94463    108.2 9.121e+03 1.014e-09
  3.95916    108.0 9.182e+03 1.068e-09
  3.99127    110.7 9.070e+03 1.037e-09
  4.03139    113.4 9.046e+03 1.050e-09
  4.07151    116.2 9.021e+03 1.105e-09
  4.11083    118.9 9.020e+03 1.286e-09
  4.13089    118.7 9.175e+03 1.683e-09
  4.15175    121.7 9.526e+03 2.292e-09
  4.19187    124.6 9.871e+03 3.067e-09
  4.21665    125.6 9.967e+03 3.417e-09
  4.22658    125.3 1.004e+04 3.779e-09
  4.24183    126.1 1.019e+04 4.642e-09
  4.26189    127.2 1.036e+04 5.702e-09
  4.28195    128.3 1.054e+04 6.737e-09
  4.30201    129.3 1.073e+04 7.669e-09
  4.31245    130.3 1.091e+04 8.483e-09
  4.32248    129.8 1.113e+04 9.058e-09
  4.34213    130.6 1.128e+04 9.611e-09
  4.36219    131.3 1.139e+04 9.873e-09
  4.38225    132.0 1.142e+04 9.865e-09
  4.39831    132.6 1.141e+04 9.810e-09
  4.40834    132.0 1.148e+04 9.665e-09
  4.41977    132.5 1.148e+04 9.162e-09
  4.42980    131.4 1.146e+04 9.079e-09
  4.44243    131.9 1.137e+04 8.375e-09
  4.46249    132.5 1.126e+04 7.623e-09
  4.48255    133.1 1.113e+04 6.955e-09
  4.49420    133.8 1.099e+04 6.388e-09
  4.50423    133.9 1.099e+04 6.113e-09
  4.52267    134.5 1.100e+04 6.030e-09
  4.54273    135.6 1.099e+04 5.807e-09
  4.56280    136.3 1.101e+04 5.798e-09
  4.58006    137.0 1.106e+04 5.836e-09
  4.59009    136.6 1.113e+04 5.446e-09
  4.60292    137.1 1.121e+04 5.519e-09
  4.62298    137.5 1.132e+04 5.753e-09
  4.64304    137.7 1.144e+04 6.074e-09
  4.66144    137.9 1.153e+04 6.268e-09
  4.67147    136.7 1.131e+04 5.415e-09
  4.67596    137.0 1.130e+04 5.280e-09
  4.68599    136.5 1.132e+04 5.041e-09
  4.70322    136.8 1.136e+04 4.705e-09
  4.72328    136.9 1.140e+04 4.343e-09
  4.74334    137.1 1.140e+04 3.884e-09
  4.76182    137.2 1.139e+04 3.439e-09
  4.77185    136.9 1.142e+04 3.402e-09
  4.79359    138.0 1.137e+04 2.960e-09
  4.83381    139.0 1.123e+04 2.252e-09
  4.85791    140.4 1.122e+04 2.007e-09
  4.87797    140.2 1.127e+04 1.807e-09
  4.90331    141.9 1.129e+04 1.819e-09
  4.92337    141.1 1.124e+04 1.412e-09
  4.95417    142.9 1.133e+04 1.452e-09
  4.99429    144.8 1.157e+04 1.602e-09
  5.02963    146.6 1.187e+04 1.846e-09
  5.04969    146.7 1.195e+04 1.792e-09
  5.06440    147.4 1.209e+04 1.958e-09
  5.08437    147.8 1.224e+04 2.186e-09
  5.10443    148.0 1.238e+04 2.685e-09
  5.12449    148.1 1.252e+04 3.602e-09
  5.13536    148.2 1.272e+04 5.025e-09
  5.14539    147.2 1.290e+04 6.249e-09
  5.15482    147.3 1.313e+04 8.292e-09
  5.16485    147.0 1.290e+04 6.309e-09
  5.18467    147.1 1.303e+04 7.579e-09
  5.20473    147.0 1.307e+04 8.084e-09
  5.22122    146.8 1.307e+04 7.971e-09
  5.23125    145.7 1.308e+04 7.535e-09
  5.24485    145.6 1.297e+04 6.856e-09
  5.26491    145.4 1.283e+04 6.163e-09
  5.28497    145.3 1.265e+04 5.672e-09
  5.30503    145.3 1.244e+04 5.554e-09
  5.31711    145.5 1.231e+04 5.601e-09
  5.32714    145.1 1.227e+04 5.414e-09
  5.34515    145.4 1.225e+04 5.442e-09
  5.36521    145.7 1.223e+04 5.437e-09
  5.38527    145.9 1.218e+04 5.378e-09
  5.39649    146.1 1.207e+04 5.167e-09
  5.40426    146.1 1.186e+04 4.327e-09
  5.41320    146.3 1.175e+04 4.029e-09
  5.43562    147.3 1.156e+04 3.549e-09
  5.47574    148.6 1.145e+04 3.019e-09
  5.51586    150.1 1.131e+04 2.751e-09
  5.55598    152.0 1.130e+04 2.756e-09
  5.58493    153.8 1.134e+04 2.870e-09
  5.60499    154.5 1.128e+04 2.726e-09
  5.62609    155.3 1.132e+04 2.924e-09
  5.63817    156.3 1.134e+04 3.227e-09
  5.64820    156.4 1.131e+04 3.241e-09
  5.66612    157.6 1.140e+04 3.720e-09
  5.68062    158.6 1.153e+04 4.276e-09
  5.69065    158.7 1.156e+04 4.618e-09
  5.70624    159.5 1.168e+04 5.287e-09
  5.72630    160.1 1.175e+04 5.897e-09
  5.74636    160.7 1.178e+04 6.466e-09
  5.76642    161.2 1.176e+04 7.004e-09
  5.78648    161.6 1.167e+04 8.477e-09
  5.80654    162.0 1.163e+04 8.894e-09
  5.82660    162.4 1.161e+04 9.484e-09
  5.84666    162.6 1.168e+04 1.033e-08
  5.86238    162.6 1.176e+04 1.157e-08
  5.87241    162.5 1.157e+04 1.105e-08
  5.87984    162.5 1.164e+04 1.173e-08
  5.88987    163.1 1.153e+04 1.066e-08
  5.90684    163.1 1.165e+04 1.164e-08
  5.92690    163.1 1.179e+04 1.242e-08
  5.94696    163.0 1.190e+04 1.273e-08
  5.95827    162.8 1.192e+04 1.273e-08
  5.96830    163.3 1.154e+04 1.025e-08
  5.98708    163.3 1.154e+04 1.033e-08
  6.00714    163.3 1.153e+04 1.036e-08
  6.02721    163.4 1.149e+04 1.029e-08
  6.04413    163.5 1.142e+04 1.003e-08
  6.05416    164.2 1.120e+04 8.968e-09
  6.06733    164.3 1.117e+04 8.866e-09
  6.08739    164.4 1.110e+04 8.499e-09
  6.10745    164.3 1.097e+04 7.866e-09
  6.12151    164.2 1.079e+04 7.102e-09
  6.13154    165.3 1.083e+04 7.634e-09
  6.14003    165.1 1.062e+04 6.775e-09
  6.15006    165.7 1.061e+04 6.924e-09
  6.16763    165.5 1.040e+04 6.234e-09
  6.18769    165.3 1.019e+04 5.718e-09
  6.20775    165.0 1.004e+04 5.419e-09
  6.22589    164.8 9.923e+03 5.301e-09
  6.23592    165.3 9.921e+03 5.396e-09
  6.24787    165.0 9.833e+03 5.404e-09
  6.26793    164.7 9.832e+03 5.411e-09
  6.28799    164.3 9.850e+03 5.470e-09
  6.30805    163.4 9.954e+03 5.749e-09
  6.32178    162.2 1.026e+04 6.670e-09
  6.33181    162.2 1.028e+04 6.818e-09
  6.34817    160.9 1.074e+04 8.631e-09
  6.36318    159.8 1.120e+04 1.117e-08
  6.37321    160.8 1.096e+04 1.030e-08
  6.38829    159.8 1.121e+04 1.166e-08
  6.40764    158.7 1.133e+04 1.198e-08
  6.41767    158.9 1.132e+04 1.223e-08
  6.42841    157.6 1.133e+04 1.223e-08
  6.44847    156.3 1.129e+04 1.195e-08
  6.47866    154.6 1.097e+04 1.025e-08
  6.50373    152.2 1.071e+04 9.297e-09
  6.52379    153.4 1.097e+04 1.042e-08
  6.54887    150.3 1.127e+04 1.136e-08
  6.56884    147.8 1.153e+04 1.238e-08
  6.58890    146.0 1.156e+04 1.238e-08
  6.59943    144.0 1.159e+04 1.233e-08
  6.60536    143.6 1.195e+04 1.501e-08
  6.61489    144.5 1.172e+04 1.297e-08
  6.62902    142.4 1.171e+04 1.285e-08
  6.64908    140.5 1.163e+04 1.224e-08
  6.66914    138.8 1.145e+04 1.131e-08
  6.68529    137.3 1.122e+04 1.058e-08
  6.69532    137.3 1.143e+04 1.166e-08
  6.70926    136.0 1.139e+04 1.164e-08
  6.72932    134.8 1.143e+04 1.190e-08
  6.74938    133.5 1.164e+04 1.314e-08
  6.76944    132.0 1.203e+04 1.575e-08
  6.78118    130.6 1.239e+04 1.872e-08
  6.79121    130.1 1.242e+04 1.894e-08
  6.80956    128.5 1.249e+04 1.942e-08
  6.82962    127.2 1.239e+04 1.873e-08
  6.84653    126.1 1.205e+04 1.604e-08
  6.85656    125.4 1.176e+04 1.435e-08
  6.86705    124.2 1.131e+04 1.155e-08
  6.87708    123.8 1.111e+04 1.043e-08
  6.88980    122.7 1.062e+04 8.223e-09
  6.90986    121.8 1.020e+04 7.070e-09
  6.92992    121.5 1.012e+04 6.943e-09
  6.94998    121.4 1.012e+04 6.949e-09
  6.96294    121.5 1.014e+04 7.034e-09
  6.97297    121.5 9.892e+03 5.892e-09
  6.99010    121.8 9.948e+03 6.004e-09
  7.01017    122.2 1.010e+04 6.350e-09
  7.03023    122.5 1.034e+04 6.996e-09
  7.04880    122.9 1.061e+04 7.931e-09
  7.05883    123.3 1.029e+04 6.422e-09
  7.07035    123.4 1.059e+04 7.487e-09
  7.08820    123.3 1.136e+04 1.014e-08
  7.09823    122.4 1.242e+04 1.336e-08
  7.11047    119.6 1.624e+04 3.790e-08
  7.13053    115.8 1.946e+04 9.315e-08
  7.14464    114.5 2.044e+04 1.419e-07
  7.14961    118.7 2.012e+04 1.114e-07
  7.15551    114.2 2.130e+04 3.020e-07
  7.16554    107.6 2.190e+04 6.867e-07
  7.17557     98.0 2.256e+04 1.115e-06
  7.18560     85.3 2.470e+04 9.980e-07
  7.19254     71.6 2.664e+04 6.098e-07
  7.19756     72.0 2.348e+04 1.730e-06
  7.20566     59.6 2.757e+04 4.000e-07
  7.21396     49.3 2.335e+04 1.544e-07
  7.21897     45.0 1.846e+04 1.047e-07
  7.22572     44.6 1.838e+04 9.165e-08
  7.23547     42.5 1.741e+04 7.457e-08
  7.24049     40.6 1.713e+04 7.872e-08
  7.25084     37.6 1.701e+04 6.478e-08
  7.27095     35.5 1.540e+04 3.854e-08
  7.29101     34.3 1.386e+04 2.182e-08
  7.31107     33.2 1.286e+04 1.370e-08
  7.32645     32.4 1.231e+04 1.053e-08
  7.33522     32.7 1.285e+04 1.419e-08
  7.33991     32.0 1.250e+04 1.003e-08
  7.36132     30.9 1.200e+04 6.881e-09
  7.40154     30.2 1.162e+04 5.275e-09
  7.42254     30.0 1.117e+04 3.665e-09
  7.44260     29.1 1.167e+04 5.270e-09
  7.48178     29.2 1.102e+04 3.270e-09
  7.52190     29.6 1.025e+04 2.381e-09
  7.56202     30.6 9.866e+03 2.282e-09
  7.59426     31.8 9.823e+03 2.343e-09
  7.61432     31.9 9.918e+03 2.544e-09
  7.64226     33.0 9.940e+03 2.899e-09
  7.68238     33.5 1.005e+04 3.650e-09
  7.72251     33.6 1.014e+04 4.477e-09
  7.76263     33.7 1.008e+04 4.547e-09
  7.78605     34.0 9.848e+03 4.069e-09
  7.80611     34.7 1.006e+04 5.145e-09
  7.82345     35.6 9.481e+03 2.943e-09
  7.84351     36.4 9.875e+03 4.442e-09
  7.88299     37.4 9.346e+03 2.630e-09
  7.92311     38.3 8.875e+03 1.248e-09
  7.95777     39.0 8.514e+03 7.014e-10
  7.97783     39.5 8.526e+03 6.723e-10
  8.00335     40.8 8.435e+03 6.591e-10
  8.04347     42.7 8.391e+03 6.978e-10
  8.08359     44.7 8.405e+03 8.175e-10
  8.12371     46.6 8.502e+03 9.499e-10
  8.14956     48.4 8.620e+03 1.034e-09
  8.16962     49.3 8.622e+03 1.025e-09
  8.20395     50.8 8.729e+03 1.113e-09
  8.24408     52.1 8.937e+03 1.449e-09
  8.28420     53.3 9.300e+03 2.281e-09
  8.30679     54.5 9.820e+03 3.723e-09
  8.32382     55.3 9.795e+03 3.485e-09
  8.34134     56.3 9.934e+03 4.144e-09
  8.36444     57.3 1.052e+04 5.835e-09
  8.40456     57.5 1.070e+04 5.885e-09
  8.44468     57.9 1.064e+04 5.091e-09
  8.48480     58.5 1.047e+04 3.073e-09
  8.51306     58.8 1.025e+04 1.389e-09
  8.53313     60.0 1.064e+04 2.877e-09
  8.56504     59.9 1.049e+04 1.553e-09
  8.60516     59.4 1.023e+04 1.233e-09
  8.64528     58.8 1.013e+04 1.409e-09
  8.68479     58.7 1.013e+04 2.009e-09
  8.70485     59.2 1.032e+04 2.319e-09
  8.72553     59.1 1.032e+04 2.390e-09
  8.76565     59.1 1.031e+04 2.276e-09
  8.79014     59.0 1.037e+04 2.173e-09
  8.81020     59.8 1.049e+04 2.285e-09
  8.84589     59.5 1.059e+04 2.388e-09
  8.87657     59.2 1.074e+04 2.646e-09
  8.89664     59.5 1.076e+04 2.618e-09
  8.92613     58.9 1.081e+04 2.688e-09
  8.96625     58.3 1.075e+04 2.547e-09
  9.00637     58.0 1.060e+04 2.018e-09
  9.04649     57.7 1.047e+04 1.459e-09
  9.06836     57.4 1.041e+04 1.169e-09
  9.08842     58.3 1.042e+04 1.375e-09
  9.12673     58.2 1.042e+04 1.299e-09
  9.16685     58.2 1.043e+04 1.286e-09
  9.20698     58.0 1.043e+04 1.357e-09
  9.24008     57.7 1.050e+04 1.487e-09
  9.26014     58.1 1.058e+04 1.551e-09
  9.27349     57.4 1.065e+04 1.754e-09
  9.29355     57.2 1.072e+04 1.552e-09
  9.32734     57.1 1.077e+04 1.720e-09
  9.36746     57.0 1.078e+04 1.733e-09
  9.40758     57.3 1.080e+04 1.605e-09
  9.43187     57.9 1.085e+04 1.341e-09
  9.45193     57.7 1.088e+04 1.413e-09
  9.48782     58.5 1.089e+04 1.252e-09
  9.52794     59.6 1.087e+04 1.252e-09
  9.56806     60.8 1.087e+04 1.288e-09
  9.60359     62.2 1.090e+04 1.379e-09
  9.62365     62.2 1.076e+04 1.347e-09
  9.64830     63.6 1.077e+04 1.347e-09
  9.68843     64.9 1.080e+04 1.318e-09
  9.72855     66.2 1.083e+04 1.299e-09
  9.75683     67.4 1.085e+04 1.321e-09
  9.77689     67.9 1.089e+04 1.246e-09
  9.79538     69.0 1.094e+04 1.340e-09
  9.81544     69.0 1.085e+04 1.192e-09
  9.84891     70.2 1.090e+04 1.511e-09
  9.88903     71.4 1.094e+04 2.159e-09
  9.92915     72.7 1.109e+04 3.171e-09
  9.96710     73.8 1.129e+04 3.633e-09
  9.98716     74.2 1.099e+04 2.274e-09
 10.00939     75.1 1.107e+04 2.271e-09
 10.04951     75.8 1.114e+04 2.149e-09
 10.08963     76.6 1.123e+04 1.781e-09
 10.12975     77.2 1.134e+04 1.311e-09
 10.15889     77.7 1.146e+04 8.954e-10
 10.17895     78.8 1.135e+04 1.095e-09
 10.21000     79.3 1.146e+04 9.109e-10
 10.24018     79.9 1.148e+04 8.583e-10
 10.26024     79.9 1.151e+04 8.671e-10
 10.29024     80.6 1.150e+04 9.008e-10
 10.33036     81.4 1.153e+04 1.075e-09
 10.35067     81.7 1.163e+04 1.480e-09
 10.37073     82.2 1.165e+04 1.461e-09
 10.41060     82.2 1.174e+04 1.956e-09
 10.45072     82.0 1.186e+04 2.915e-09
 10.49084     81.6 1.207e+04 4.502e-09
 10.52240     80.9 1.250e+04 5.827e-09
 10.54246     81.5 1.225e+04 4.426e-09
 10.57108     80.7 1.258e+04 4.735e-09
 10.61120     79.9 1.263e+04 4.504e-09
 10.65133     79.7 1.272e+04 3.652e-09
 10.69145     79.8 1.293e+04 2.810e-09
 10.71418     80.1 1.303e+04 2.694e-09
 10.72620     81.2 1.298e+04 2.642e-09
 10.74358     81.7 1.283e+04 2.242e-09
 10.77169     82.1 1.300e+04 2.414e-09
 10.81181     82.4 1.326e+04 3.352e-09
 10.85193     82.6 1.342e+04 5.153e-09
 10.88591     82.2 1.384e+04 9.271e-09
 10.90597     83.9 1.383e+04 7.955e-09
 10.92204     82.5 1.419e+04 1.080e-08
 10.94201     81.4 1.445e+04 1.383e-08
 10.96207     80.2 1.457e+04 1.610e-08
 10.97503     79.2 1.458e+04 1.621e-08
 10.98454     79.8 1.466e+04 1.505e-08
 10.99164     80.7 1.462e+04 1.512e-08
 11.00219     79.7 1.460e+04 1.472e-08
 11.02225     78.9 1.450e+04 1.327e-08
 11.05244     77.3 1.424e+04 1.026e-08
 11.07769     77.1 1.382e+04 6.812e-09
 11.09775     78.8 1.384e+04 8.367e-09
 11.13277     78.8 1.364e+04 6.362e-09
 11.17290     79.0 1.364e+04 5.017e-09
 11.20687     79.3 1.372e+04 3.849e-09
 11.22693     79.5 1.374e+04 3.111e-09
 11.24942     79.7 1.384e+04 2.419e-09
 11.26948     81.1 1.385e+04 3.536e-09
 11.29326     80.8 1.394e+04 2.455e-09
 11.33338     80.7 1.404e+04 1.592e-09
 11.37350     80.8 1.428e+04 9.496e-10
 11.41362     80.7 1.385e+04 6.976e-10
 11.44120     80.9 1.353e+04 6.976e-10
 11.46126     81.7 1.405e+04 7.348e-10
 11.49386     82.0 1.390e+04 7.608e-10
 11.53398     82.3 1.354e+04 9.222e-10
 11.57410     82.7 1.329e+04 1.197e-09
 11.61293     83.1 1.315e+04 1.383e-09
 11.63299     83.1 1.328e+04 1.370e-09
 11.65435     83.3 1.319e+04 1.350e-09
 11.69021     83.6 1.312e+04 1.245e-09
 11.71027     83.6 1.314e+04 1.631e-09
 11.73459     83.7 1.303e+04 1.746e-09
 11.77471     84.2 1.297e+04 1.973e-09
 11.80471     85.1 1.289e+04 2.384e-09
 11.82477     84.3 1.312e+04 2.461e-09
 11.85495     85.5 1.305e+04 2.743e-09
 11.89507     86.9 1.298e+04 2.783e-09
 11.93519     88.5 1.290e+04 2.558e-09
 11.97531     90.4 1.286e+04 2.039e-09
 11.99650     92.3 1.287e+04 1.513e-09
 12.01656     91.6 1.297e+04 1.517e-09
 12.05555     93.5 1.297e+04 1.679e-09
 12.09567     95.5 1.294e+04 2.105e-09
 12.13580     97.5 1.285e+04 2.859e-09
 12.16822     99.3 1.276e+04 3.877e-09
 12.18593     98.8 1.316e+04 7.965e-09
 12.19362     98.9 1.290e+04 5.350e-09
 12.21604    100.7 1.292e+04 6.437e-09
 12.25616    102.6 1.296e+04 7.453e-09
 12.29628    104.3 1.306e+04 8.361e-09
 12.33640    105.8 1.318e+04 8.894e-09
 12.36001    107.3 1.320e+04 9.222e-09
 12.38007    106.0 1.332e+04 9.471e-09
 12.41664    107.5 1.327e+04 8.978e-09
 12.45676    109.0 1.323e+04 7.896e-09
 12.49688    110.5 1.313e+04 6.502e-09
 12.53173    112.1 1.300e+04 4.978e-09
 12.55179    112.1 1.292e+04 4.062e-09
 12.57712    114.0 1.280e+04 2.975e-09
 12.61725    116.0 1.273e+04 2.126e-09
 12.65691    118.0 1.272e+04 1.601e-09
 12.67697    118.3 1.271e+04 2.099e-09
 12.69749    120.3 1.265e+04 1.695e-09
 12.72352    122.4 1.259e+04 1.646e-09
 12.74358    122.9 1.256e+04 1.634e-09
 12.77773    125.0 1.255e+04 1.689e-09
 12.81785    127.0 1.251e+04 1.936e-09
 12.85797    128.8 1.247e+04 2.469e-09
 12.89524    130.4 1.245e+04 3.209e-09
 12.91530    131.0 1.246e+04 4.140e-09
 12.93821    132.2 1.247e+04 4.974e-09
 12.97833    132.8 1.244e+04 5.063e-09
 13.01845    133.1 1.237e+04 4.917e-09
 13.05857    133.4 1.218e+04 4.352e-09
 13.08703    133.7 1.197e+04 3.533e-09
 13.10709    133.9 1.200e+04 4.529e-09
 13.13882    134.2 1.179e+04 3.612e-09
 13.16031    134.7 1.156e+04 2.873e-09
 13.18037    134.4 1.157e+04 2.852e-09
 13.21906    135.2 1.136e+04 2.448e-09
 13.25875    136.3 1.121e+04 2.249e-09
 13.27881    136.0 1.117e+04 2.070e-09
 13.29930    137.1 1.107e+04 1.790e-09
 13.33942    138.4 1.098e+04 1.613e-09
 13.37954    139.8 1.088e+04 1.540e-09
 13.41966    141.3 1.086e+04 1.541e-09
 13.45054    142.9 1.082e+04 1.574e-09
 13.47060    142.6 1.070e+04 1.527e-09
 13.49990    144.2 1.065e+04 1.684e-09
 13.54002    145.8 1.061e+04 1.940e-09
 13.58015    147.4 1.062e+04 2.295e-09
 13.62027    148.9 1.067e+04 2.805e-09
 13.64232    150.5 1.100e+04 3.785e-09
 13.64566    150.2 1.073e+04 3.304e-09
 13.66372    149.4 1.064e+04 3.228e-09
 13.70051    150.7 1.086e+04 3.824e-09
 13.72809    151.1 1.101e+04 4.374e-09
 13.73802    151.1 1.097e+04 4.151e-09
 13.75046    151.4 1.103e+04 4.314e-09
 13.77052    151.7 1.110e+04 4.596e-09
 13.79058    152.0 1.118e+04 5.083e-09
 13.81064    152.2 1.127e+04 5.681e-09
 13.82388    152.5 1.136e+04 6.310e-09
 13.83391    152.4 1.125e+04 6.000e-09
 13.85077    152.7 1.137e+04 6.613e-09
 13.87083    152.9 1.148e+04 7.175e-09
 13.88514    153.2 1.158e+04 7.600e-09
 13.89517    153.2 1.139e+04 6.527e-09
 13.90974    153.4 1.147e+04 6.803e-09
 13.91978    153.4 1.130e+04 6.144e-09
 13.93101    153.6 1.137e+04 6.153e-09
 13.95107    153.8 1.137e+04 6.128e-09
 13.97113    154.0 1.138e+04 6.005e-09
 13.99119    154.3 1.135e+04 5.740e-09
 14.00564    154.7 1.129e+04 5.367e-09
 14.01567    154.8 1.106e+04 4.708e-09
 14.03131    155.2 1.100e+04 4.402e-09
 14.05137    155.6 1.095e+04 4.184e-09
 14.07143    155.9 1.094e+04 4.134e-09
 14.09149    156.3 1.096e+04 4.151e-09
 14.11155    156.7 1.095e+04 4.099e-09
 14.12681    156.9 1.102e+04 4.354e-09
 14.13684    157.1 1.107e+04 4.238e-09
 14.15167    157.0 1.113e+04 4.562e-09
 14.17173    157.0 1.120e+04 4.887e-09
 14.18739    156.8 1.127e+04 5.196e-09
 14.19742    156.9 1.115e+04 5.010e-09
 14.21185    156.7 1.122e+04 5.288e-09
 14.23191    156.4 1.131e+04 5.548e-09
 14.25197    156.1 1.142e+04 5.759e-09
 14.27203    155.6 1.151e+04 5.801e-09
 14.28328    155.0 1.152e+04 5.778e-09
 14.29332    154.7 1.149e+04 5.689e-09
 14.31215    154.0 1.148e+04 5.572e-09
 14.34234    153.3 1.156e+04 5.374e-09
 14.36934    152.3 1.156e+04 4.860e-09
 14.38940    151.8 1.145e+04 4.865e-09
 14.42268    150.2 1.146e+04 4.247e-09
 14.46280    148.4 1.141e+04 3.511e-09
 14.50292    146.8 1.128e+04 2.728e-09
 14.54107    145.5 1.107e+04 2.055e-09
 14.56113    144.4 1.093e+04 1.918e-09
 14.58317    144.1 1.072e+04 1.379e-09
 14.61035    143.9 1.063e+04 1.024e-09
 14.63041    143.4 1.062e+04 1.047e-09
 14.66341    143.8 1.060e+04 8.402e-10
 14.70353    144.6 1.047e+04 8.046e-10
 14.73285    145.5 1.047e+04 8.053e-10
 14.75291    145.3 1.043e+04 7.383e-10
 14.78377    146.1 1.045e+04 7.846e-10
 14.82389    146.8 1.044e+04 8.698e-10
 14.86401    147.3 1.039e+04 9.745e-10
 14.90413    147.7 1.035e+04 1.081e-09
 14.92464    148.0 1.030e+04 1.191e-09
 14.94470    147.8 1.040e+04 1.264e-09
 14.98437    148.2 1.035e+04 1.379e-09
 15.02449    148.5 1.030e+04 1.438e-09
 15.06462    148.9 1.029e+04 1.431e-09
 15.09370    149.3 1.024e+04 1.392e-09
 15.10538    149.1 1.015e+04 1.232e-09
 15.11642    149.0 1.019e+04 1.173e-09
 15.14486    149.6 1.013e+04 1.158e-09
 15.18498    150.4 1.011e+04 1.163e-09
 15.22510    151.3 1.007e+04 1.202e-09
 15.26522    152.4 1.003e+04 1.343e-09
 15.28815    153.7 1.017e+04 1.705e-09
 15.30821    153.9 1.025e+04 1.605e-09
 15.34546    154.6 1.048e+04 2.080e-09
 15.37391    154.7 1.061e+04 2.472e-09
 15.38384    154.7 1.061e+04 2.426e-09
 15.39542    154.8 1.078e+04 3.070e-09
 15.41548    154.7 1.112e+04 4.599e-09
 15.43554    154.4 1.167e+04 7.718e-09
 15.45560    153.9 1.240e+04 1.347e-08
 15.46971    153.1 1.314e+04 2.203e-08
 15.47974    153.2 1.299e+04 2.038e-08
 15.49572    152.1 1.350e+04 2.578e-08
 15.51578    150.4 1.359e+04 2.600e-08
 15.53584    148.5 1.349e+04 2.434e-08
 15.55557    146.9 1.306e+04 1.929e-08
 15.56560    147.5 1.280e+04 1.665e-08
 15.57694    144.9 1.221e+04 1.089e-08
 15.59700    145.1 1.211e+04 9.876e-09
 15.62621    143.2 1.153e+04 5.568e-09
 15.65166    141.1 1.051e+04 2.402e-09
 15.67172    142.9 1.090e+04 2.793e-09
 15.70655    141.5 1.014e+04 1.726e-09
 15.74667    141.2 1.004e+04 1.713e-09
 15.78679    141.2 1.006e+04 1.780e-09
 15.82338    141.7 1.013e+04 2.006e-09
 15.84334    141.8 1.042e+04 2.528e-09
 15.85681    141.9 1.042e+04 2.725e-09
 15.87687    142.0 1.048e+04 3.092e-09
 15.89693    142.2 1.062e+04 3.718e-09
 15.91699    142.4 1.081e+04 4.621e-09
 15.92911    142.6 1.101e+04 5.637e-09
 15.93914    142.8 1.121e+04 6.491e-09
 15.95711    142.8 1.138e+04 7.492e-09
 15.97717    142.8 1.156e+04 8.695e-09
 15.99723    142.5 1.176e+04 1.005e-08
 16.01497    142.0 1.194e+04 1.101e-08
 16.02500    141.9 1.209e+04 1.198e-08
 16.03735    140.9 1.214e+04 1.209e-08
 16.05741    139.9 1.209e+04 1.185e-08
 16.07022    139.0 1.189e+04 1.082e-08
 16.08025    139.1 1.164e+04 8.758e-09
 16.09753    138.5 1.138e+04 7.642e-09
 16.11086    138.0 1.108e+04 6.522e-09
 16.12089    137.9 1.120e+04 7.256e-09
 16.13765    137.5 1.089e+04 6.467e-09
 16.15771    137.4 1.069e+04 6.258e-09
 16.17777    137.5 1.068e+04 6.285e-09
 16.19673    137.6 1.068e+04 6.441e-09
 16.20676    137.8 1.082e+04 7.219e-09
 16.21789    137.8 1.090e+04 7.633e-09
 16.23795    137.8 1.107e+04 8.517e-09
 16.25801    137.4 1.142e+04 1.039e-08
 16.27807    136.5 1.208e+04 1.429e-08
 16.29262    135.5 1.309e+04 2.230e-08
 16.30265    134.4 1.435e+04 4.085e-08
 16.31190    133.7 1.541e+04 6.460e-08
 16.32193    133.9 1.569e+04 6.979e-08
 16.33826    133.0 1.680e+04 1.121e-07
 16.35832    131.6 1.731e+04 1.331e-07
 16.37838    129.8 1.728e+04 1.295e-07
 16.38851    128.3 1.698e+04 1.123e-07
 16.39854    127.1 1.722e+04 1.209e-07
 16.41850    125.8 1.654e+04 9.158e-08
 16.43856    124.4 1.576e+04 7.068e-08
 16.45862    123.4 1.522e+04 6.154e-08
 16.47362    122.8 1.491e+04 5.603e-08
 16.47929    122.5 1.476e+04 5.295e-08
 16.48436    121.6 1.387e+04 3.724e-08
 16.49874    121.0 1.379e+04 3.655e-08
 16.51880    120.3 1.377e+04 3.609e-08
 16.53886    118.9 1.366e+04 3.421e-08
 16.55357    117.0 1.339e+04 3.076e-08
 16.56360    117.6 1.346e+04 3.164e-08
 16.57027    115.3 1.300e+04 2.620e-08
 16.58030    114.3 1.213e+04 2.051e-08
 16.59904    112.2 1.205e+04 1.925e-08
 16.61910    110.1 1.199e+04 1.770e-08
 16.63916    108.0 1.188e+04 1.582e-08
 16.65613    106.0 1.170e+04 1.363e-08
 16.66616    106.2 1.186e+04 1.532e-08
 16.67928    104.4 1.164e+04 1.317e-08
 16.69934    102.9 1.134e+04 1.127e-08
 16.71940    101.8 1.110e+04 1.006e-08
 16.73946    100.9 1.104e+04 9.498e-09
 16.75202    100.3 1.108e+04 9.429e-09
 16.76205    100.5 1.109e+04 9.571e-09
 16.77959    100.1 1.111e+04 9.319e-09
 16.79524     99.7 1.113e+04 9.100e-09
 16.80527    100.0 1.113e+04 9.242e-09
 16.81971     99.7 1.116e+04 8.913e-09
 16.83788     99.6 1.117e+04 8.472e-09
 16.84791     99.9 1.136e+04 9.633e-09
 16.85983    100.0 1.137e+04 9.294e-09
 16.87989    100.1 1.138e+04 9.060e-09
 16.89995    100.5 1.137e+04 9.020e-09
 16.92001    101.2 1.141e+04 9.114e-09
 16.93378    101.4 1.162e+04 9.781e-09
 16.94381    101.7 1.193e+04 1.224e-08
 16.96013    101.5 1.253e+04 1.518e-08
 16.98019    101.0 1.379e+04 2.538e-08
 17.00025    100.6 1.527e+04 4.863e-08
 17.01964    100.2 1.672e+04 9.175e-08
 17.02967    100.1 1.664e+04 8.989e-08
 17.03691     98.9 1.792e+04 1.286e-07
 17.04694     98.2 1.721e+04 9.332e-08
 17.06043     96.2 1.729e+04 8.133e-08
 17.08049     93.6 1.723e+04 4.673e-08
 17.10055     89.3 1.630e+04 2.885e-08
 17.11553     85.3 1.536e+04 2.921e-08
 17.12556     84.9 1.430e+04 2.046e-08
 17.14067     82.9 1.404e+04 2.395e-08
 17.16073     82.5 1.410e+04 2.964e-08
 17.18079     82.5 1.439e+04 3.377e-08
 17.20085     82.4 1.476e+04 3.580e-08
 17.21137     82.4 1.478e+04 3.415e-08
 17.22141     82.3 1.450e+04 2.637e-08
 17.24097     82.1 1.493e+04 3.142e-08
 17.25431     82.1 1.505e+04 3.357e-08
 17.25927     82.0 1.490e+04 3.066e-08
 17.26595     82.0 1.496e+04 3.070e-08
 17.27598     81.7 1.523e+04 3.314e-08
 17.28351     81.6 1.569e+04 4.041e-08
 17.28857     82.5 1.509e+04 2.566e-08
 17.29609     82.1 1.575e+04 3.107e-08
 17.30220     82.0 1.636e+04 3.926e-08
 17.30727     81.8 1.493e+04 2.164e-08
 17.31615     81.4 1.613e+04 3.242e-08
 17.32613     81.4 1.685e+04 4.455e-08
 17.33616     81.2 1.738e+04 5.939e-08
 17.34513     81.2 1.775e+04 7.633e-08
 17.35015     80.7 1.694e+04 4.810e-08
 17.35622     80.5 1.728e+04 6.072e-08
 17.36625     80.5 1.745e+04 7.335e-08
 17.37628     80.5 1.752e+04 8.518e-08
 17.38631     80.5 1.758e+04 9.609e-08
 17.39308     80.7 1.767e+04 1.060e-07
 17.39810     80.4 1.695e+04 8.387e-08
 17.40434     80.6 1.708e+04 9.218e-08
 17.40936     79.7 1.650e+04 7.066e-08
 17.41641     79.9 1.664e+04 7.721e-08
 17.42644     80.1 1.680e+04 8.270e-08
 17.43601     80.2 1.701e+04 8.766e-08
 17.44103     80.2 1.657e+04 7.157e-08
 17.44650     80.1 1.677e+04 7.522e-08
 17.45653     80.0 1.690e+04 7.833e-08
 17.46656     80.0 1.700e+04 8.178e-08
 17.47659     80.0 1.714e+04 8.624e-08
 17.48396     80.0 1.733e+04 9.180e-08
 17.48897     79.9 1.677e+04 7.490e-08
 17.49665     79.9 1.695e+04 8.039e-08
 17.50668     79.8 1.719e+04 8.696e-08
 17.51671     79.7 1.754e+04 9.479e-08
 17.52518     79.4 1.792e+04 1.023e-07
 17.53019     77.8 1.652e+04 7.307e-08
 17.53190     77.5 1.665e+04 7.859e-08
 17.53692     77.0 1.590e+04 6.343e-08
 17.54680     76.7 1.596e+04 6.747e-08
 17.55683     76.5 1.601e+04 7.110e-08
 17.56686     76.1 1.612e+04 7.538e-08
 17.57484     75.3 1.700e+04 8.151e-08
 17.57985     74.3 1.570e+04 6.357e-08
 17.58692     72.8 1.618e+04 6.521e-08
 17.59695     69.2 1.773e+04 7.775e-08
 17.60698     65.3 1.953e+04 9.123e-08
 17.61701     61.0 2.099e+04 1.029e-07
 17.62278     57.7 2.127e+04 1.151e-07
 17.62780     59.8 1.821e+04 7.404e-08
 17.63707     56.8 1.852e+04 8.637e-08
 17.64601     55.8 1.816e+04 9.372e-08
 17.65103     56.4 1.753e+04 7.720e-08
 17.66075     54.2 1.760e+04 8.338e-08
 17.67083     55.9 1.592e+04 5.456e-08
 17.68230     54.8 1.497e+04 4.267e-08
 17.70236     54.3 1.419e+04 3.040e-08
 17.72242     54.8 1.343e+04 2.368e-08
 17.74248     55.6 1.292e+04 1.944e-08
 17.75669     57.1 1.244e+04 1.616e-08
 17.76611     58.2 1.252e+04 1.828e-08
 17.77196     58.9 1.211e+04 1.719e-08
 17.78261     60.0 1.177e+04 1.437e-08
 17.80267     61.1 1.147e+04 1.149e-08
 17.82273     62.1 1.116e+04 9.080e-09
 17.84255     63.0 1.085e+04 7.641e-09
 17.85258     63.7 1.094e+04 8.310e-09
 17.86285     64.7 1.066e+04 7.332e-09
 17.88291     65.8 1.039e+04 6.947e-09
 17.90297     67.2 1.014e+04 6.640e-09
 17.92303     68.7 9.957e+03 6.382e-09
 17.93844     70.2 9.902e+03 6.276e-09
 17.94847     70.4 9.767e+03 5.842e-09
 17.96315     71.7 9.784e+03 5.839e-09
 17.98321     73.0 9.930e+03 6.049e-09
 18.00327     73.2 1.037e+04 6.962e-09
 18.01364     73.1 1.136e+04 9.859e-09
 18.02367     72.1 1.123e+04 1.039e-08
 18.03434     71.8 1.252e+04 1.790e-08
 18.04437     71.6 1.229e+04 2.025e-08
 18.06345     71.5 1.374e+04 3.700e-08
 18.08351     71.4 1.565e+04 7.062e-08
 18.10357     70.8 1.737e+04 1.245e-07
 18.12020     69.7 1.837e+04 1.826e-07
 18.13023     69.6 1.802e+04 1.848e-07
 18.14369     67.7 1.843e+04 1.994e-07
 18.16375     65.9 1.832e+04 1.805e-07
 18.18381     64.8 1.773e+04 1.303e-07
 18.20387     64.6 1.674e+04 8.397e-08
 18.21609     64.5 1.564e+04 5.552e-08
 18.22612     64.1 1.500e+04 4.512e-08
 18.24400     63.7 1.453e+04 3.549e-08
 18.25531     63.7 1.460e+04 3.515e-08
 18.26534     64.9 1.405e+04 3.475e-08
 18.28412     65.0 1.437e+04 3.703e-08
 18.30195     65.0 1.499e+04 4.471e-08
 18.31198     65.4 1.484e+04 4.492e-08
 18.31917     64.9 1.545e+04 4.952e-08
 18.32915     64.7 1.584e+04 5.339e-08
 18.33918     64.4 1.624e+04 5.963e-08
 18.34921     64.3 1.642e+04 6.261e-08
 18.35482     64.0 1.674e+04 7.165e-08
 18.35983     64.2 1.681e+04 7.558e-08
 18.36928     64.0 1.689e+04 8.383e-08
 18.37605     63.7 1.719e+04 9.953e-08
 18.38106     64.3 1.720e+04 1.152e-07
 18.38934     64.4 1.751e+04 1.374e-07
 18.39780     63.8 1.762e+04 1.361e-07
 18.40788     64.5 1.769e+04 1.470e-07
 18.42454     63.5 1.790e+04 1.516e-07
 18.44460     62.9 1.756e+04 1.234e-07
 18.46466     62.7 1.667e+04 6.769e-08
 18.48371     61.9 1.524e+04 2.786e-08
 18.49374     62.0 1.614e+04 4.339e-08
 18.49698     59.8 1.441e+04 1.801e-08
 18.50701     60.4 1.604e+04 4.979e-08
 18.52484     58.7 1.459e+04 2.165e-08
 18.54490     56.7 1.286e+04 1.187e-08
 18.56496     55.4 1.200e+04 1.015e-08
 18.57960     55.3 1.200e+04 1.018e-08
 18.58963     54.6 1.210e+04 1.236e-08
 18.60508     54.6 1.210e+04 1.278e-08
 18.62514     54.8 1.229e+04 1.348e-08
 18.64520     55.1 1.254e+04 1.430e-08
 18.66526     55.1 1.269e+04 1.478e-08
 18.67549     55.4 1.276e+04 1.500e-08
 18.68552     54.7 1.278e+04 1.527e-08
 18.71551     54.8 1.265e+04 1.470e-08
 18.75152     55.4 1.234e+04 1.312e-08
 18.77158     54.4 1.217e+04 1.230e-08
 18.79585     55.7 1.168e+04 9.408e-09
 18.83597     57.4 1.122e+04 7.058e-09
 18.87609     59.2 1.086e+04 5.463e-09
 18.91621     61.3 1.062e+04 4.514e-09
 18.94331     63.7 1.055e+04 4.034e-09
 18.96337     63.5 1.050e+04 3.963e-09
 18.98052     65.8 1.039e+04 3.488e-09
 19.00058     65.5 1.008e+04 2.832e-09
 19.03658     68.0 1.000e+04 2.420e-09
 19.07670     70.4 9.922e+03 2.033e-09
 19.11503     72.7 9.843e+03 1.796e-09
 19.13509     72.2 9.641e+03 1.430e-09
 19.15694     74.5 9.628e+03 1.441e-09
 19.19706     76.9 9.640e+03 1.532e-09
 19.23718     79.2 9.775e+03 1.778e-09
 19.27730     81.6 9.989e+03 2.125e-09
 19.30682     83.9 1.018e+04 2.433e-09
 19.32688     83.4 9.963e+03 2.086e-09
 19.35754     85.7 1.010e+04 2.131e-09
 19.39766     88.1 1.019e+04 2.151e-09
 19.43778     90.2 1.022e+04 2.214e-09
 19.46387     92.8 1.022e+04 2.461e-09
 19.47380     91.6 1.015e+04 2.242e-09
 19.48774     92.9 1.014e+04 2.390e-09
 19.49841     94.1 1.012e+04 2.593e-09
 19.50844     94.2 1.008e+04 2.582e-09
 19.52786     95.4 1.009e+04 2.869e-09
 19.54792     96.5 1.010e+04 3.156e-09
 19.56798     97.5 1.012e+04 3.386e-09
 19.58427     98.6 1.023e+04 3.684e-09
 19.59430     97.5 1.101e+04 4.960e-09
 19.60810     98.6 1.121e+04 5.727e-09
 19.62816     99.8 1.138e+04 6.425e-09
 19.64822    101.1 1.152e+04 6.939e-09
 19.66828    102.3 1.161e+04 7.162e-09
 19.68016    103.6 1.161e+04 7.102e-09
 19.69019    102.6 1.232e+04 1.094e-08
 19.70535    103.9 1.219e+04 1.024e-08
 19.71538    102.7 1.430e+04 3.168e-08
 19.72847    104.1 1.409e+04 2.848e-08
 19.74853    105.4 1.387e+04 2.508e-08
 19.76602    106.6 1.364e+04 2.198e-08
 19.77605    106.0 1.372e+04 2.489e-08
 19.78865    107.1 1.355e+04 2.308e-08
 19.80871    108.3 1.353e+04 2.303e-08
 19.82877    109.5 1.356e+04 2.354e-08
 19.84883    110.7 1.363e+04 2.517e-08
 19.86192    112.0 1.376e+04 2.792e-08
 19.87195    111.5 1.396e+04 3.122e-08
 19.88895    112.9 1.420e+04 3.498e-08
 19.90901    114.4 1.445e+04 3.872e-08
 19.92907    115.7 1.462e+04 4.168e-08
 19.94702    117.0 1.472e+04 4.203e-08
 19.95570    115.9 1.501e+04 4.177e-08
 19.95781    115.2 1.459e+04 3.703e-08
 19.96919    116.4 1.456e+04 3.602e-08
 19.98925    117.5 1.442e+04 3.393e-08
 20.00931    118.6 1.426e+04 3.106e-08
 20.02937    119.6 1.408e+04 2.774e-08
 20.04367    120.5 1.392e+04 2.465e-08
 20.05370    119.1 1.397e+04 2.500e-08
 20.06949    119.8 1.395e+04 2.351e-08
 20.08955    120.8 1.400e+04 2.395e-08
 20.10961    121.9 1.404e+04 2.410e-08
 20.12461    122.1 1.434e+04 2.552e-08
 20.13445    122.1 1.501e+04 2.812e-08
 20.13946    120.8 1.633e+04 3.789e-08
 20.14462    120.3 1.766e+04 4.590e-08
 20.15465    119.7 1.909e+04 5.920e-08
 20.16468    118.7 2.013e+04 8.005e-08
 20.17471    117.9 2.043e+04 1.122e-07
 20.18240    117.5 1.999e+04 1.606e-07
 20.18741    117.0 1.913e+04 2.069e-07
 20.19361    117.3 1.846e+04 2.685e-07
 20.19863    117.1 1.783e+04 3.321e-07
 20.20480    118.1 1.756e+04 3.564e-07
 20.21483    119.2 1.750e+04 3.709e-07
 20.22486    120.1 1.752e+04 3.683e-07
 20.23034    120.8 1.757e+04 3.508e-07
 20.23536    120.9 1.768e+04 2.939e-07
 20.24492    121.4 1.769e+04 2.500e-07
 20.25495    121.5 1.818e+04 1.988e-07
 20.26498    121.1 2.019e+04 1.489e-07
 20.27327    119.8 2.312e+04 1.109e-07
 20.27829    118.7 2.586e+04 6.397e-08
 20.28504    116.4 3.108e+04 4.180e-08
 20.29507    112.8 3.554e+04 2.687e-08
 20.30510    107.7 3.761e+04 1.624e-08
 20.31445    100.0 2.889e+04 1.417e-08
 20.31946     89.2 1.433e+04 1.281e-08
 20.32122     86.4 1.422e+04 2.355e-08
 20.32623     88.3 1.349e+04 1.785e-08
 20.33520     86.1 1.529e+04 3.148e-08
 20.34523     83.0 1.737e+04 6.694e-08
 20.35526     81.4 1.786e+04 1.014e-07
 20.36415     78.8 1.902e+04 1.400e-07
 20.36917     79.8 1.874e+04 1.210e-07
 20.37532     78.2 1.906e+04 1.448e-07
 20.38535     75.2 1.977e+04 1.436e-07
 20.39538     72.5 1.975e+04 1.369e-07
 20.40541     67.7 2.042e+04 1.097e-07
 20.41210     63.3 2.063e+04 8.534e-08
 20.41711     66.0 2.029e+04 9.856e-08
 20.42547     58.2 2.067e+04 8.125e-08
 20.43528     53.2 1.947e+04 7.440e-08
 20.44035     56.1 1.910e+04 6.030e-08
 20.45064     46.7 1.735e+04 5.451e-08
 20.47070     40.9 1.591e+04 5.270e-08
 20.49076     37.7 1.542e+04 4.973e-08
 20.50307     35.0 1.510e+04 4.244e-08
 20.51310     35.7 1.435e+04 3.319e-08
 20.53088     32.2 1.398e+04 2.820e-08
 20.55094     29.0 1.329e+04 2.307e-08
 20.57100     26.4 1.254e+04 1.880e-08
 20.58893     24.3 1.252e+04 1.836e-08
 20.59896     25.0 1.260e+04 1.914e-08
 20.61112     21.6 1.308e+04 2.104e-08
 20.63118     17.1 1.404e+04 2.804e-08
 20.65124     13.7 1.458e+04 3.668e-08
 20.67130      7.0 1.726e+04 5.442e-08
 20.68207     -5.8 2.075e+04 1.391e-07
 20.68556      0.4 2.012e+04 1.299e-07
 20.69486      3.5 1.918e+04 9.671e-08
 20.71143     -8.5 2.041e+04 1.916e-07
 20.73149    -18.3 1.991e+04 1.753e-07
 20.75155    -26.8 1.907e+04 7.775e-08
 20.77069    -36.3 1.502e+04 2.832e-08
 20.78072    -32.6 1.638e+04 3.767e-08
 20.79167    -39.1 1.327e+04 2.176e-08
 20.81173    -41.8 1.276e+04 1.769e-08
 20.83179    -44.7 1.243e+04 1.516e-08
 20.85185    -47.5 1.213e+04 1.422e-08
 20.86658    -49.6 1.201e+04 1.414e-08
 20.87661    -48.2 1.252e+04 1.584e-08
 20.89197    -50.2 1.260e+04 1.690e-08
 20.91203    -52.4 1.296e+04 1.896e-08
 20.92374    -56.4 1.437e+04 2.559e-08
 20.93377    -57.2 1.468e+04 4.279e-08
 20.95215    -62.2 1.742e+04 7.301e-08
 20.96243    -66.8 1.903e+04 1.188e-07
 20.97246    -66.6 1.884e+04 1.061e-07
 20.98721    -73.5 1.952e+04 2.788e-07
 20.99719    -76.4 1.908e+04 4.930e-07
 21.00531    -78.6 1.875e+04 6.135e-07
 21.01032    -78.0 1.891e+04 4.803e-07
 21.01725    -79.6 1.874e+04 5.129e-07
 21.02728    -80.6 1.841e+04 4.301e-07
 21.03731    -82.1 1.866e+04 2.258e-07
 21.04448    -85.6 1.918e+04 9.537e-08
 21.04950    -85.1 1.906e+04 1.415e-07
 21.05325    -89.8 1.906e+04 5.652e-08
 21.05827    -87.4 1.903e+04 8.124e-08
 21.06740    -92.9 1.796e+04 3.596e-08
 21.07743    -98.0 1.528e+04 2.241e-08
 21.09252   -101.6 1.418e+04 1.988e-08
 21.11263   -107.2 1.379e+04 1.991e-08
 21.13269   -113.2 1.391e+04 2.966e-08
 21.14423   -118.8 1.581e+04 4.734e-08
 21.15426   -118.6 1.622e+04 5.449e-08
 21.16542   -125.3 1.721e+04 7.407e-08
 21.17545   -125.6 1.736e+04 7.569e-08
 21.19288   -133.8 1.750e+04 8.241e-08
 21.21294   -141.6 1.713e+04 8.146e-08
 21.23009   -148.0 1.600e+04 6.313e-08
 21.24012   -148.0 1.605e+04 6.377e-08
 21.25306   -153.2 1.467e+04 4.154e-08
 21.27312   -156.8 1.318e+04 2.451e-08
 21.29318   -159.4 1.171e+04 1.358e-08
 21.31324   -161.7 1.038e+04 7.664e-09
 21.32598   -163.6 9.411e+03 4.870e-09
 21.33601   -164.1 9.485e+03 4.927e-09
 21.35336   -165.7 9.141e+03 3.779e-09
 21.37342   -166.9 9.076e+03 3.510e-09
 21.39348   -168.1 9.087e+03 3.473e-09
 21.40709   -169.6 9.366e+03 3.696e-09
 21.41543   -170.7 9.759e+03 4.687e-09
 21.42188   -171.8 9.923e+03 5.137e-09
 21.43360   -173.1 1.030e+04 6.751e-09
 21.45366   -174.2 1.054e+04 8.151e-09
 21.47372   -175.2 1.063e+04 8.838e-09
 21.49378   -176.1 1.064e+04 8.966e-09
 21.50774   -177.0 1.055e+04 8.629e-09
 21.51777   -177.4 1.042e+04 7.700e-09
 21.53390   -178.1 1.014e+04 6.697e-09
 21.55396   -179.0 9.884e+03 5.971e-09
 21.57402   -179.9 9.775e+03 5.714e-09
 21.59360   -180.9 9.762e+03 5.685e-09
 21.60363   -181.3 9.429e+03 4.758e-09
 21.61414   -182.6 9.520e+03 4.994e-09
 21.63420   -184.0 9.938e+03 6.220e-09
 21.64876   -185.5 1.044e+04 8.129e-09
 21.65879   -186.2 1.019e+04 7.100e-09
 21.67433   -187.5 1.052e+04 8.635e-09
 21.68949   -188.9 1.068e+04 9.636e-09
 21.69952   -189.1 1.062e+04 9.466e-09
 21.71445   -190.5 1.065e+04 9.750e-09
 21.73451   -191.8 1.060e+04 9.771e-09
 21.75457   -192.7 1.032e+04 9.266e-09
 21.77463   -193.2 9.998e+03 8.381e-09
 21.78539   -193.5 9.718e+03 7.553e-09
 21.79542   -193.7 9.718e+03 7.607e-09
 21.81475   -193.9 9.496e+03 6.997e-09
 21.83481   -194.0 9.344e+03 6.600e-09
 21.85487   -193.8 9.267e+03 6.408e-09
 21.87125   -193.6 9.253e+03 6.375e-09
 21.88128   -193.9 9.322e+03 6.767e-09
 21.89043   -193.7 9.335e+03 6.787e-09
 21.90046   -194.2 9.104e+03 5.909e-09
 21.91505   -194.3 9.260e+03 6.364e-09
 21.93511   -194.4 9.474e+03 7.088e-09
 21.95517   -194.5 9.735e+03 8.057e-09
 21.96714   -194.6 1.004e+04 9.259e-09
 21.97717   -194.8 1.005e+04 9.405e-09
 21.99529   -194.8 1.035e+04 1.073e-08
 22.01535   -195.0 1.063e+04 1.210e-08
 22.03541   -195.3 1.085e+04 1.324e-08
 22.05300   -195.9 1.098e+04 1.393e-08
 22.06303   -195.8 1.074e+04 1.301e-08
 22.07553   -196.3 1.077e+04 1.318e-08
 22.09559   -196.6 1.077e+04 1.322e-08
 22.11565   -196.7 1.070e+04 1.304e-08
 22.13211   -196.6 1.057e+04 1.239e-08
 22.14214   -196.5 1.046e+04 1.156e-08
 22.14890   -196.3 1.037e+04 1.087e-08
 22.15893   -196.2 1.024e+04 1.046e-08
 22.17584   -195.9 1.010e+04 9.734e-09
 22.19590   -195.4 9.901e+03 8.805e-09
 22.21596   -194.8 9.724e+03 7.960e-09
 22.23476   -194.1 9.520e+03 7.058e-09
 22.24479   -193.6 9.502e+03 7.068e-09
 22.25608   -192.9 9.387e+03 6.536e-09
 22.27614   -192.1 9.269e+03 5.979e-09
 22.29620   -191.5 9.200e+03 5.593e-09
 22.31626   -190.7 9.118e+03 5.185e-09
 22.33065   -190.0 9.064e+03 4.900e-09
 22.34068   -189.3 9.260e+03 5.589e-09
 22.35638   -188.6 9.262e+03 5.437e-09
 22.37378   -187.9 9.265e+03 5.308e-09
 22.38381   -187.3 9.198e+03 5.119e-09
 22.39650   -186.6 9.228e+03 5.102e-09
 22.41651   -186.0 9.264e+03 5.053e-09
 22.43657   -185.1 9.719e+03 6.521e-09
 22.45668   -184.7 9.722e+03 6.278e-09
 22.47674   -184.5 9.625e+03 5.878e-09
 22.49680   -184.4 9.543e+03 5.357e-09
 22.51241   -184.3 9.487e+03 4.848e-09
 22.52244   -184.2 1.009e+04 6.832e-09
 22.53692   -184.4 1.011e+04 6.436e-09
 22.55698   -184.6 1.016e+04 6.280e-09
 22.57704   -184.8 1.021e+04 6.247e-09
 22.59710   -185.0 1.034e+04 6.403e-09
 22.60830   -185.2 1.043e+04 6.687e-09
 22.61662   -185.7 1.107e+04 1.030e-08
 22.62548   -184.5 1.105e+04 9.766e-09
 22.63723   -184.6 1.108e+04 9.875e-09
 22.65729   -184.7 1.109e+04 9.924e-09
 22.67735   -184.7 1.107e+04 9.949e-09
 22.69416   -184.5 1.104e+04 9.938e-09
 22.70419   -185.0 1.150e+04 1.285e-08
 22.71747   -184.7 1.144e+04 1.234e-08
 22.73753   -184.3 1.144e+04 1.189e-08
 22.75759   -184.0 1.149e+04 1.165e-08
 22.77765   -183.7 1.155e+04 1.160e-08
 22.79005   -183.5 1.183e+04 1.189e-08
 22.80008   -184.5 1.246e+04 1.473e-08
 22.81777   -184.5 1.278e+04 1.648e-08
 22.83783   -184.6 1.290e+04 1.753e-08
 22.85713   -184.5 1.290e+04 1.774e-08
 22.86716   -183.5 1.363e+04 2.446e-08
 22.87592   -183.3 1.363e+04 2.483e-08
 22.88595   -184.5 1.415e+04 3.461e-08
 22.89801   -183.7 1.378e+04 3.153e-08
 22.91807   -182.8 1.337e+04 2.526e-08
 22.93813   -182.0 1.298e+04 1.911e-08
 22.95819   -181.3 1.261e+04 1.414e-08
 22.97181   -180.6 1.218e+04 1.051e-08
 22.98184   -181.3 1.259e+04 1.535e-08
 22.99831   -180.6 1.218e+04 1.193e-08
 23.01837   -179.9 1.170e+04 9.357e-09
 23.03843   -179.2 1.120e+04 7.487e-09
 23.05767   -178.5 1.071e+04 6.181e-09
 23.06770   -178.7 1.117e+04 8.672e-09
 23.07855   -178.0 1.071e+04 6.926e-09
 23.09861   -177.2 1.034e+04 5.706e-09
 23.10883   -176.3 1.008e+04 4.842e-09
 23.11886   -175.8 1.049e+04 5.303e-09
 23.13874   -174.9 1.014e+04 4.298e-09
 23.15356   -173.9 9.914e+03 3.624e-09
 23.16359   -173.9 1.010e+04 4.136e-09
 23.17886   -172.8 9.890e+03 3.423e-09
 23.19892   -171.7 9.746e+03 2.930e-09
 23.21898   -170.5 9.675e+03 2.619e-09
 23.23904   -169.5 9.649e+03 2.427e-09
 23.24946   -168.5 9.621e+03 2.282e-09
 23.25949   -168.5 9.602e+03 2.266e-09
 23.28929   -167.4 9.580e+03 2.128e-09
 23.32548   -164.1 9.528e+03 1.989e-09
 23.34545   -163.1 9.640e+03 1.994e-09
 23.35050   -161.9 9.772e+03 2.054e-09
 23.36053   -162.2 9.717e+03 1.749e-09
 23.37946   -160.9 9.886e+03 1.734e-09
 23.39952   -159.8 1.026e+04 1.868e-09
 23.41958   -158.8 1.047e+04 2.325e-09
 23.43121   -157.8 1.071e+04 3.077e-09
 23.44124   -158.1 1.085e+04 3.320e-09
 23.45970   -157.0 1.098e+04 4.302e-09
 23.48989   -156.0 1.127e+04 5.826e-09
 23.51727   -153.9 1.177e+04 9.040e-09
 23.52720   -154.1 1.161e+04 9.606e-09
 23.53994   -153.3 1.186e+04 1.089e-08
 23.56000   -152.7 1.209e+04 1.194e-08
 23.58006   -152.2 1.230e+04 1.317e-08
 23.59217   -151.9 1.248e+04 1.473e-08
 23.60221   -152.2 1.226e+04 1.218e-08
 23.61297   -151.3 1.239e+04 1.270e-08
 23.62300   -151.2 1.226e+04 1.151e-08
 23.64025   -150.6 1.234e+04 1.139e-08
 23.66031   -150.5 1.250e+04 1.148e-08
 23.68037   -150.6 1.262e+04 1.167e-08
 23.69883   -150.7 1.269e+04 1.208e-08
 23.70886   -151.2 1.254e+04 1.186e-08
 23.72049   -151.3 1.262e+04 1.239e-08
 23.74055   -151.3 1.272e+04 1.273e-08
 23.76061   -151.2 1.290e+04 1.302e-08
 23.78067   -151.0 1.320e+04 1.350e-08
 23.79472   -150.9 1.351e+04 1.449e-08
 23.80475   -151.0 1.356e+04 1.456e-08
 23.82079   -150.5 1.362e+04 1.615e-08
 23.83385   -149.8 1.355e+04 1.815e-08
 23.84388   -149.0 1.356e+04 1.641e-08
 23.86091   -148.4 1.361e+04 2.191e-08
 23.88058   -147.5 1.367e+04 2.746e-08
 23.89061   -147.3 1.360e+04 2.797e-08
 23.90103   -146.4 1.377e+04 3.045e-08
 23.92109   -145.6 1.384e+04 3.104e-08
 23.94115   -144.7 1.400e+04 2.879e-08
 23.96121   -144.1 1.421e+04 2.050e-08
 23.97648   -143.9 1.426e+04 1.313e-08
 23.98651   -145.4 1.553e+04 1.565e-08
 24.00133   -145.6 1.514e+04 1.176e-08
 24.02139   -145.8 1.421e+04 1.049e-08
 24.04145   -145.7 1.382e+04 1.017e-08
 24.06151   -145.4 1.374e+04 1.021e-08
 24.07237   -145.3 1.388e+04 1.128e-08
 24.07634   -147.3 1.566e+04 2.592e-08
 24.08555   -148.0 1.764e+04 6.572e-08
 24.10164   -148.4 1.732e+04 6.751e-08
 24.12170   -148.5 1.702e+04 7.462e-08
 24.14176   -148.4 1.673e+04 8.039e-08
 24.15823   -147.9 1.651e+04 8.110e-08
 24.16826   -149.4 1.651e+04 8.618e-08
 24.18188   -148.8 1.597e+04 7.298e-08
 24.20194   -148.0 1.534e+04 5.619e-08
 24.22200   -147.1 1.467e+04 4.097e-08
 24.24206   -146.1 1.403e+04 2.941e-08
 24.25412   -145.0 1.347e+04 2.160e-08
 24.26415   -145.8 1.296e+04 1.405e-08
 24.28218   -144.7 1.258e+04 1.091e-08
 24.30224   -143.4 1.225e+04 8.644e-09
 24.31719   -142.0 1.196e+04 6.935e-09
 24.32722   -142.2 1.177e+04 4.443e-09
 24.33999   -140.5 1.153e+04 3.570e-09
 24.35002   -140.4 1.120e+04 2.582e-09
 24.36242   -139.0 1.117e+04 2.217e-09
 24.38248   -138.0 1.114e+04 2.010e-09
 24.40254   -136.5 1.113e+04 1.789e-09
 24.42260   -135.3 1.109e+04 1.733e-09
 24.43598   -133.2 1.109e+04 1.710e-09
 24.45613   -133.8 1.078e+04 1.296e-09
 24.49301   -131.1 1.074e+04 1.234e-09
 24.53313   -128.4 1.076e+04 1.230e-09
 24.57325   -125.9 1.083e+04 1.408e-09
 24.60780   -123.7 1.084e+04 1.800e-09
 24.62786   -124.3 1.059e+04 1.590e-09
 24.65349   -121.9 1.063e+04 2.115e-09
 24.69361   -119.6 1.070e+04 2.593e-09
 24.73373   -117.6 1.074e+04 2.944e-09
 24.77385   -115.7 1.071e+04 3.244e-09
 24.79958   -113.7 1.068e+04 3.763e-09
 24.80640   -113.8 1.027e+04 2.507e-09
 24.82080   -112.3 1.037e+04 2.597e-09
 24.84397   -110.8 1.044e+04 3.135e-09
 24.86393   -109.9 1.052e+04 3.440e-09
 24.89412   -108.8 1.056e+04 3.570e-09
 24.93434   -106.8 1.073e+04 4.473e-09
 24.96433   -105.2 1.052e+04 3.822e-09
 24.98114   -104.8 1.050e+04 3.896e-09
 24.99127   -104.8 1.019e+04 2.859e-09
 25.00445   -103.4 1.020e+04 3.026e-09
 25.02441   -102.4 1.019e+04 3.025e-09
 25.04221   -101.2 1.020e+04 3.044e-09
 25.05224   -101.2 1.043e+04 3.821e-09
 25.06453   -100.2 1.045e+04 4.016e-09
 25.07704    -99.0 1.046e+04 4.160e-09
 25.08707    -98.4 1.024e+04 2.981e-09
 25.10466    -97.8 1.026e+04 3.082e-09
 25.12472    -96.5 1.032e+04 3.289e-09
 25.14478    -95.8 1.036e+04 3.470e-09
 25.16290    -94.7 1.046e+04 3.947e-09
 25.18306    -94.1 1.020e+04 2.980e-09
 25.20506    -92.6 1.040e+04 4.233e-09
 25.22502    -91.7 1.045e+04 4.419e-09
 25.25521    -90.9 1.032e+04 4.295e-09
 25.28408    -89.0 1.024e+04 4.455e-09
 25.30414    -88.5 1.039e+04 5.657e-09
 25.33482    -86.6 1.013e+04 4.629e-09
 25.35488    -86.9 9.802e+03 3.518e-09
 25.37567    -85.9 9.852e+03 3.396e-09
 25.41579    -86.2 1.043e+04 4.340e-09
 25.45591    -87.2 1.131e+04 8.524e-09
 25.48590    -88.4 1.186e+04 1.427e-08
 25.50586    -88.6 1.221e+04 1.794e-08
 25.52556    -89.1 1.251e+04 2.102e-08
 25.53559    -89.6 1.266e+04 2.401e-08
 25.53644    -90.5 1.284e+04 2.594e-08
 25.54647    -92.0 1.262e+04 2.422e-08
 25.56605    -93.2 1.260e+04 2.485e-08
 25.58611    -94.4 1.255e+04 2.507e-08
 25.60617    -95.5 1.249e+04 2.532e-08
 25.62230    -96.5 1.249e+04 2.487e-08
 25.63233    -97.2 1.197e+04 2.133e-08
 25.64629    -98.2 1.201e+04 2.124e-08
 25.66635    -99.6 1.234e+04 2.190e-08
 25.68641   -101.5 1.283e+04 2.422e-08
 25.70647   -103.4 1.325e+04 2.767e-08
 25.71819   -105.1 1.340e+04 2.973e-08
 25.72822   -105.6 1.335e+04 2.998e-08
 25.74659   -107.1 1.328e+04 2.976e-08
 25.76665   -108.3 1.272e+04 2.231e-08
 25.77726   -109.5 1.189e+04 1.289e-08
 25.78729   -107.9 1.237e+04 1.792e-08
 25.80406   -109.3 1.151e+04 9.980e-09
 25.81409   -109.6 1.129e+04 8.559e-09
 25.82683   -111.2 1.055e+04 4.830e-09
 25.84689   -112.2 1.020e+04 3.300e-09
 25.86695   -112.5 1.011e+04 2.616e-09
 25.88701   -112.6 1.013e+04 2.314e-09
 25.89995   -112.4 1.013e+04 2.238e-09
 25.90998   -112.6 1.008e+04 2.318e-09
 25.93726   -112.5 1.020e+04 2.524e-09
 25.97748   -112.5 1.052e+04 3.073e-09
 26.01760   -112.2 1.079e+04 3.924e-09
 26.04759   -111.3 1.092e+04 4.563e-09
 26.06756   -111.0 1.091e+04 4.558e-09
 26.08170   -110.7 1.080e+04 4.048e-09
 26.09173   -110.4 1.089e+04 4.576e-09
 26.10768   -110.2 1.070e+04 3.708e-09
 26.12774   -110.1 1.055e+04 2.993e-09
 26.14780   -110.1 1.044e+04 2.597e-09
 26.17799   -110.3 1.032e+04 2.451e-09
 26.21820   -109.8 1.006e+04 2.208e-09
 26.25077   -109.1 9.812e+03 2.039e-09
 26.26613   -107.2 1.003e+04 2.504e-09
 26.27359   -106.7 1.006e+04 2.671e-09
 26.29835   -105.8 9.991e+03 2.667e-09
 26.33857   -104.6 9.536e+03 1.954e-09
 26.37869   -103.1 9.166e+03 1.570e-09
 26.41881   -101.3 9.025e+03 1.486e-09
 26.44541    -99.7 9.007e+03 1.490e-09
 26.46547    -98.9 9.000e+03 1.465e-09
 26.49905    -97.5 8.957e+03 1.659e-09
 26.53917    -96.5 9.193e+03 2.354e-09
 26.57929    -95.8 9.624e+03 3.511e-09
 26.61713    -95.4 1.002e+04 4.826e-09
 26.63719    -95.3 1.040e+04 6.014e-09
 26.65953    -95.6 1.114e+04 9.751e-09
 26.68953    -95.1 1.104e+04 9.497e-09
 26.70949    -95.3 1.115e+04 1.025e-08
 26.72286    -95.5 1.115e+04 1.029e-08
 26.73289    -95.6 1.186e+04 1.610e-08
 26.74395    -95.7 1.189e+04 1.623e-08
 26.75398    -94.6 1.160e+04 1.400e-08
 26.76967    -94.6 1.159e+04 1.441e-08
 26.78973    -94.7 1.160e+04 1.429e-08
 26.80872    -94.9 1.160e+04 1.415e-08
 26.81875    -94.9 1.221e+04 2.037e-08
 26.82985    -95.2 1.224e+04 2.025e-08
 26.84991    -95.8 1.273e+04 2.103e-08
 26.86997    -97.1 1.374e+04 2.800e-08
 26.89003    -98.6 1.464e+04 4.147e-08
 26.90461   -100.0 1.526e+04 5.497e-08
 26.91464    -99.7 1.599e+04 7.034e-08
 26.93015   -101.5 1.643e+04 8.627e-08
 26.95021   -103.9 1.643e+04 8.647e-08
 26.97027   -106.3 1.566e+04 5.860e-08
 26.98563   -108.7 1.395e+04 2.763e-08
 26.99566   -106.5 1.494e+04 4.106e-08
 27.00051   -109.0 1.268e+04 1.721e-08
 27.01054   -108.0 1.419e+04 3.084e-08
 27.03046   -110.2 1.172e+04 1.197e-08
 27.05052   -111.3 1.055e+04 7.483e-09
 27.07058   -111.3 1.021e+04 6.442e-09
 27.08637   -111.0 1.006e+04 5.901e-09
 27.09640   -111.1 9.964e+03 5.647e-09
 27.11070   -110.3 9.873e+03 5.346e-09
 27.13076   -109.5 9.804e+03 5.134e-09
 27.15082   -108.7 9.747e+03 4.961e-09
 27.17088   -107.9 9.741e+03 4.857e-09
 27.18226   -107.4 9.769e+03 4.764e-09
 27.19229   -106.9 9.826e+03 5.212e-09
 27.21100   -106.2 9.960e+03 5.318e-09
 27.22730   -105.8 1.016e+04 5.795e-09
 27.23743   -105.4 9.623e+03 4.123e-09
 27.26135   -104.0 9.754e+03 4.436e-09
 27.30147   -102.6 9.839e+03 4.731e-09
 27.34159   -101.4 9.956e+03 5.127e-09
 27.36421   -100.5 1.012e+04 5.774e-09
 27.38427    -99.7 1.017e+04 5.838e-09
 27.42183    -98.9 1.028e+04 6.345e-09
 27.46195    -98.2 1.025e+04 6.659e-09
 27.50207    -97.7 1.010e+04 6.659e-09
 27.53594    -97.6 9.756e+03 5.581e-09
 27.55600    -96.7 1.052e+04 7.188e-09
 27.57218    -96.6 9.960e+03 5.735e-09
 27.59215    -97.2 9.711e+03 5.232e-09
 27.61221    -98.1 9.558e+03 4.962e-09
 27.63163    -98.7 9.553e+03 4.955e-09
 27.64166    -99.0 1.013e+04 6.641e-09
 27.65233    -99.6 1.005e+04 6.756e-09
 27.67239    -99.9 1.002e+04 6.966e-09
 27.69245   -100.1 1.000e+04 7.011e-09
 27.71065   -100.1 9.921e+03 6.859e-09
 27.72068    -99.8 1.006e+04 7.609e-09
 27.72753    -99.8 9.905e+03 6.866e-09
 27.73756   -100.4 1.013e+04 7.769e-09
 27.75263   -100.4 9.967e+03 6.881e-09
 27.77269   -100.3 9.835e+03 6.145e-09
 27.79275   -100.3 9.775e+03 5.681e-09
 27.81281   -100.2 9.775e+03 5.536e-09
 27.82342   -100.1 9.788e+03 5.517e-09
 27.83345   -100.8 9.961e+03 6.063e-09
 27.85293   -100.9 1.005e+04 6.102e-09
 27.87299   -101.1 1.018e+04 6.514e-09
 27.89305   -101.3 1.034e+04 7.386e-09
 27.90928   -101.4 1.053e+04 8.511e-09
 27.91931   -102.1 1.048e+04 7.466e-09
 27.93317   -102.5 1.071e+04 8.093e-09
 27.95232   -103.1 1.096e+04 8.666e-09
 27.96235   -103.8 1.099e+04 8.044e-09
 27.97329   -105.0 1.133e+04 8.888e-09
 27.99335   -106.5 1.154e+04 1.006e-08
 28.00517   -108.2 1.181e+04 1.171e-08
 28.01520   -108.8 1.152e+04 9.815e-09
 28.03348   -110.1 1.178e+04 1.187e-08
 28.05354   -111.1 1.205e+04 1.455e-08
 28.07360   -111.5 1.226e+04 1.697e-08
 28.09104   -111.7 1.233e+04 1.792e-08
 28.10107   -111.4 1.211e+04 1.579e-08
 28.11372   -111.3 1.203e+04 1.469e-08
 28.13378   -111.0 1.181e+04 1.229e-08
 28.15384   -110.5 1.144e+04 9.017e-09
 28.17390   -110.0 1.104e+04 6.016e-09
 28.18693   -109.5 1.072e+04 3.945e-09
 28.19696   -108.9 1.069e+04 3.919e-09
 28.22415   -109.3 1.037e+04 2.070e-09
 28.26296   -107.7 1.018e+04 1.680e-09
 28.28302   -106.5 1.016e+04 1.654e-09
 28.30449   -104.2 9.953e+03 1.402e-09
 28.34461   -102.0 9.877e+03 1.352e-09
 28.38473   -100.2 1.007e+04 1.525e-09
 28.42485    -98.7 1.033e+04 2.235e-09
 28.45474    -97.3 1.065e+04 3.304e-09
 28.47480    -96.2 1.057e+04 2.806e-09
 28.49496    -96.0 1.080e+04 4.157e-09
 28.51493    -95.5 1.101e+04 5.108e-09
 28.53499    -95.0 1.122e+04 5.730e-09
 28.55044    -94.8 1.129e+04 5.883e-09
 28.56047    -94.4 1.148e+04 6.757e-09
 28.57511    -94.2 1.152e+04 6.858e-09
 28.59517    -94.1 1.150e+04 6.308e-09
 28.61523    -93.8 1.135e+04 4.912e-09
 28.63529    -93.6 1.113e+04 3.521e-09
 28.64643    -93.5 1.086e+04 2.513e-09
 28.65646    -93.0 1.101e+04 3.246e-09
 28.67541    -92.8 1.076e+04 2.424e-09
 28.68746    -92.5 1.052e+04 2.106e-09
 28.70762    -92.8 1.053e+04 1.954e-09
 28.74582    -90.9 1.020e+04 1.656e-09
 28.78594    -89.3 1.012e+04 1.594e-09
 28.81825    -88.2 1.027e+04 1.964e-09
 28.83831    -87.7 1.031e+04 2.027e-09
 28.85605    -86.9 1.031e+04 2.461e-09
 28.87601    -86.8 1.038e+04 2.965e-09
 28.89607    -86.4 1.056e+04 4.315e-09
 28.91395    -86.5 1.076e+04 5.292e-09
 28.92398    -86.2 1.071e+04 5.215e-09
 28.94632    -86.0 1.106e+04 7.665e-09
 28.98654    -85.6 1.129e+04 9.572e-09
 29.01004    -85.4 1.133e+04 9.995e-09
 29.03010    -84.3 1.128e+04 9.733e-09
 29.06678    -83.8 1.116e+04 9.515e-09
 29.10690    -82.9 1.070e+04 7.139e-09
 29.14702    -82.0 1.037e+04 5.449e-09
 29.17091    -81.3 1.026e+04 5.067e-09
 29.18559    -82.5 1.027e+04 4.655e-09
 29.20182    -82.2 1.063e+04 6.304e-09
 29.22727    -82.1 1.056e+04 6.129e-09
 29.26739    -82.1 1.055e+04 6.391e-09
 29.30751    -82.2 1.048e+04 6.545e-09
 29.34763    -82.4 1.036e+04 6.235e-09
 29.37355    -82.6 1.019e+04 5.797e-09
 29.39361    -83.9 1.045e+04 6.771e-09
 29.42787    -84.1 1.037e+04 6.601e-09
 29.46799    -83.8 1.036e+04 6.640e-09
 29.50811    -83.3 1.036e+04 6.612e-09
 29.54527    -82.6 1.037e+04 6.378e-09
 29.56533    -84.6 1.042e+04 6.565e-09
 29.58835    -83.9 1.035e+04 5.908e-09
 29.62847    -83.2 1.029e+04 5.497e-09
 29.65425    -82.3 1.034e+04 5.599e-09
 29.67431    -81.7 9.922e+03 3.631e-09
 29.70872    -80.2 1.004e+04 3.787e-09
 29.73706    -78.4 1.020e+04 4.278e-09
 29.75712    -81.3 1.086e+04 7.787e-09
 29.78896    -79.2 1.089e+04 8.580e-09
 29.82908    -77.2 1.105e+04 9.700e-09
 29.86920    -75.3 1.122e+04 1.121e-08
 29.89583    -74.4 1.132e+04 1.234e-08
 29.90576    -74.2 1.149e+04 1.339e-08
 29.91862    -73.5 1.156e+04 1.402e-08
 29.92865    -74.2 1.184e+04 1.554e-08
 29.93921    -73.6 1.221e+04 1.751e-08
 29.95927    -73.5 1.265e+04 1.988e-08
 29.97934    -73.3 1.319e+04 2.300e-08
 29.99940    -73.3 1.373e+04 2.560e-08
 30.01451    -73.3 1.408e+04 2.667e-08
 30.02454    -74.5 1.574e+04 6.497e-08
 30.03952    -74.1 1.596e+04 7.099e-08
 30.05958    -73.6 1.586e+04 6.568e-08
 30.07964    -72.9 1.518e+04 4.646e-08
 30.09970    -72.4 1.449e+04 3.123e-08
 30.11040    -72.1 1.394e+04 2.230e-08
 30.12043    -72.3 1.571e+04 5.751e-08
 30.13741    -72.0 1.523e+04 4.268e-08
 30.14744    -72.5 1.483e+04 3.920e-08
 30.15988    -71.7 1.456e+04 3.319e-08
 30.17994    -71.1 1.444e+04 3.171e-08
 30.19626    -70.7 1.442e+04 3.170e-08
 30.20629    -71.2 1.533e+04 5.129e-08
 30.22006    -70.5 1.546e+04 5.500e-08
 30.24012    -69.9 1.564e+04 6.125e-08
 30.26018    -69.3 1.569e+04 6.470e-08
 30.28024    -68.7 1.564e+04 6.469e-08
 30.29216    -67.9 1.532e+04 5.652e-08
 30.30219    -68.1 1.556e+04 6.625e-08
 30.32036    -67.1 1.514e+04 5.181e-08
 30.34042    -66.3 1.463e+04 3.583e-08
 30.36048    -65.9 1.412e+04 2.341e-08
 30.37802    -65.8 1.365e+04 1.793e-08
 30.38658    -65.0 1.432e+04 2.577e-08
 30.38911    -64.8 1.550e+04 5.035e-08
 30.40060    -64.5 1.570e+04 4.647e-08
 30.42066    -64.5 1.585e+04 4.406e-08
 30.44072    -64.6 1.592e+04 4.367e-08
 30.46079    -64.5 1.586e+04 4.531e-08
 30.47391    -64.3 1.583e+04 4.945e-08
 30.48394    -62.9 1.725e+04 7.806e-08
 30.50091    -62.6 1.731e+04 8.892e-08
 30.52097    -61.9 1.739e+04 9.719e-08
 30.54103    -61.1 1.750e+04 1.034e-07
 30.55977    -60.3 1.756e+04 1.008e-07
 30.56975    -59.1 1.841e+04 1.753e-07
 30.57603    -58.7 1.840e+04 1.776e-07
 30.58607    -58.3 1.836e+04 1.714e-07
 30.59610    -57.9 1.826e+04 1.620e-07
 30.60613    -57.4 1.826e+04 1.436e-07
 30.61264    -56.9 1.829e+04 1.273e-07
 30.61765    -56.7 1.887e+04 3.026e-07
 30.62567    -56.5 1.879e+04 2.548e-07
 30.63073    -57.1 1.805e+04 8.768e-08
 30.64133    -56.5 1.792e+04 5.662e-08
 30.65567    -55.6 1.791e+04 3.528e-08
 30.66063    -54.2 1.853e+04 1.946e-07
 30.66631    -53.6 1.863e+04 1.628e-07
 30.67634    -53.0 1.873e+04 1.364e-07
 30.68637    -52.6 1.876e+04 1.039e-07
 30.69640    -52.0 1.880e+04 9.741e-08
 30.70351    -51.6 1.891e+04 8.159e-08
 30.70853    -51.2 1.898e+04 1.207e-07
 30.72152    -51.1 1.928e+04 5.315e-08
 30.74153    -50.1 1.989e+04 3.445e-08
 30.75151    -48.0 2.013e+04 5.968e-08
 30.75658    -47.3 2.113e+04 2.931e-08
 30.76661    -46.5 2.216e+04 2.240e-08
 30.77664    -46.0 2.267e+04 1.474e-08
 30.78667    -46.0 2.371e+04 1.257e-08
 30.79439    -46.0 2.225e+04 1.745e-08
 30.79941    -44.6 2.401e+04 3.803e-08
 30.80673    -45.9 2.467e+04 3.736e-08
 30.81676    -46.9 2.450e+04 1.021e-07
 30.82679    -48.6 2.446e+04 1.017e-07
 30.83737    -58.8 2.407e+04 5.076e-08
 30.84740    -51.8 2.641e+04 1.662e-07
 30.85688    -58.7 2.440e+04 1.171e-07
 30.86691    -65.6 2.011e+04 1.237e-07
 30.87236    -71.3 1.755e+04 9.558e-08
 30.87737    -69.7 1.831e+04 1.287e-07
 30.88527    -72.3 1.731e+04 1.018e-07
 30.89028    -72.9 1.929e+04 1.130e-07
 30.89700    -75.0 1.666e+04 7.254e-08
 30.90703    -75.6 1.584e+04 5.447e-08
 30.91706    -76.7 1.391e+04 3.150e-08
 30.92709    -76.6 1.347e+04 2.626e-08
 30.93326    -76.7 1.256e+04 1.813e-08
 30.93828    -78.7 1.182e+04 1.397e-08
 30.94715    -78.3 1.160e+04 1.269e-08
 30.96225    -77.6 1.083e+04 9.426e-09
 30.98236    -76.5 9.687e+03 6.143e-09
 31.00242    -75.6 9.127e+03 4.712e-09
 31.01918    -74.5 8.956e+03 4.345e-09
 31.02921    -73.5 9.358e+03 5.332e-09
 31.04254    -72.9 9.301e+03 5.200e-09
 31.06260    -72.7 9.347e+03 5.329e-09
 31.08266    -73.6 9.409e+03 5.679e-09
 31.09765    -74.8 9.965e+03 6.616e-09
 31.10764    -76.5 1.182e+04 7.529e-09
 31.11403    -79.2 1.477e+04 1.270e-08
 31.11635    -90.9 2.104e+04 1.189e-07
 31.11999    -91.6 2.094e+04 1.507e-07
 31.12770    -94.8 1.996e+04 5.516e-07
 31.13773    -95.5 1.897e+04 1.383e-06
 31.14776    -95.6 1.824e+04 2.886e-06
 31.15779    -94.9 1.742e+04 5.907e-06
 31.16292    -94.6 1.685e+04 1.019e-05
 31.16793    -95.2 1.684e+04 9.650e-06
 31.17785    -95.4 1.661e+04 1.278e-05
 31.18788    -96.9 1.650e+04 1.490e-05
 31.19791    -98.6 1.673e+04 1.150e-05
 31.20585    -99.1 1.731e+04 6.128e-06
 31.21086    -98.6 1.763e+04 4.211e-06
 31.21797    -98.6 1.837e+04 2.113e-06
 31.22800    -98.6 1.958e+04 9.036e-07
 31.23487    -98.8 2.104e+04 3.609e-07
 31.23988   -102.0 2.332e+04 7.919e-08
 31.24806   -102.7 2.190e+04 6.374e-08
 31.25379   -103.2 2.078e+04 6.012e-08
 31.25881   -102.4 2.003e+04 7.905e-08
 31.26812   -103.9 1.880e+04 7.786e-08
 31.27815   -104.6 1.781e+04 7.940e-08
 31.28818   -106.5 1.744e+04 7.142e-08
 31.29677   -109.4 1.848e+04 5.510e-08
 31.30179   -107.7 1.746e+04 1.018e-07
 31.30824   -109.6 1.823e+04 9.235e-08
 31.31827   -111.4 1.965e+04 8.060e-08
 31.32830   -112.7 2.101e+04 7.023e-08
 31.33833   -113.5 2.195e+04 6.324e-08
 31.34467   -114.3 2.223e+04 5.831e-08
 31.34969   -115.5 2.048e+04 2.473e-07
 31.35570   -115.4 2.043e+04 2.103e-07
 31.36072   -112.8 2.048e+04 1.641e-07
 31.36842   -112.8 2.066e+04 1.274e-07
 31.38264   -112.5 2.046e+04 6.575e-08
 31.39267   -113.7 1.939e+04 3.468e-07
 31.39851   -113.3 1.937e+04 2.579e-07
 31.40854   -112.6 1.923e+04 1.982e-07
 31.41857   -111.9 1.903e+04 1.571e-07
 31.42860   -111.3 1.873e+04 1.284e-07
 31.43555   -111.0 1.836e+04 1.121e-07
 31.44056   -110.9 1.866e+04 2.007e-07
 31.44866   -110.4 1.837e+04 1.541e-07
 31.46376   -109.5 1.783e+04 9.240e-08
 31.47858   -108.4 1.702e+04 6.906e-08
 31.48354   -108.7 1.815e+04 1.504e-07
 31.48878   -108.1 1.767e+04 1.218e-07
 31.50388   -107.6 1.716e+04 1.086e-07
 31.52399   -106.3 1.668e+04 8.389e-08
 31.54405   -105.2 1.617e+04 6.667e-08
 31.56411   -104.3 1.561e+04 5.574e-08
 31.57447   -103.4 1.520e+04 4.891e-08
 31.58450   -103.0 1.566e+04 6.477e-08
 31.59747   -102.3 1.531e+04 5.685e-08
 31.60750   -102.5 1.497e+04 4.096e-08
 31.62429   -101.9 1.440e+04 3.281e-08
 31.64435   -101.2 1.392e+04 2.714e-08
 31.66033   -100.4 1.349e+04 2.299e-08
 31.67036    -99.7 1.406e+04 3.035e-08
 31.68447    -99.0 1.362e+04 2.494e-08
 31.70453    -98.3 1.321e+04 2.123e-08
 31.72459    -97.5 1.288e+04 1.901e-08
 31.74465    -96.8 1.264e+04 1.781e-08
 31.75623    -96.1 1.246e+04 1.710e-08
 31.76626    -95.6 1.270e+04 1.820e-08
 31.78477    -95.1 1.244e+04 1.698e-08
 31.80483    -94.5 1.222e+04 1.610e-08
 31.82489    -93.9 1.204e+04 1.521e-08
 31.83915    -93.2 1.186e+04 1.411e-08
 31.84631    -93.2 1.155e+04 1.284e-08
 31.85212    -92.8 1.161e+04 1.321e-08
 31.86501    -92.1 1.139e+04 1.164e-08
 31.88507    -91.7 1.119e+04 1.007e-08
 31.91526    -91.0 1.107e+04 8.671e-09
 31.93818    -89.2 1.048e+04 5.342e-09
 31.95824    -88.2 1.081e+04 6.740e-09
 31.99560    -86.6 1.030e+04 3.883e-09
 32.03572    -85.5 9.674e+03 1.746e-09
 32.07098    -84.9 9.026e+03 9.323e-10
 32.09104    -84.8 8.705e+03 8.662e-10
 32.10990    -83.6 8.691e+03 8.300e-10
 32.12996    -82.9 8.751e+03 8.404e-10
 32.15609    -81.7 8.736e+03 8.313e-10
 32.19621    -80.5 8.954e+03 8.213e-10
 32.23633    -79.5 9.311e+03 9.090e-10
 32.27645    -78.6 9.500e+03 1.314e-09
 32.30169    -77.6 9.853e+03 2.464e-09
 32.32175    -77.0 9.709e+03 1.900e-09
 32.35669    -75.8 1.010e+04 3.179e-09
 32.39681    -74.4 1.062e+04 4.919e-09
 32.42680    -73.5 1.073e+04 4.950e-09
 32.44677    -73.5 1.106e+04 5.939e-09
 32.46683    -73.4 1.144e+04 7.419e-09
 32.48324    -73.4 1.183e+04 9.514e-09
 32.49328    -72.5 1.144e+04 6.239e-09
 32.50695    -72.7 1.192e+04 8.524e-09
 32.52701    -73.1 1.244e+04 1.251e-08
 32.54707    -73.5 1.303e+04 1.938e-08
 32.56416    -73.9 1.366e+04 2.913e-08
 32.57419    -74.6 1.399e+04 3.075e-08
 32.57914    -74.9 1.418e+04 3.373e-08
 32.58917    -75.2 1.492e+04 4.751e-08
 32.60725    -76.0 1.523e+04 5.147e-08
 32.62731    -77.0 1.539e+04 4.707e-08
 32.64737    -78.4 1.533e+04 3.726e-08
 32.66500    -79.9 1.498e+04 2.951e-08
 32.67503    -81.6 1.585e+04 5.145e-08
 32.68749    -82.9 1.536e+04 4.462e-08
 32.70755    -83.6 1.509e+04 4.207e-08
 32.72761    -84.0 1.487e+04 4.030e-08
 32.74767    -84.1 1.471e+04 3.829e-08
 32.76089    -84.2 1.446e+04 3.513e-08
 32.77092    -85.4 1.386e+04 2.505e-08
 32.78779    -85.5 1.345e+04 1.711e-08
 32.80584    -85.7 1.308e+04 1.158e-08
 32.81587    -86.5 1.286e+04 1.047e-08
 32.82791    -86.8 1.255e+04 8.446e-09
 32.84675    -86.9 1.242e+04 7.676e-09
 32.85678    -87.6 1.199e+04 5.618e-09
 32.86803    -87.2 1.198e+04 5.635e-09
 32.88809    -86.7 1.194e+04 5.840e-09
 32.90816    -86.1 1.190e+04 6.029e-09
 32.92822    -85.3 1.188e+04 6.068e-09
 32.94265    -84.4 1.173e+04 6.085e-09
 32.95268    -84.2 1.154e+04 5.001e-09
 32.96834    -83.1 1.139e+04 4.650e-09
 32.98840    -81.9 1.132e+04 4.103e-09
 33.00846    -80.7 1.130e+04 3.606e-09
 33.02851    -79.5 1.124e+04 3.202e-09
 33.04750    -78.1 1.113e+04 2.619e-09
 33.05764    -78.9 1.109e+04 2.578e-09
 33.07886    -76.4 1.098e+04 2.297e-09
 33.11898    -73.9 1.087e+04 2.161e-09
 33.15911    -71.1 1.077e+04 2.097e-09
 33.19923    -68.3 1.075e+04 2.089e-09
 33.22049    -65.4 1.073e+04 2.169e-09
 33.24055    -65.5 1.066e+04 2.095e-09
 33.27947    -62.8 1.063e+04 2.189e-09
 33.31959    -60.1 1.060e+04 2.238e-09
 33.35971    -57.5 1.058e+04 2.309e-09
 33.39221    -55.2 1.066e+04 2.609e-09
 33.41228    -55.2 1.053e+04 2.443e-09
 33.43995    -53.3 1.061e+04 2.984e-09
 33.46994    -52.1 1.062e+04 3.770e-09
 33.48791    -51.6 1.066e+04 4.357e-09
 33.49794    -51.7 1.070e+04 4.175e-09
 33.50997    -50.9 1.088e+04 5.436e-09
 33.53003    -50.8 1.090e+04 5.799e-09
 33.54089    -50.3 1.098e+04 6.578e-09
 33.55092    -49.9 1.075e+04 5.324e-09
 33.57015    -49.8 1.076e+04 5.294e-09
 33.58380    -49.7 1.081e+04 5.143e-09
 33.59383    -49.9 1.096e+04 5.975e-09
 33.61027    -49.9 1.094e+04 5.839e-09
 33.63033    -49.9 1.086e+04 5.476e-09
 33.65039    -50.0 1.070e+04 4.959e-09
 33.66967    -50.1 1.052e+04 4.619e-09
 33.67970    -49.9 1.057e+04 5.266e-09
 33.69051    -50.2 1.043e+04 4.977e-09
 33.71057    -50.4 1.042e+04 4.918e-09
 33.73063    -50.9 1.061e+04 5.513e-09
 33.75069    -52.0 1.092e+04 7.269e-09
 33.76556    -52.9 1.117e+04 9.595e-09
 33.77559    -52.4 1.097e+04 8.614e-09
 33.78256    -53.1 1.112e+04 1.019e-08
 33.79259    -52.6 1.128e+04 1.089e-08
 33.81087    -53.3 1.132e+04 1.125e-08
 33.83093    -54.1 1.123e+04 1.085e-08
 33.85099    -55.1 1.119e+04 9.842e-09
 33.86145    -56.8 1.126e+04 9.614e-09
 33.87148    -56.5 1.122e+04 9.527e-09
 33.89112    -59.9 1.204e+04 1.049e-08
 33.91118    -64.0 1.292e+04 1.740e-08
 33.93124    -66.7 1.357e+04 3.071e-08
 33.94731    -68.5 1.431e+04 4.486e-08
 33.95734    -69.2 1.391e+04 3.828e-08
 33.97136    -71.6 1.437e+04 4.357e-08
 33.99142    -74.9 1.486e+04 4.775e-08
 34.01148    -78.4 1.548e+04 5.932e-08
 34.02423    -80.9 1.608e+04 8.527e-08
 34.02920    -81.2 1.548e+04 6.664e-08
 34.03646    -81.7 1.563e+04 7.306e-08
 34.04311    -82.5 1.584e+04 8.534e-08
 34.04812    -82.7 1.550e+04 7.156e-08
 34.05652    -83.2 1.566e+04 7.585e-08
 34.06655    -83.7 1.573e+04 7.735e-08
 34.07658    -84.3 1.564e+04 7.444e-08
 34.08604    -84.7 1.538e+04 6.485e-08
 34.09106    -85.0 1.506e+04 5.685e-08
 34.09664    -85.3 1.485e+04 5.019e-08
 34.11173    -85.9 1.445e+04 3.956e-08
 34.12907    -86.3 1.388e+04 2.620e-08
 34.13910    -86.2 1.374e+04 2.635e-08
 34.15190    -86.7 1.326e+04 1.823e-08
 34.17196    -87.1 1.280e+04 1.326e-08
 34.19202    -87.4 1.243e+04 1.048e-08
 34.21208    -87.4 1.219e+04 9.086e-09
 34.22496    -87.3 1.210e+04 8.556e-09
 34.23499    -87.7 1.220e+04 9.026e-09
 34.25220    -87.8 1.218e+04 8.828e-09
 34.26591    -88.3 1.284e+04 9.955e-09
 34.27594    -88.4 1.311e+04 1.074e-08
 34.29232    -90.0 1.436e+04 1.847e-08
 34.31082    -90.5 1.568e+04 4.366e-08
 34.32085    -90.6 1.471e+04 2.879e-08
 34.33244    -90.7 1.571e+04 5.335e-08
 34.34744    -90.4 1.642e+04 8.163e-08
 34.35742    -90.7 1.677e+04 9.451e-08
 34.36369    -91.0 1.746e+04 1.293e-07
 34.36870    -91.0 1.689e+04 9.896e-08
 34.37748    -91.6 1.734e+04 1.208e-07
 34.38664    -92.0 1.783e+04 1.580e-07
 34.39166    -91.9 1.832e+04 2.185e-07
 34.39754    -92.2 1.847e+04 2.713e-07
 34.40662    -92.4 1.850e+04 3.154e-07
 34.41163    -92.4 1.824e+04 2.180e-07
 34.41760    -92.4 1.826e+04 2.442e-07
 34.42763    -92.3 1.831e+04 2.646e-07
 34.43766    -92.3 1.834e+04 2.741e-07
 34.44769    -92.3 1.842e+04 2.661e-07
 34.45457    -92.2 1.835e+04 2.477e-07
 34.45958    -92.3 1.787e+04 1.943e-07
 34.46775    -91.9 1.780e+04 1.901e-07
 34.47778    -91.6 1.781e+04 1.867e-07
 34.48782    -91.4 1.787e+04 1.812e-07
 34.49750    -91.1 1.784e+04 1.707e-07
 34.50251    -91.0 1.730e+04 1.426e-07
 34.50748    -90.6 1.729e+04 1.452e-07
 34.51756    -90.3 1.802e+04 2.030e-07
 34.53305    -89.7 1.799e+04 2.026e-07
 34.55311    -89.0 1.779e+04 1.827e-07
 34.57317    -88.0 1.743e+04 1.513e-07
 34.58847    -86.9 1.694e+04 1.169e-07
 34.59850    -86.0 1.618e+04 8.356e-08
 34.61329    -84.8 1.573e+04 6.746e-08
 34.63335    -83.6 1.527e+04 5.437e-08
 34.65341    -82.3 1.490e+04 4.433e-08
 34.67347    -80.9 1.461e+04 3.641e-08
 34.68436    -79.5 1.437e+04 3.045e-08
 34.69439    -78.6 1.406e+04 2.773e-08
 34.71359    -77.3 1.402e+04 2.602e-08
 34.73365    -76.1 1.397e+04 2.396e-08
 34.74925    -74.8 1.394e+04 2.218e-08
 34.75928    -75.0 1.398e+04 2.221e-08
 34.77023    -74.0 1.389e+04 2.009e-08
 34.78026    -73.1 1.414e+04 2.416e-08
 34.79383    -72.2 1.407e+04 2.237e-08
 34.81389    -71.4 1.403e+04 2.175e-08
 34.83395    -70.7 1.411e+04 2.215e-08
 34.85402    -70.1 1.426e+04 2.495e-08
 34.86612    -69.2 1.441e+04 2.845e-08
 34.87615    -68.7 1.441e+04 2.866e-08
 34.89414    -67.9 1.444e+04 2.971e-08
 34.91420    -67.2 1.440e+04 2.951e-08
 34.93426    -66.3 1.417e+04 2.661e-08
 34.95198    -65.2 1.386e+04 2.213e-08
 34.96201    -64.6 1.369e+04 1.962e-08
 34.97438    -63.5 1.346e+04 1.611e-08
 34.99092    -62.6 1.327e+04 1.338e-08
 35.00095    -62.2 1.307e+04 1.122e-08
 35.01450    -61.4 1.288e+04 1.006e-08
 35.03456    -59.8 1.268e+04 8.808e-09
 35.04787    -59.0 1.268e+04 8.604e-09
 35.05800    -59.0 1.245e+04 7.987e-09
 35.08491    -56.4 1.242e+04 7.492e-09
 35.11490    -55.2 1.268e+04 9.610e-09
 35.13374    -54.6 1.271e+04 1.042e-08
 35.14377    -53.9 1.265e+04 9.580e-09
 35.15492    -52.8 1.270e+04 1.127e-08
 35.17498    -51.9 1.269e+04 1.185e-08
 35.19504    -50.8 1.275e+04 1.253e-08
 35.21510    -49.8 1.281e+04 1.219e-08
 35.22963    -48.9 1.290e+04 1.145e-08
 35.23709    -48.2 1.299e+04 1.361e-08
 35.24263    -47.9 1.313e+04 1.710e-08
 35.25522    -47.0 1.327e+04 1.786e-08
 35.27528    -46.1 1.333e+04 1.749e-08
 35.29534    -45.3 1.332e+04 1.589e-08
 35.31540    -44.7 1.321e+04 1.403e-08
 35.33547    -43.8 1.318e+04 1.267e-08
 35.35553    -43.3 1.304e+04 1.092e-08
 35.37559    -43.0 1.294e+04 9.330e-09
 35.39565    -42.8 1.291e+04 8.227e-09
 35.41138    -42.7 1.294e+04 7.866e-09
 35.42141    -42.0 1.259e+04 6.351e-09
 35.43577    -42.0 1.253e+04 5.960e-09
 35.45583    -41.8 1.252e+04 6.058e-09
 35.47427    -41.6 1.255e+04 6.551e-09
 35.48430    -40.9 1.270e+04 7.076e-09
 35.49595    -40.6 1.268e+04 7.777e-09
 35.50728    -40.3 1.267e+04 8.607e-09
 35.51731    -39.7 1.238e+04 6.138e-09
 35.53607    -39.4 1.239e+04 6.883e-09
 35.55613    -39.0 1.239e+04 7.266e-09
 35.57619    -38.8 1.243e+04 7.180e-09
 35.59314    -38.7 1.252e+04 6.479e-09
 35.60317    -38.2 1.236e+04 6.370e-09
 35.61631    -38.5 1.250e+04 6.318e-09
 35.63637    -38.9 1.259e+04 6.462e-09
 35.65643    -39.3 1.267e+04 6.731e-09
 35.67649    -39.8 1.274e+04 7.063e-09
 35.68903    -40.5 1.288e+04 7.549e-09
 35.69906    -40.7 1.305e+04 9.815e-09
 35.71594    -42.5 1.353e+04 1.219e-08
 35.72597    -43.5 1.394e+04 1.621e-08
 35.73667    -46.3 1.460e+04 2.382e-08
 35.75673    -49.2 1.521e+04 3.647e-08
 35.77489    -52.1 1.561e+04 4.811e-08
 35.78492    -51.7 1.516e+04 3.853e-08
 35.79685    -54.5 1.515e+04 3.843e-08
 35.81691    -57.3 1.470e+04 3.255e-08
 35.83698    -59.5 1.408e+04 2.559e-08
 35.85704    -61.1 1.359e+04 2.154e-08
 35.87079    -62.0 1.321e+04 1.811e-08
 35.88082    -61.5 1.300e+04 1.570e-08
 35.89716    -62.0 1.269e+04 1.345e-08
 35.91722    -62.3 1.236e+04 1.057e-08
 35.93728    -62.6 1.203e+04 8.015e-09
 35.95665    -62.7 1.176e+04 6.153e-09
 35.96668    -62.4 1.160e+04 5.579e-09
 35.96765    -62.5 1.139e+04 4.481e-09
 35.97768    -63.7 1.139e+04 4.512e-09
 35.99746    -63.7 1.121e+04 3.965e-09
 36.01752    -63.5 1.108e+04 3.710e-09
 36.03758    -63.2 1.103e+04 3.641e-09
 36.05254    -63.0 1.099e+04 3.655e-09
 36.06257    -62.6 1.081e+04 3.480e-09
 36.07770    -62.1 1.076e+04 3.482e-09
 36.09776    -61.6 1.070e+04 3.551e-09
 36.11782    -61.1 1.067e+04 3.564e-09
 36.13788    -60.4 1.059e+04 3.506e-09
 36.14843    -59.6 1.050e+04 3.370e-09
 36.15846    -58.9 1.033e+04 2.814e-09
 36.17800    -58.2 1.031e+04 2.779e-09
 36.19806    -57.2 1.032e+04 2.736e-09
 36.20932    -56.5 1.031e+04 2.732e-09
 36.21935    -57.1 1.034e+04 2.828e-09
 36.23430    -56.3 1.044e+04 3.097e-09
 36.24433    -55.5 1.036e+04 2.757e-09
 36.25824    -55.0 1.041e+04 3.091e-09
 36.27830    -53.9 1.046e+04 3.770e-09
 36.29836    -53.0 1.053e+04 4.487e-09
 36.31843    -51.7 1.067e+04 5.422e-09
 36.33019    -50.5 1.091e+04 5.784e-09
 36.34022    -50.2 1.060e+04 4.860e-09
 36.35855    -49.1 1.072e+04 5.220e-09
 36.37861    -47.9 1.084e+04 5.320e-09
 36.40879    -46.7 1.102e+04 5.318e-09
 36.44116    -45.7 1.143e+04 5.912e-09
 36.46122    -46.4 1.108e+04 4.736e-09
 36.48913    -45.7 1.156e+04 5.948e-09
 36.51214    -45.3 1.199e+04 8.329e-09
 36.53220    -44.6 1.218e+04 1.060e-08
 36.56938    -44.6 1.244e+04 1.192e-08
 36.60950    -44.7 1.241e+04 1.167e-08
 36.64962    -44.5 1.207e+04 8.646e-09
 36.68386    -44.4 1.170e+04 5.547e-09
 36.70392    -43.7 1.156e+04 5.691e-09
 36.72986    -43.9 1.168e+04 4.183e-09
 36.76998    -45.2 1.190e+04 3.567e-09
 36.81010    -47.4 1.196e+04 3.511e-09
 36.85022    -49.9 1.202e+04 3.855e-09
 36.87565    -52.1 1.197e+04 3.771e-09
 36.89571    -52.2 1.228e+04 5.900e-09
 36.92034    -53.4 1.223e+04 3.079e-09
 36.93434    -54.6 1.250e+04 2.088e-09
 36.94437    -55.6 1.245e+04 1.877e-09
 36.96036    -57.4 1.217e+04 1.575e-09
 36.97135    -58.9 1.210e+04 1.545e-09
 36.98138    -59.2 1.235e+04 1.602e-09
 37.00048    -61.6 1.257e+04 1.841e-09
 37.02054    -64.1 1.261e+04 3.363e-09
 37.04060    -65.9 1.268e+04 5.991e-09
 37.05721    -67.3 1.284e+04 8.651e-09
 37.06724    -68.2 1.306e+04 1.084e-08
 37.08072    -69.9 1.322e+04 1.184e-08
 37.10078    -71.8 1.336e+04 1.215e-08
 37.12084    -74.0 1.377e+04 1.310e-08
 37.14090    -76.1 1.420e+04 1.835e-08
 37.15310    -77.4 1.440e+04 2.621e-08
 37.16313    -78.2 1.456e+04 3.494e-08
 37.17601    -78.7 1.465e+04 3.913e-08
 37.18604    -77.2 1.462e+04 3.749e-08
 37.20108    -77.7 1.468e+04 3.996e-08
 37.22114    -78.0 1.427e+04 3.489e-08
 37.23896    -78.0 1.357e+04 2.195e-08
 37.24899    -78.2 1.352e+04 2.292e-08
 37.26126    -78.4 1.284e+04 1.304e-08
 37.28132    -78.8 1.234e+04 7.887e-09
 37.30139    -79.3 1.205e+04 5.345e-09
 37.32145    -79.6 1.185e+04 4.340e-09
 37.33486    -80.0 1.180e+04 4.142e-09
 37.34489    -79.4 1.181e+04 4.208e-09
 37.36157    -81.3 1.225e+04 4.292e-09
 37.38163    -89.0 1.597e+04 1.142e-08
 37.40169    -94.7 1.751e+04 6.661e-08
 37.41768    -99.1 1.834e+04 1.651e-07
 37.42664   -100.5 1.853e+04 2.034e-07
 37.43065   -100.9 1.877e+04 2.713e-07
 37.43670   -103.7 1.882e+04 2.851e-07
 37.44673   -106.5 1.854e+04 2.208e-07
 37.45676   -109.7 1.779e+04 1.161e-07
 37.46679   -113.4 1.660e+04 5.672e-08
 37.47358   -116.5 1.558e+04 3.315e-08
 37.47860   -117.0 1.546e+04 3.265e-08
 37.48685   -119.0 1.497e+04 2.341e-08
 37.50194   -120.9 1.463e+04 1.673e-08
 37.51661   -124.3 1.383e+04 8.386e-09
 37.52664   -122.6 1.415e+04 1.369e-08
 37.54211   -124.7 1.361e+04 6.972e-09
 37.56217   -125.9 1.316e+04 4.282e-09
 37.58223   -126.9 1.290e+04 3.235e-09
 37.60229   -127.6 1.272e+04 2.809e-09
 37.61250   -128.1 1.264e+04 2.690e-09
 37.62253   -127.4 1.263e+04 2.650e-09
 37.64241   -127.7 1.258e+04 2.596e-09
 37.65936   -127.9 1.255e+04 2.577e-09
 37.66939   -127.1 1.249e+04 2.884e-09
 37.68253   -127.3 1.245e+04 2.826e-09
 37.69837   -127.5 1.239e+04 2.739e-09
 37.70840   -126.8 1.241e+04 2.706e-09
 37.72265   -126.9 1.231e+04 2.578e-09
 37.74271   -126.9 1.222e+04 2.450e-09
 37.76277   -126.9 1.216e+04 2.330e-09
 37.78284   -126.7 1.210e+04 2.222e-09
 37.79426   -126.6 1.203e+04 2.129e-09
 37.80429   -125.9 1.202e+04 2.155e-09
 37.82296   -125.7 1.196e+04 2.020e-09
 37.84302   -125.3 1.200e+04 1.945e-09
 37.86308   -124.9 1.203e+04 1.931e-09
 37.88012   -124.7 1.215e+04 1.921e-09
 37.89015   -124.2 1.222e+04 1.928e-09
 37.90103   -124.1 1.245e+04 1.923e-09
 37.91116   -123.7 1.193e+04 1.888e-09
 37.92336   -123.6 1.233e+04 1.858e-09
 37.94332   -124.9 1.317e+04 2.722e-09
 37.96338   -126.4 1.332e+04 6.158e-09
 37.97601   -127.8 1.369e+04 1.311e-08
 37.98604   -127.2 1.355e+04 9.104e-09
 38.00350   -128.8 1.390e+04 1.606e-08
 38.02356   -130.7 1.415e+04 2.128e-08
 38.04362   -132.7 1.419e+04 2.247e-08
 38.06188   -134.4 1.393e+04 2.111e-08
 38.07191   -133.8 1.391e+04 1.790e-08
 38.08374   -135.3 1.361e+04 1.579e-08
 38.10380   -136.4 1.331e+04 1.313e-08
 38.12386   -137.2 1.305e+04 1.089e-08
 38.14270   -137.9 1.282e+04 8.910e-09
 38.15273   -137.7 1.302e+04 1.289e-08
 38.15777   -138.2 1.280e+04 1.018e-08
 38.16780   -138.0 1.306e+04 1.204e-08
 38.18404   -138.5 1.280e+04 8.794e-09
 38.20410   -139.0 1.256e+04 6.074e-09
 38.22416   -139.5 1.238e+04 4.219e-09
 38.24363   -139.9 1.229e+04 3.074e-09
 38.25366   -140.2 1.232e+04 3.144e-09
 38.26428   -140.4 1.222e+04 2.517e-09
 38.29447   -140.3 1.240e+04 1.971e-09
 38.32969   -140.8 1.242e+04 1.819e-09
 38.34965   -141.4 1.221e+04 2.490e-09
 38.37444   -141.7 1.227e+04 2.527e-09
 38.39450   -142.1 1.212e+04 2.818e-09
 38.40471   -142.4 1.213e+04 2.808e-09
 38.42477   -142.6 1.212e+04 2.824e-09
 38.45496   -143.2 1.202e+04 2.821e-09
 38.49518   -143.5 1.187e+04 2.432e-09
 38.52147   -143.7 1.170e+04 1.979e-09
 38.54153   -144.5 1.167e+04 1.975e-09
 38.57542   -144.2 1.150e+04 1.453e-09
 38.61554   -143.5 1.142e+04 1.097e-09
 38.65566   -142.6 1.139e+04 8.608e-10
 38.69320   -141.5 1.134e+04 7.170e-10
 38.71326   -141.7 1.125e+04 5.820e-10
 38.73590   -140.4 1.121e+04 5.244e-10
 38.77602   -138.9 1.118e+04 5.088e-10
 38.81614   -137.5 1.118e+04 5.071e-10
 38.85626   -136.2 1.115e+04 5.174e-10
 38.87795   -134.9 1.111e+04 5.614e-10
 38.88661   -134.9 1.114e+04 5.619e-10
 38.90504   -134.7 1.109e+04 4.631e-10
 38.93650   -133.4 1.106e+04 5.025e-10
 38.97662   -132.0 1.106e+04 5.296e-10
 39.01675   -130.6 1.108e+04 5.429e-10
 39.05671   -129.2 1.111e+04 5.501e-10
 39.09683   -127.2 1.108e+04 4.953e-10
 39.13711   -125.6 1.111e+04 5.001e-10
 39.17723   -123.9 1.115e+04 5.122e-10
 39.21735   -122.1 1.120e+04 5.377e-10
 39.24849   -120.3 1.127e+04 5.826e-10
 39.26855   -119.5 1.127e+04 5.213e-10
 39.29759   -117.8 1.145e+04 5.891e-10
 39.33771   -116.6 1.168e+04 8.048e-10
 39.36129   -115.9 1.192e+04 1.412e-09
 39.38135   -116.1 1.207e+04 1.070e-09
 39.41795   -116.0 1.223e+04 2.233e-09
 39.44028   -116.1 1.249e+04 4.693e-09
 39.46034   -116.9 1.298e+04 1.040e-08
 39.49820   -118.1 1.304e+04 1.247e-08
 39.53832   -119.0 1.279e+04 1.208e-08
 39.57844   -119.3 1.219e+04 8.449e-09
 39.61200   -119.4 1.172e+04 4.826e-09
 39.63206   -120.3 1.135e+04 3.060e-09
 39.65868   -119.9 1.122e+04 2.122e-09
 39.69880   -119.4 1.115e+04 1.817e-09
 39.73892   -118.6 1.114e+04 1.752e-09
 39.77904   -117.8 1.115e+04 1.824e-09
 39.80379   -116.8 1.111e+04 2.064e-09
 39.82385   -116.5 1.089e+04 1.854e-09
 39.84464   -115.4 1.086e+04 1.863e-09
 39.86470   -115.0 1.093e+04 1.980e-09
 39.89940   -113.7 1.089e+04 1.920e-09
 39.93952   -112.3 1.082e+04 1.803e-09
 39.97551   -110.7 1.080e+04 1.748e-09
 39.99557   -110.2 1.064e+04 1.324e-09
 40.01977   -108.6 1.063e+04 1.295e-09
 40.05989   -107.0 1.064e+04 1.294e-09
 40.10001   -105.4 1.069e+04 1.458e-09
 40.14013   -103.9 1.070e+04 1.912e-09
 40.16730   -102.3 1.074e+04 2.581e-09
 40.18736   -102.1 1.068e+04 1.315e-09
 40.22037   -100.6 1.068e+04 1.789e-09
 40.26049    -99.1 1.068e+04 2.290e-09
 40.30061    -97.7 1.072e+04 2.795e-09
 40.32798    -96.4 1.077e+04 3.375e-09
 40.34633    -96.4 1.088e+04 4.023e-09
 40.35908    -96.3 1.061e+04 2.363e-09
 40.38085    -95.1 1.070e+04 2.744e-09
 40.42097    -93.9 1.078e+04 2.889e-09
 40.46110    -92.8 1.082e+04 2.933e-09
 40.50122    -91.8 1.086e+04 2.606e-09
 40.53081    -90.9 1.086e+04 2.247e-09
 40.55087    -90.9 1.078e+04 1.771e-09
 40.58146    -90.1 1.081e+04 1.718e-09
 40.62158    -89.1 1.083e+04 1.717e-09
 40.66170    -88.1 1.085e+04 1.865e-09
 40.70182    -87.1 1.088e+04 2.567e-09
 40.72259    -86.0 1.102e+04 3.894e-09
 40.74265    -86.3 1.120e+04 5.485e-09
 40.78206    -85.3 1.141e+04 6.711e-09
 40.81133    -84.6 1.145e+04 7.072e-09
 40.83139    -84.4 1.101e+04 4.479e-09
 40.86230    -83.5 1.099e+04 4.474e-09
 40.89432    -82.4 1.085e+04 3.771e-09
 40.91438    -83.1 1.060e+04 2.977e-09
 40.94255    -82.0 1.059e+04 2.818e-09
 40.98267    -81.0 1.063e+04 2.942e-09
 41.02279    -80.2 1.082e+04 3.548e-09
 41.06291    -79.6 1.099e+04 4.154e-09
 41.08610    -79.2 1.114e+04 4.508e-09
 41.10616    -79.7 1.096e+04 4.094e-09
 41.14315    -79.7 1.101e+04 4.068e-09
 41.18327    -79.9 1.116e+04 4.048e-09
 41.22339    -80.3 1.120e+04 4.306e-09
 41.25783    -80.6 1.129e+04 4.677e-09
 41.27789    -80.8 1.126e+04 4.769e-09
 41.29468    -81.0 1.145e+04 5.547e-09
 41.31474    -81.3 1.120e+04 4.659e-09
 41.34375    -81.8 1.126e+04 4.739e-09
 41.38387    -82.5 1.132e+04 4.353e-09
 41.42399    -83.0 1.122e+04 3.606e-09
 41.44961    -83.2 1.109e+04 3.022e-09
 41.46967    -83.4 1.103e+04 3.395e-09
 41.50424    -83.5 1.079e+04 2.570e-09
 41.54436    -83.1 1.051e+04 1.855e-09
 41.58448    -82.6 1.033e+04 1.221e-09
 41.62134    -82.0 1.025e+04 7.755e-10
 41.64140    -82.1 1.014e+04 7.238e-10
 41.66472    -81.5 1.007e+04 5.694e-10
 41.70484    -80.7 1.002e+04 5.430e-10
 41.74496    -80.0 9.969e+03 5.611e-10
 41.77802    -79.3 9.862e+03 6.650e-10
 41.79808    -78.9 9.877e+03 6.917e-10
 41.81312    -78.2 9.785e+03 8.309e-10
 41.83318    -78.3 9.610e+03 9.710e-10
 41.86532    -77.4 9.566e+03 1.004e-09
 41.90544    -76.3 9.453e+03 9.753e-10
 41.94557    -75.0 9.427e+03 8.955e-10
 41.98485    -73.7 9.456e+03 8.686e-10
 42.00491    -73.5 9.295e+03 9.282e-10
 42.02581    -72.1 9.379e+03 9.527e-10
 42.06593    -70.8 9.593e+03 1.136e-09
 42.10605    -69.3 9.724e+03 1.425e-09
 42.14617    -67.8 9.815e+03 1.617e-09
 42.17663    -66.3 9.853e+03 1.652e-09
 42.19669    -66.0 9.878e+03 1.948e-09
 42.22641    -64.5 9.815e+03 1.706e-09
 42.26137    -62.9 9.806e+03 1.405e-09
 42.28143    -62.9 9.518e+03 1.159e-09
 42.30665    -61.2 9.488e+03 1.051e-09
 42.34677    -59.4 9.511e+03 1.006e-09
 42.36842    -57.5 9.543e+03 9.833e-10
 42.38848    -57.1 9.520e+03 1.240e-09
 42.42702    -55.1 9.534e+03 1.274e-09
 42.46714    -53.2 9.558e+03 1.334e-09
 42.50726    -51.3 9.650e+03 1.408e-09
 42.54014    -50.0 9.879e+03 1.599e-09
 42.56020    -49.9 1.002e+04 2.737e-09
 42.58750    -49.2 1.043e+04 4.106e-09
 42.62762    -49.0 1.094e+04 5.887e-09
 42.66774    -49.4 1.145e+04 7.358e-09
 42.70786    -51.1 1.166e+04 7.678e-09
 42.73193    -53.0 1.158e+04 6.427e-09
 42.74872    -53.3 1.152e+04 6.460e-09
 42.76477    -51.6 1.182e+04 8.371e-09
 42.78810    -53.7 1.179e+04 6.439e-09
 42.81769    -56.1 1.163e+04 5.534e-09
 42.82762    -56.5 1.164e+04 5.548e-09
 42.83806    -58.6 1.227e+04 5.929e-09
 42.85812    -63.7 1.361e+04 1.103e-08
 42.87818    -67.0 1.442e+04 2.757e-08
 42.89824    -69.4 1.510e+04 4.887e-08
 42.91349    -72.1 1.538e+04 5.633e-08
 42.92352    -74.1 1.557e+04 6.288e-08
 42.93836    -76.9 1.484e+04 4.016e-08
 42.95842    -79.8 1.375e+04 1.805e-08
 42.97848    -82.8 1.295e+04 8.923e-09
 42.99622    -84.8 1.256e+04 6.233e-09
 43.00625    -84.6 1.243e+04 5.396e-09
 43.00938    -85.4 1.223e+04 4.728e-09
 43.01941    -86.2 1.206e+04 4.065e-09
 43.03866    -86.4 1.203e+04 3.888e-09
 43.05872    -86.5 1.204e+04 3.683e-09
 43.07878    -86.5 1.207e+04 3.408e-09
 43.09534    -86.3 1.211e+04 3.034e-09
 43.11550    -87.2 1.204e+04 3.030e-09
 43.14919    -86.4 1.199e+04 2.679e-09
 43.18931    -85.1 1.187e+04 2.197e-09
 43.22806    -83.5 1.183e+04 1.838e-09
 43.24812    -82.7 1.184e+04 1.567e-09
 43.26716    -81.1 1.193e+04 1.408e-09
 43.28722    -81.2 1.185e+04 1.504e-09
 43.30967    -79.6 1.190e+04 1.528e-09
 43.34979    -78.2 1.202e+04 1.778e-09
 43.38992    -76.9 1.205e+04 2.202e-09
 43.43004    -75.6 1.209e+04 2.560e-09
 43.45895    -74.4 1.214e+04 2.777e-09
 43.47901    -74.9 1.190e+04 2.545e-09
 43.51028    -73.6 1.183e+04 2.230e-09
 43.55040    -72.5 1.189e+04 1.991e-09
 43.59052    -71.8 1.196e+04 1.966e-09
 43.63064    -71.8 1.219e+04 2.961e-09
 43.67076    -72.1 1.239e+04 6.160e-09
 43.71088    -72.0 1.277e+04 1.078e-08
 43.73147    -72.1 1.296e+04 1.356e-08
 43.75153    -72.0 1.266e+04 1.130e-08
 43.79112    -72.3 1.259e+04 1.132e-08
 43.82246    -72.0 1.217e+04 8.732e-09
 43.84252    -72.3 1.223e+04 9.270e-09
 43.87137    -70.9 1.178e+04 5.858e-09
 43.91149    -69.1 1.145e+04 3.877e-09
 43.95161    -67.1 1.127e+04 2.935e-09
 43.99173    -64.9 1.113e+04 2.442e-09
 44.01424    -62.6 1.101e+04 2.060e-09
 44.03430    -62.5 1.108e+04 2.355e-09
 44.07197    -60.2 1.101e+04 2.188e-09
 44.11209    -58.1 1.097e+04 2.096e-09
 44.15221    -56.0 1.093e+04 2.065e-09
 44.18597    -53.9 1.089e+04 2.061e-09
 44.20603    -54.4 1.106e+04 3.441e-09
 44.21481    -52.5 1.100e+04 3.475e-09
 44.23487    -52.4 1.075e+04 2.611e-09
 44.27257    -50.2 1.065e+04 2.235e-09
 44.31269    -47.9 1.059e+04 1.835e-09
 44.35281    -45.6 1.055e+04 1.531e-09
 44.37775    -43.2 1.052e+04 1.328e-09
 44.39781    -44.1 1.055e+04 1.354e-09
 44.43306    -41.7 1.053e+04 1.216e-09
 44.47318    -39.2 1.051e+04 1.155e-09
 44.51330    -36.6 1.049e+04 1.142e-09
 44.54948    -33.8 1.045e+04 1.147e-09
 44.56954    -34.3 1.040e+04 1.052e-09
 44.59354    -31.3 1.040e+04 9.944e-10
 44.63366    -28.4 1.039e+04 9.293e-10
 44.67378    -25.5 1.041e+04 8.862e-10
 44.69816    -22.7 1.044e+04 8.738e-10
 44.71822    -22.9 1.043e+04 9.894e-10
 44.74126    -20.5 1.046e+04 1.125e-09
 44.76132    -20.7 1.030e+04 9.931e-10
 44.79414    -18.1 1.033e+04 1.203e-09
 44.83426    -15.8 1.051e+04 1.510e-09
 44.87439    -14.6 1.085e+04 2.239e-09
 44.91298    -14.4 1.128e+04 4.552e-09
 44.93305    -15.4 1.138e+04 4.881e-09
 44.95463    -14.6 1.195e+04 1.133e-08
 44.99475    -14.1 1.236e+04 1.556e-08
 45.03487    -13.7 1.210e+04 1.149e-08
 45.07499    -13.3 1.172e+04 7.151e-09
 45.10477    -12.6 1.150e+04 6.084e-09
 45.12483    -13.6 1.138e+04 5.811e-09
 45.15523    -12.4 1.155e+04 7.570e-09
 45.18150    -10.5 1.174e+04 9.676e-09
 45.20156    -10.5 1.135e+04 7.078e-09
 45.23547     -9.0 1.149e+04 7.657e-09
 45.27559     -7.6 1.149e+04 6.582e-09
 45.29656     -6.3 1.140e+04 5.662e-09
 45.31662     -7.3 1.114e+04 3.874e-09
 45.35584     -5.9 1.113e+04 3.038e-09
 45.39596     -4.2 1.104e+04 2.673e-09
 45.43608     -2.1 1.089e+04 2.035e-09
 45.46828      0.4 1.073e+04 1.258e-09
 45.48834      0.3 1.050e+04 6.671e-10
 45.51632      2.7 1.072e+04 4.199e-10
 45.55644      4.5 1.084e+04 3.121e-10
 45.59656      6.9 1.078e+04 3.111e-10
 45.63668      9.5 1.082e+04 3.247e-10
 45.66006     12.1 1.087e+04 3.591e-10
 45.66817     12.2 1.086e+04 3.264e-10
 45.68491     11.7 1.084e+04 3.768e-10
 45.71692     14.2 1.090e+04 4.295e-10
 45.75704     16.6 1.095e+04 4.983e-10
 45.79716     19.1 1.099e+04 5.788e-10
 45.83179     21.5 1.106e+04 6.587e-10
 45.85185     21.5 1.111e+04 7.445e-10
 45.87741     23.8 1.123e+04 7.838e-10
 45.91753     26.0 1.132e+04 8.110e-10
 45.95765     28.0 1.143e+04 8.593e-10
 45.99777     30.0 1.155e+04 9.373e-10
 46.02357     32.0 1.161e+04 1.054e-09
 46.04364     31.4 1.158e+04 1.290e-09
 46.07801     33.4 1.154e+04 1.354e-09
 46.11813     35.5 1.146e+04 1.390e-09
 46.14820     37.5 1.139e+04 1.380e-09
 46.16826     37.2 1.139e+04 1.580e-09
 46.19530     39.3 1.135e+04 1.590e-09
 46.21536     38.8 1.118e+04 1.337e-09
 46.23849     41.0 1.117e+04 1.359e-09
 46.27861     43.1 1.113e+04 1.481e-09
 46.31874     45.1 1.110e+04 1.783e-09
 46.35886     47.1 1.111e+04 2.291e-09
 46.38708     49.0 1.116e+04 2.964e-09
 46.40714     48.5 1.102e+04 2.694e-09
 46.43910     50.4 1.107e+04 3.099e-09
 46.47922     52.1 1.110e+04 3.274e-09
 46.51934     53.6 1.109e+04 3.417e-09
 46.55881     55.2 1.112e+04 3.809e-09
 46.57887     54.4 1.107e+04 3.764e-09
 46.59958     55.7 1.124e+04 5.280e-09
 46.63154     56.9 1.140e+04 7.095e-09
 46.65160     55.9 1.134e+04 7.186e-09
 46.67982     57.2 1.142e+04 8.224e-09
 46.71994     58.6 1.123e+04 8.853e-09
 46.75059     60.4 1.111e+04 7.751e-09
 46.77065     59.3 1.057e+04 4.066e-09
 46.80019     61.3 1.034e+04 2.897e-09
 46.84031     63.3 1.019e+04 2.231e-09
 46.88043     65.6 1.025e+04 1.983e-09
 46.92055     67.9 1.028e+04 2.061e-09
 46.94238     70.0 1.030e+04 2.162e-09
 46.96244     69.4 9.950e+03 1.716e-09
 47.00079     71.7 1.003e+04 1.981e-09
 47.04091     73.7 1.010e+04 2.259e-09
 47.08103     75.3 1.008e+04 2.498e-09
 47.11102     76.3 1.000e+04 2.697e-09
 47.12394     77.1 9.983e+03 2.888e-09
 47.12780     76.4 9.972e+03 2.621e-09
 47.13485     76.6 9.951e+03 3.211e-09
 47.15105     77.6 1.001e+04 3.735e-09
 47.17111     78.6 1.009e+04 4.321e-09
 47.19117     79.5 1.017e+04 4.837e-09
 47.20980     80.2 1.023e+04 5.213e-09
 47.21983     79.8 1.003e+04 4.523e-09
 47.23129     80.5 1.007e+04 4.646e-09
 47.25135     81.0 1.007e+04 4.620e-09
 47.27141     81.5 1.004e+04 4.505e-09
 47.29147     82.0 9.970e+03 4.303e-09
 47.30569     82.6 9.867e+03 3.993e-09
 47.32585     82.6 9.602e+03 2.968e-09
 47.36188     83.9 9.504e+03 2.891e-09
 47.40200     85.4 9.497e+03 2.987e-09
 47.44212     86.8 9.515e+03 3.286e-09
 47.47211     88.0 9.511e+03 3.482e-09
 47.48745     88.6 9.523e+03 3.640e-09
 47.49758     88.8 9.443e+03 3.242e-09
 47.52236     90.2 9.463e+03 3.603e-09
 47.56248     91.7 9.448e+03 3.764e-09
 47.59823     93.1 9.390e+03 3.696e-09
 47.61829     93.4 9.207e+03 3.314e-09
 47.64272     94.9 9.020e+03 2.969e-09
 47.66940     96.5 8.826e+03 2.492e-09
 47.68946     97.0 8.792e+03 2.334e-09
 47.72296     98.4 8.645e+03 1.933e-09
 47.76308     99.9 8.469e+03 1.678e-09
 47.80321    101.6 8.394e+03 1.647e-09
 47.84112    103.4 8.395e+03 1.674e-09
 47.86118    103.4 8.399e+03 1.633e-09
 47.88345    105.1 8.404e+03 1.713e-09
 47.92357    106.8 8.477e+03 1.825e-09
 47.96369    108.2 8.551e+03 1.934e-09
 48.00381    109.5 8.632e+03 2.029e-09
 48.03291    110.6 8.691e+03 2.069e-09
 48.05297    110.8 8.596e+03 1.726e-09
 48.08158    111.8 8.600e+03 1.724e-09
 48.10164    112.6 8.624e+03 1.939e-09
 48.12417    113.6 8.591e+03 1.854e-09
 48.16429    114.7 8.524e+03 1.691e-09
 48.20441    115.9 8.461e+03 1.489e-09
 48.22469    117.2 8.416e+03 1.284e-09
 48.24475    117.6 8.443e+03 1.056e-09
 48.28466    118.9 8.404e+03 9.221e-10
 48.32478    120.6 8.388e+03 9.032e-10
 48.36490    122.5 8.390e+03 9.141e-10
 48.39642    124.5 8.414e+03 9.739e-10
 48.41648    124.9 8.421e+03 9.655e-10
 48.44514    127.0 8.504e+03 1.117e-09
 48.48526    129.1 8.643e+03 1.361e-09
 48.52538    131.1 8.868e+03 1.705e-09
 48.56493    132.9 9.194e+03 2.196e-09
 48.58499    133.7 9.208e+03 2.316e-09
 48.58820    134.7 9.487e+03 2.877e-09
 48.60826    135.8 9.521e+03 2.844e-09
 48.63561    135.9 9.647e+03 3.232e-09
 48.65558    136.2 9.829e+03 3.832e-09
 48.67387    136.7 1.009e+04 4.774e-09
 48.68390    137.3 1.004e+04 4.458e-09
 48.69570    137.7 1.030e+04 5.501e-09
 48.71576    137.9 1.052e+04 6.520e-09
 48.73582    138.0 1.075e+04 7.532e-09
 48.75588    137.7 1.113e+04 9.058e-09
 48.76976    136.5 1.184e+04 1.232e-08
 48.77979    137.4 1.182e+04 1.231e-08
 48.79600    135.5 1.280e+04 1.891e-08
 48.81606    133.1 1.369e+04 2.977e-08
 48.82646    130.8 1.411e+04 3.993e-08
 48.83649    132.0 1.397e+04 3.678e-08
 48.85563    129.7 1.400e+04 3.937e-08
 48.86566    130.4 1.403e+04 3.888e-08
 48.87624    128.3 1.390e+04 3.812e-08
 48.89630    126.8 1.342e+04 3.367e-08
 48.91636    125.8 1.269e+04 2.569e-08
 48.93642    125.2 1.184e+04 1.785e-08
 48.95162    124.8 1.077e+04 8.702e-09
 48.96165    125.5 1.157e+04 1.548e-08
 48.97654    125.6 1.115e+04 1.181e-08
 49.00673    126.1 1.076e+04 8.733e-09
 49.04695    126.9 1.002e+04 5.192e-09
 49.06833    128.1 9.328e+03 3.118e-09
 49.08839    128.0 9.819e+03 4.433e-09
 49.12344    129.2 9.145e+03 2.775e-09
 49.14350    130.8 1.019e+04 6.521e-09
 49.16731    132.1 9.562e+03 4.273e-09
 49.20743    133.7 8.937e+03 2.589e-09
 49.24756    135.6 8.420e+03 1.484e-09
 49.28768    137.6 8.032e+03 8.618e-10
 49.31522    139.6 7.661e+03 6.290e-10
 49.33528    141.1 8.122e+03 1.089e-09
 49.36792    143.1 7.857e+03 8.005e-10
 49.40804    145.1 7.675e+03 6.970e-10
 49.44816    147.0 7.562e+03 6.642e-10
 49.48695    148.9 7.489e+03 6.589e-10
 49.50701    150.3 7.799e+03 1.154e-09
 49.52840    151.9 7.734e+03 1.126e-09
 49.55168    153.4 7.724e+03 1.141e-09
 49.57174    153.1 7.891e+03 1.398e-09
 49.60864    154.4 7.905e+03 1.518e-09
 49.64876    155.6 7.986e+03 1.719e-09
 49.67873    156.8 8.090e+03 1.910e-09
 49.69879    157.1 8.699e+03 3.545e-09
 49.72900    158.2 8.711e+03 3.528e-09
 49.76913    159.1 8.730e+03 3.482e-09
 49.80925    160.1 8.762e+03 3.425e-09
 49.84937    161.2 8.791e+03 3.467e-09
 49.87052    162.4 8.881e+03 3.644e-09
 49.89058    162.1 9.268e+03 4.581e-09
 49.92961    163.2 9.443e+03 5.045e-09
 49.96973    164.3 9.748e+03 5.847e-09
 50.00985    165.0 1.009e+04 6.696e-09
 50.03502    165.3 1.022e+04 6.803e-09
 50.04736    166.3 9.911e+03 5.511e-09
 50.06230    166.0 9.806e+03 4.813e-09
 50.09009    166.6 9.845e+03 4.698e-09
 50.13021    167.1 9.812e+03 4.275e-09
 50.17033    167.8 9.760e+03 3.633e-09
 50.21045    168.4 9.774e+03 3.157e-09
 50.23403    168.8 9.803e+03 3.105e-09
 50.25409    169.4 9.793e+03 3.002e-09
 50.29070    169.5 9.887e+03 3.145e-09
 50.33082    169.3 1.021e+04 3.865e-09
 50.37094    168.2 1.085e+04 5.594e-09
 50.40093    167.1 1.133e+04 6.742e-09
 50.41559    166.3 1.159e+04 7.368e-09
 50.42572    167.5 1.195e+04 9.745e-09
 50.44105    166.1 1.227e+04 9.912e-09
 50.46101    164.8 1.230e+04 9.846e-09
 50.48108    163.2 1.233e+04 9.431e-09
 50.50114    161.8 1.224e+04 8.686e-09
 50.51148    161.0 1.211e+04 7.475e-09
 50.51849    161.3 1.232e+04 8.356e-09
 50.52820    162.4 1.236e+04 9.190e-09
 50.54126    161.7 1.221e+04 7.611e-09
 50.56132    161.4 1.204e+04 5.995e-09
 50.58138    161.3 1.190e+04 4.871e-09
 50.59734    161.2 1.179e+04 3.942e-09
 50.60737    161.6 1.190e+04 4.475e-09
 50.62150    161.6 1.179e+04 3.975e-09
 50.65169    162.5 1.167e+04 3.814e-09
 50.69190    163.3 1.147e+04 3.640e-09
 50.73203    164.4 1.150e+04 3.686e-09
 50.76926    166.2 1.170e+04 3.980e-09
 50.78932    166.0 1.164e+04 4.063e-09
 50.80214    166.7 1.170e+04 4.093e-09
 50.82210    166.7 1.187e+04 4.378e-09
 50.84216    166.0 1.244e+04 6.425e-09
 50.86222    165.1 1.359e+04 1.555e-08
 50.87499    164.3 1.486e+04 3.809e-08
 50.88502    164.4 1.411e+04 2.455e-08
 50.90234    163.6 1.482e+04 3.955e-08
 50.92240    162.4 1.497e+04 4.158e-08
 50.94246    161.1 1.485e+04 3.886e-08
 50.96085    160.7 1.433e+04 2.668e-08
 50.97088    160.7 1.373e+04 1.692e-08
 50.98259    160.5 1.322e+04 1.147e-08
 51.00162    160.6 1.267e+04 6.226e-09
 51.02178    162.6 1.292e+04 1.007e-08
 51.05299    162.8 1.250e+04 5.517e-09
 51.09311    163.0 1.220e+04 2.819e-09
 51.13277    163.1 1.200e+04 1.880e-09
 51.15283    163.7 1.201e+04 2.229e-09
 51.17335    164.1 1.190e+04 2.074e-09
 51.21348    164.6 1.184e+04 2.239e-09
 51.25360    165.1 1.176e+04 2.779e-09
 51.29372    165.8 1.174e+04 3.606e-09
 51.32456    166.7 1.181e+04 4.641e-09
 51.34462    166.6 1.173e+04 4.612e-09
 51.37396    167.5 1.181e+04 5.310e-09
 51.41408    168.6 1.194e+04 6.082e-09
 51.45420    169.4 1.202e+04 6.770e-09
 51.48506    170.2 1.208e+04 6.890e-09
 51.50512    171.5 1.207e+04 7.028e-09
 51.51634    172.2 1.215e+04 7.124e-09
 51.53640    172.3 1.181e+04 5.237e-09
 51.57456    173.6 1.179e+04 5.440e-09
 51.61468    174.7 1.179e+04 5.301e-09
 51.65480    175.8 1.175e+04 4.623e-09
 51.68807    177.1 1.157e+04 3.591e-09
 51.70813    178.1 1.141e+04 3.611e-09
 51.73505    179.6 1.135e+04 2.976e-09
 51.77517    181.2 1.129e+04 2.388e-09
 51.81529    182.8 1.119e+04 2.027e-09
 51.85541    184.6 1.109e+04 1.975e-09
 51.87985    186.5 1.109e+04 2.018e-09
 51.89991    187.3 1.118e+04 2.184e-09
 51.93565    188.7 1.123e+04 2.490e-09
 51.96841    189.0 1.126e+04 3.340e-09
 51.98847    189.6 1.122e+04 3.501e-09
 52.01589    189.8 1.130e+04 4.945e-09
 52.04588    189.0 1.144e+04 6.249e-09
 52.06141    188.6 1.146e+04 6.795e-09
 52.07154    189.2 1.141e+04 6.460e-09
 52.09613    187.4 1.146e+04 6.592e-09
 52.13625    185.2 1.144e+04 6.280e-09
 52.17638    183.7 1.118e+04 5.195e-09
 52.21650    183.7 1.086e+04 4.237e-09
 52.24326    183.4 1.083e+04 4.101e-09
 52.25320    182.3 1.135e+04 5.194e-09
 52.26645    182.5 1.116e+04 5.100e-09
 52.28651    183.0 1.114e+04 5.292e-09
 52.30657    183.5 1.114e+04 5.627e-09
 52.32663    184.2 1.116e+04 6.076e-09
 52.33906    185.0 1.118e+04 6.549e-09
 52.34909    184.8 1.157e+04 8.033e-09
 52.36675    185.7 1.160e+04 8.543e-09
 52.38681    186.5 1.165e+04 9.027e-09
 52.40687    187.2 1.169e+04 9.365e-09
 52.42492    187.8 1.169e+04 9.585e-09
 52.43495    187.4 1.202e+04 1.168e-08
 52.44700    187.9 1.193e+04 1.123e-08
 52.46159    188.3 1.180e+04 1.063e-08
 52.47162    188.2 1.161e+04 9.673e-09
 52.49724    188.5 1.140e+04 8.202e-09
 52.53746    189.2 1.096e+04 6.247e-09
 52.57758    189.7 1.049e+04 4.570e-09
 52.60687    190.1 1.010e+04 3.441e-09
 52.61680    190.3 1.031e+04 3.647e-09
 52.62754    190.4 1.024e+04 3.373e-09
 52.64760    190.5 1.007e+04 2.964e-09
 52.66766    190.5 9.973e+03 2.744e-09
 52.69785    190.1 9.887e+03 2.551e-09
 52.73807    189.7 9.737e+03 2.533e-09
 52.77819    189.7 9.604e+03 2.532e-09
 52.79866    189.6 9.541e+03 2.524e-09
 52.80859    188.4 1.003e+04 3.449e-09
 52.82814    188.3 9.980e+03 3.398e-09
 52.84820    188.2 9.921e+03 3.323e-09
 52.86826    188.1 9.863e+03 3.260e-09
 52.88432    188.0 9.815e+03 3.248e-09
 52.89435    187.0 9.958e+03 3.998e-09
 52.90838    186.8 9.944e+03 3.995e-09
 52.92845    186.7 9.931e+03 4.066e-09
 52.94493    186.6 9.936e+03 4.241e-09
 52.95496    185.5 9.937e+03 3.887e-09
 52.96857    185.5 9.974e+03 4.059e-09
 52.98022    185.6 1.003e+04 4.290e-09
 52.99034    183.9 1.037e+04 4.492e-09
 53.00878    184.0 1.032e+04 4.547e-09
 53.02875    184.1 1.035e+04 4.784e-09
 53.04881    184.0 1.038e+04 4.991e-09
 53.06608    183.9 1.036e+04 5.157e-09
 53.07611    182.9 1.032e+04 5.017e-09
 53.08893    182.9 1.025e+04 5.228e-09
 53.10899    182.9 1.024e+04 5.534e-09
 53.12905    183.0 1.025e+04 6.005e-09
 53.14911    183.0 1.035e+04 6.702e-09
 53.16197    183.0 1.054e+04 7.654e-09
 53.17200    182.3 1.067e+04 8.374e-09
 53.18661    182.2 1.096e+04 9.894e-09
 53.19664    182.2 1.042e+04 7.297e-09
 53.20929    182.0 1.072e+04 8.698e-09
 53.22935    181.8 1.104e+04 1.038e-08
 53.24783    181.5 1.139e+04 1.218e-08
 53.25786    180.5 1.162e+04 1.356e-08
 53.26947    179.9 1.191e+04 1.456e-08
 53.28953    179.1 1.196e+04 1.444e-08
 53.30959    178.1 1.197e+04 1.355e-08
 53.32965    177.2 1.181e+04 1.169e-08
 53.34373    176.5 1.156e+04 9.301e-09
 53.35376    175.6 1.142e+04 8.064e-09
 53.36977    175.2 1.108e+04 5.954e-09
 53.38983    174.8 1.078e+04 4.397e-09
 53.41835    174.7 1.046e+04 3.229e-09
 53.43851    173.9 1.028e+04 2.838e-09
 53.46024    173.9 9.714e+03 2.501e-09
 53.50036    174.2 9.713e+03 2.575e-09
 53.52558    174.2 9.787e+03 2.972e-09
 53.53551    173.6 9.960e+03 3.324e-09
 53.55032    173.4 1.009e+04 3.907e-09
 53.57038    173.1 1.026e+04 4.567e-09
 53.59044    172.5 1.047e+04 5.289e-09
 53.61050    171.5 1.079e+04 6.211e-09
 53.62137    169.7 1.126e+04 7.686e-09
 53.63140    168.2 1.155e+04 8.214e-09
 53.65062    165.4 1.211e+04 1.095e-08
 53.66995    162.3 1.251e+04 1.358e-08
 53.67998    160.6 1.251e+04 1.390e-08
 53.69074    157.2 1.252e+04 1.400e-08
 53.70724    154.0 1.233e+04 1.279e-08
 53.71727    152.6 1.225e+04 1.180e-08
 53.73086    149.9 1.169e+04 7.580e-09
 53.75092    146.9 1.091e+04 4.305e-09
 53.77098    143.5 1.019e+04 2.992e-09
 53.79104    140.7 9.894e+03 2.827e-09
 53.80313    139.1 9.853e+03 2.825e-09
 53.81316    138.7 9.904e+03 2.632e-09
 53.83116    137.8 9.881e+03 2.720e-09
 53.85122    136.5 9.947e+03 2.886e-09
 53.87128    135.0 1.010e+04 3.015e-09
 53.88899    133.4 1.023e+04 3.024e-09
 53.89902    133.6 1.026e+04 3.065e-09
 53.91141    132.1 1.029e+04 3.132e-09
 53.92166    130.5 1.030e+04 3.163e-09
 53.93169    130.1 1.033e+04 3.769e-09
 53.95153    128.6 1.032e+04 3.736e-09
 53.97159    127.1 1.025e+04 3.594e-09
 53.98488    125.5 1.012e+04 3.434e-09
 53.99491    126.0 1.033e+04 4.100e-09
 54.01171    124.4 1.021e+04 3.965e-09
 54.03177    122.6 1.019e+04 3.998e-09
 54.05183    120.7 1.018e+04 4.221e-09
 54.07075    118.5 1.024e+04 4.985e-09
 54.08078    119.0 1.046e+04 5.495e-09
 54.09195    116.5 1.074e+04 7.090e-09
 54.11201    114.1 1.117e+04 9.812e-09
 54.13207    111.7 1.164e+04 1.300e-08
 54.15213    109.3 1.194e+04 1.456e-08
 54.16333    106.6 1.197e+04 1.442e-08
 54.16781    105.3 1.247e+04 1.850e-08
 54.17667    105.2 1.290e+04 2.234e-08
 54.19225    103.5 1.268e+04 2.059e-08
 54.21231    101.9 1.228e+04 1.724e-08
 54.23237    100.6 1.187e+04 1.427e-08
 54.25243     99.4 1.150e+04 1.194e-08
 54.27249     98.8 1.136e+04 1.109e-08
 54.30268     98.4 1.108e+04 9.422e-09
 54.34290     98.2 1.067e+04 7.721e-09
 54.38302     98.1 1.057e+04 6.979e-09
 54.40520     98.1 1.060e+04 6.692e-09
 54.42526     96.0 1.064e+04 6.866e-09
 54.44448     96.2 1.057e+04 6.115e-09
 54.46454     97.7 1.061e+04 6.072e-09
 54.50338     98.1 1.054e+04 5.288e-09
 54.54350     98.6 1.043e+04 4.408e-09
 54.58362     99.2 1.027e+04 3.669e-09
 54.61621    100.0 1.014e+04 3.434e-09
 54.63627    101.3 1.032e+04 4.131e-09
 54.66387    101.9 1.029e+04 4.360e-09
 54.70399    102.3 1.036e+04 5.420e-09
 54.74411    102.3 1.056e+04 7.593e-09
 54.78423    102.2 1.071e+04 9.614e-09
 54.80799    101.8 1.072e+04 9.820e-09
 54.82805    103.0 1.036e+04 8.074e-09
 54.86447    102.5 1.015e+04 7.767e-09
 54.88854    102.0 9.767e+03 6.552e-09
 54.90860    100.2 9.669e+03 6.128e-09
 54.94471    100.1 9.299e+03 5.068e-09
 54.97972    100.3 8.950e+03 4.163e-09
 54.99978    101.9 8.945e+03 4.420e-09
 55.02495    102.3 8.682e+03 3.882e-09
 55.06507    103.1 8.496e+03 3.515e-09
 55.10520    104.1 8.399e+03 3.272e-09
 55.14532    105.2 8.354e+03 3.053e-09
 55.17150    106.2 8.303e+03 2.781e-09
 55.19156    107.7 8.247e+03 2.821e-09
 55.22556    108.8 8.207e+03 2.601e-09
 55.26568    110.2 8.220e+03 2.584e-09
 55.30580    111.7 8.338e+03 2.694e-09
 55.34323    112.1 8.698e+03 3.259e-09
 55.36329    113.7 8.796e+03 3.663e-09
 55.37189    113.7 9.444e+03 5.229e-09
 55.38182    112.8 9.420e+03 4.827e-09
 55.39588    112.8 9.643e+03 5.557e-09
 55.41594    112.3 1.010e+04 6.867e-09
 55.43600    111.6 1.044e+04 8.058e-09
 55.44895    110.7 1.073e+04 9.111e-09
 55.45898    111.0 1.071e+04 9.276e-09
 55.47612    109.4 1.103e+04 1.049e-08
 55.49618    107.9 1.138e+04 1.144e-08
 55.51624    106.5 1.148e+04 1.158e-08
 55.53482    105.4 1.156e+04 1.185e-08
 55.54485    103.0 1.389e+04 2.182e-08
 55.55636    101.3 1.491e+04 3.056e-08
 55.57642     98.9 1.645e+04 5.318e-08
 55.58773     97.7 1.677e+04 6.704e-08
 55.59269     96.4 1.799e+04 9.433e-08
 55.60140     94.8 1.851e+04 1.597e-07
 55.61143     93.8 1.864e+04 2.430e-07
 55.61828     93.2 1.867e+04 3.061e-07
 55.62330     92.4 1.887e+04 4.813e-07
 55.63061     91.4 1.879e+04 4.390e-07
 55.63563     91.1 1.874e+04 5.910e-07
 55.64152     90.4 1.857e+04 3.791e-07
 55.65155     90.1 1.822e+04 2.421e-07
 55.66158     89.8 1.780e+04 1.415e-07
 55.67667     88.5 1.667e+04 5.689e-08
 55.69678     86.2 1.437e+04 2.168e-08
 55.71657     84.1 1.236e+04 1.336e-08
 55.72660     83.0 1.168e+04 1.187e-08
 55.73690     83.2 1.134e+04 1.057e-08
 55.75696     83.8 1.117e+04 9.283e-09
 55.78715     84.6 1.076e+04 6.795e-09
 55.82737     85.4 1.013e+04 4.117e-09
 55.85523     86.0 9.566e+03 2.144e-09
 55.87530     86.2 9.587e+03 2.356e-09
 55.89852     86.5 9.106e+03 1.234e-09
 55.91858     86.3 9.115e+03 1.183e-09
 55.94773     86.5 8.562e+03 1.016e-09
 55.98785     87.2 8.533e+03 1.012e-09
 56.02797     88.1 8.535e+03 1.043e-09
 56.06809     88.9 8.536e+03 1.157e-09
 56.09031     89.8 8.464e+03 1.295e-09
 56.11037     89.7 8.537e+03 1.453e-09
 56.14834     90.7 8.473e+03 1.422e-09
 56.18846     91.8 8.362e+03 1.308e-09
 56.22858     92.9 8.252e+03 1.152e-09
 56.26203     94.0 8.164e+03 1.037e-09
 56.28209     94.0 8.263e+03 1.045e-09
 56.30882     95.2 8.300e+03 1.068e-09
 56.33858     96.3 8.409e+03 1.218e-09
 56.35864     96.9 8.610e+03 1.671e-09
 56.38906     97.8 8.917e+03 2.140e-09
 56.42918     98.5 9.261e+03 2.821e-09
 56.45372     98.2 9.426e+03 3.331e-09
 56.46365     97.8 9.609e+03 4.213e-09
 56.47914     97.9 9.809e+03 5.059e-09
 56.49920     98.0 1.002e+04 5.864e-09
 56.51926     98.0 1.021e+04 6.390e-09
 56.53932     97.9 1.035e+04 6.789e-09
 56.54951     97.7 1.052e+04 7.193e-09
 56.55954     97.4 1.047e+04 6.656e-09
 56.57944     97.1 1.058e+04 6.845e-09
 56.59009     96.6 1.074e+04 7.238e-09
 56.60012     96.6 1.075e+04 6.829e-09
 56.61956     96.0 1.090e+04 7.136e-09
 56.63538     95.4 1.104e+04 7.395e-09
 56.64541     95.4 1.087e+04 6.235e-09
 56.65968     94.7 1.103e+04 6.414e-09
 56.67974     94.0 1.117e+04 6.386e-09
 56.69980     93.1 1.126e+04 6.268e-09
 56.71986     92.1 1.140e+04 5.946e-09
 56.73127     91.0 1.147e+04 5.694e-09
 56.74130     91.7 1.142e+04 5.537e-09
 56.75998     90.7 1.148e+04 5.611e-09
 56.79017     88.5 1.149e+04 6.131e-09
 56.81733     85.8 1.146e+04 6.680e-09
 56.82892     87.7 1.181e+04 7.705e-09
 56.84189     86.6 1.183e+04 7.649e-09
 56.87041     85.0 1.186e+04 7.623e-09
 56.91063     81.9 1.152e+04 6.098e-09
 56.95075     79.0 1.110e+04 3.573e-09
 56.98905     76.3 1.095e+04 2.968e-09
 57.00911     77.8 1.085e+04 2.353e-09
 57.03099     75.4 1.091e+04 2.620e-09
 57.07112     72.8 1.141e+04 4.350e-09
 57.11124     70.2 1.220e+04 6.573e-09
 57.15136     67.6 1.245e+04 6.561e-09
 57.18084     65.3 1.246e+04 5.215e-09
 57.20090     67.2 1.257e+04 6.486e-09
 57.23160     65.2 1.243e+04 4.849e-09
 57.27172     63.6 1.211e+04 3.417e-09
 57.30527     62.7 1.174e+04 2.630e-09
 57.32533     61.3 1.156e+04 2.578e-09
 57.35196     61.7 1.155e+04 2.573e-09
 57.37262     62.2 1.157e+04 2.619e-09
 57.38255     62.8 1.156e+04 2.592e-09
 57.40192     63.3 1.156e+04 2.608e-09
 57.42198     63.6 1.164e+04 2.741e-09
 57.44204     63.9 1.173e+04 3.153e-09
 57.45829     64.3 1.185e+04 3.834e-09
 57.46832     64.8 1.197e+04 3.982e-09
 57.48216     65.1 1.214e+04 5.129e-09
 57.50222     65.1 1.234e+04 6.715e-09
 57.52228     65.2 1.256e+04 8.939e-09
 57.54234     65.0 1.287e+04 1.199e-08
 57.55418     64.8 1.314e+04 1.474e-08
 57.55859     65.6 1.314e+04 1.545e-08
 57.56681     64.9 1.356e+04 1.942e-08
 57.58246     64.3 1.380e+04 2.128e-08
 57.60252     63.2 1.379e+04 2.119e-08
 57.62258     62.3 1.362e+04 2.014e-08
 57.64004     61.4 1.318e+04 1.720e-08
 57.65007     62.3 1.340e+04 1.886e-08
 57.67283     61.4 1.260e+04 1.238e-08
 57.71305     61.4 1.164e+04 6.533e-09
 57.73613     61.9 1.083e+04 2.715e-09
 57.75619     63.5 1.112e+04 4.127e-09
 57.78862     64.4 1.063e+04 1.417e-09
 57.80868     63.5 1.080e+04 7.458e-10
 57.83341     64.0 1.008e+04 4.371e-10
 57.87353     65.6 9.859e+03 4.250e-10
 57.90785     67.8 9.827e+03 4.316e-10
 57.92792     69.0 9.881e+03 4.522e-10
 57.95377     71.2 9.848e+03 4.691e-10
 57.99389     73.3 9.806e+03 5.426e-10
 58.03401     75.3 9.767e+03 6.909e-10
 58.07414     77.3 9.745e+03 9.087e-10
 58.09964     79.1 9.771e+03 1.153e-09
 58.11970     80.1 9.909e+03 1.230e-09
 58.15438     81.7 9.990e+03 1.620e-09
 58.19450     83.2 1.009e+04 1.978e-09
 58.23462     84.5 1.019e+04 2.247e-09
 58.27136     85.6 1.029e+04 2.499e-09
 58.28865     86.1 1.051e+04 3.270e-09
 58.29202     85.3 1.101e+04 5.471e-09
 58.31486     85.8 1.132e+04 6.785e-09
 58.35498     86.1 1.166e+04 7.624e-09
 58.39510     86.1 1.177e+04 7.655e-09
 58.43522     86.1 1.182e+04 6.559e-09
 58.46305     85.9 1.181e+04 5.667e-09
 58.47298     85.7 1.206e+04 7.833e-09
 58.48518     85.8 1.211e+04 7.250e-09
 58.50524     85.7 1.212e+04 6.507e-09
 58.52347     85.4 1.208e+04 5.875e-09
 58.53350     85.0 1.208e+04 4.961e-09
 58.54536     84.7 1.212e+04 5.009e-09
 58.55885     84.0 1.229e+04 5.344e-09
 58.56888     82.5 1.273e+04 8.999e-09
 58.58548     81.3 1.275e+04 1.194e-08
 58.60554     80.3 1.285e+04 1.711e-08
 58.62560     79.7 1.313e+04 2.353e-08
 58.64471     79.1 1.357e+04 2.864e-08
 58.65474     78.0 1.332e+04 2.429e-08
 58.66572     76.8 1.320e+04 2.126e-08
 58.68578     75.3 1.289e+04 1.813e-08
 58.70584     73.8 1.251e+04 1.635e-08
 58.72590     72.6 1.223e+04 1.567e-08
 58.74060     71.6 1.208e+04 1.544e-08
 58.75063     71.1 1.170e+04 1.222e-08
 58.76515     70.6 1.162e+04 1.220e-08
 58.77518     69.9 1.164e+04 1.214e-08
 58.79621     69.2 1.171e+04 1.294e-08
 58.82666     68.1 1.142e+04 1.136e-08
 58.84672     67.6 1.073e+04 7.817e-09
 58.87655     66.7 1.046e+04 7.173e-09
 58.91667     66.5 1.012e+04 6.366e-09
 58.95679     66.7 9.678e+03 5.228e-09
 58.99691     67.5 9.219e+03 4.029e-09
 59.01844     68.8 8.847e+03 3.046e-09
 59.03851     69.3 8.804e+03 3.090e-09
 59.07716     70.7 8.504e+03 2.323e-09
 59.11728     72.2 8.292e+03 1.782e-09
 59.15740     73.7 8.094e+03 1.501e-09
 59.19017     75.4 8.046e+03 1.488e-09
 59.21023     75.9 7.892e+03 1.476e-09
 59.23764     77.7 7.889e+03 1.499e-09
 59.25872     79.5 7.912e+03 1.608e-09
 59.27878     79.3 8.279e+03 2.767e-09
 59.31788     80.9 8.409e+03 3.185e-09
 59.35800     82.3 8.602e+03 3.785e-09
 59.38195     83.6 8.812e+03 4.515e-09
 59.40201     84.0 8.289e+03 2.728e-09
 59.43824     85.0 8.403e+03 3.165e-09
 59.47836     85.9 8.386e+03 3.352e-09
 59.51849     86.7 8.339e+03 3.294e-09
 59.55368     87.6 8.178e+03 2.919e-09
 59.57374     88.3 7.786e+03 1.997e-09
 59.59873     89.0 7.707e+03 1.954e-09
 59.63885     89.2 7.702e+03 1.966e-09
 59.67897     89.3 7.732e+03 2.040e-09
 59.71909     89.1 7.869e+03 2.326e-09
 59.74206     88.0 8.247e+03 3.034e-09
 59.74838     89.1 8.061e+03 2.819e-09
 59.76552     90.0 8.375e+03 3.312e-09
 59.78920     88.7 8.866e+03 4.247e-09
 59.80917     87.3 9.241e+03 5.160e-09
 59.82923     85.7 9.531e+03 6.178e-09
 59.84116     83.9 9.735e+03 7.236e-09
 59.85119     84.6 9.774e+03 7.345e-09
 59.86935     82.7 9.980e+03 8.546e-09
 59.88941     80.7 1.029e+04 1.011e-08
 59.90947     78.3 1.066e+04 1.135e-08
 59.92702     75.6 1.072e+04 1.130e-08
 59.93705     76.4 1.107e+04 1.343e-08
 59.94959     73.8 1.098e+04 1.277e-08
 59.96965     71.5 1.074e+04 1.057e-08
 59.98354     68.9 1.055e+04 8.302e-09
 59.99357     69.7 1.072e+04 9.922e-09
 60.00977     66.8 1.074e+04 9.539e-09
 60.02292     63.7 1.093e+04 1.016e-08
 60.03295     63.5 1.123e+04 1.271e-08
 60.04989     59.8 1.198e+04 1.760e-08
 60.06995     57.4 1.298e+04 2.704e-08
 60.08495     54.7 1.444e+04 3.825e-08
 60.09493     51.1 1.625e+04 6.163e-08
 60.10428     47.2 1.735e+04 1.173e-07
 60.10929     47.0 1.747e+04 1.291e-07
 60.11370     44.8 1.735e+04 2.638e-07
 60.11871     45.3 1.714e+04 2.063e-07
 60.12502     45.4 1.749e+04 2.296e-07
 60.13505     45.5 1.755e+04 2.140e-07
 60.15014     43.3 1.741e+04 8.715e-08
 60.17025     39.1 1.677e+04 2.430e-08
 60.19031     32.2 1.358e+04 6.545e-09
 60.20467     25.8 1.096e+04 2.831e-09
 60.21470     24.8 1.054e+04 2.963e-09
 60.22531     23.1 1.036e+04 2.496e-09
 60.24547     22.8 1.089e+04 3.610e-09
 60.28070     22.6 1.090e+04 3.437e-09
 60.32082     21.4 1.101e+04 3.684e-09
 60.36102     21.3 1.102e+04 3.241e-09
 60.40114     21.1 1.091e+04 2.411e-09
 60.44126     20.7 1.087e+04 2.370e-09
 60.47248     19.0 1.119e+04 3.645e-09
 60.49254     17.3 1.100e+04 3.837e-09
 60.51138     15.4 1.175e+04 5.896e-09
 60.53134     15.6 1.177e+04 6.700e-09
 60.55140     14.3 1.250e+04 8.176e-09
 60.56818     13.8 1.227e+04 7.836e-09
 60.57821     12.9 1.225e+04 7.533e-09
 60.60165     10.2 1.247e+04 8.056e-09
 60.64187      8.5 1.146e+04 5.234e-09
 60.66427      8.4 1.062e+04 1.791e-09
 60.68433      7.3 1.039e+04 1.357e-09
 60.70875      4.7 1.078e+04 5.326e-10
 60.72881      3.7 1.036e+04 6.500e-10
 60.76223      1.8 1.041e+04 8.714e-10
 60.80235      0.5 1.067e+04 1.999e-09
 60.83599      0.7 1.113e+04 4.072e-09
 60.85605      1.1 1.072e+04 3.126e-09
 60.88259      0.4 1.096e+04 3.038e-09
 60.92271      0.2 1.097e+04 2.128e-09
 60.96283     -0.4 1.097e+04 1.284e-09
 61.00296     -0.6 1.091e+04 9.857e-10
 61.02778      0.2 1.069e+04 9.310e-10
 61.04784      0.8 1.083e+04 1.066e-09
 61.08320      1.7 1.096e+04 1.210e-09
 61.12332      2.6 1.126e+04 2.231e-09
 61.15331      1.6 1.176e+04 4.119e-09
 61.17327      1.0 1.249e+04 5.951e-09
 61.19190     -4.6 1.521e+04 1.487e-08
 61.20194     -6.2 1.463e+04 1.554e-08
 61.20934     -6.3 1.407e+04 4.003e-08
 61.21937     -6.9 1.408e+04 2.810e-08
 61.23346     -7.8 1.413e+04 3.528e-08
 61.25352     -9.5 1.492e+04 2.133e-08
 61.27358    -15.1 1.454e+04 1.006e-08
 61.29364    -20.0 1.242e+04 7.453e-09
 61.30523    -21.0 1.214e+04 6.995e-09
 61.31526    -19.9 1.174e+04 4.946e-09
 61.33376    -20.7 1.217e+04 3.673e-09
 61.35382    -22.3 1.223e+04 3.192e-09
 61.37388    -23.4 1.196e+04 3.484e-09
 61.39109    -23.9 1.173e+04 4.430e-09
 61.40112    -23.4 1.167e+04 2.297e-09
 61.41400    -23.9 1.171e+04 3.246e-09
 61.43358    -24.9 1.214e+04 4.964e-09
 61.44361    -25.4 1.224e+04 4.782e-09
 61.45412    -27.4 1.294e+04 9.103e-09
 61.47418    -29.2 1.331e+04 1.696e-08
 61.48699    -29.6 1.367e+04 2.515e-08
 61.49702    -28.6 1.342e+04 2.154e-08
 61.51430    -28.3 1.368e+04 2.324e-08
 61.53436    -28.8 1.346e+04 1.382e-08
 61.55442    -31.1 1.281e+04 5.995e-09
 61.57285    -33.8 1.201e+04 4.172e-09
 61.58288    -33.7 1.211e+04 3.676e-09
 61.59454    -34.5 1.199e+04 3.638e-09
 61.61460    -35.3 1.207e+04 4.312e-09
 61.63466    -36.0 1.229e+04 5.332e-09
 61.65472    -36.7 1.256e+04 6.426e-09
 61.66874    -37.6 1.265e+04 7.043e-09
 61.67877    -37.4 1.262e+04 6.950e-09
 61.68528    -38.4 1.268e+04 7.127e-09
 61.69541    -38.5 1.246e+04 6.716e-09
 61.72513    -41.9 1.279e+04 7.209e-09
 61.75470    -44.9 1.294e+04 6.629e-09
 61.76463    -43.8 1.289e+04 6.191e-09
 61.77509    -48.5 1.386e+04 1.008e-08
 61.79515    -53.3 1.510e+04 2.593e-08
 61.81521    -55.3 1.613e+04 6.871e-08
 61.83527    -57.3 1.671e+04 9.053e-08
 61.85050    -60.4 1.649e+04 7.979e-08
 61.86053    -58.3 1.674e+04 8.461e-08
 61.87539    -62.1 1.554e+04 3.942e-08
 61.89545    -67.1 1.363e+04 1.802e-08
 61.91551    -70.7 1.296e+04 1.508e-08
 61.92695    -72.7 1.297e+04 1.568e-08
 61.93698    -71.8 1.341e+04 1.702e-08
 61.94639    -73.9 1.387e+04 1.906e-08
 61.95642    -73.0 1.385e+04 2.051e-08
 61.97569    -75.0 1.452e+04 2.741e-08
 61.99575    -76.8 1.487e+04 2.918e-08
 62.01581    -78.7 1.495e+04 2.671e-08
 62.03225    -80.7 1.454e+04 1.796e-08
 62.04228    -79.4 1.547e+04 6.395e-08
 62.05593    -81.2 1.469e+04 4.001e-08
 62.07599    -83.1 1.378e+04 2.265e-08
 62.09605    -84.9 1.308e+04 1.540e-08
 62.11611    -86.1 1.273e+04 1.361e-08
 62.12814    -86.5 1.261e+04 1.335e-08
 62.13817    -86.3 1.347e+04 2.287e-08
 62.15623    -86.4 1.321e+04 2.147e-08
 62.16863    -86.4 1.300e+04 1.961e-08
 62.17866    -87.4 1.277e+04 1.632e-08
 62.19635    -87.1 1.249e+04 1.361e-08
 62.21401    -86.8 1.219e+04 1.101e-08
 62.22404    -86.3 1.250e+04 1.527e-08
 62.23648    -86.1 1.217e+04 1.160e-08
 62.25654    -85.9 1.181e+04 8.904e-09
 62.27660    -85.9 1.145e+04 7.163e-09
 62.29666    -85.9 1.116e+04 6.373e-09
 62.30990    -85.7 1.098e+04 6.094e-09
 62.31993    -85.4 1.107e+04 7.064e-09
 62.33678    -85.3 1.096e+04 6.945e-09
 62.35684    -85.1 1.092e+04 6.945e-09
 62.37690    -84.9 1.087e+04 7.078e-09
 62.39576    -84.9 1.081e+04 7.121e-09
 62.40579    -84.7 1.090e+04 7.878e-09
 62.41030    -85.3 1.098e+04 7.881e-09
 62.42033    -89.0 1.326e+04 1.106e-08
 62.43708    -93.8 1.603e+04 3.077e-08
 62.45714    -96.4 1.700e+04 8.038e-08
 62.47720    -97.4 1.720e+04 1.285e-07
 62.49165    -98.0 1.705e+04 1.329e-07
 62.50168    -98.1 1.679e+04 1.029e-07
 62.51732    -98.9 1.655e+04 9.441e-08
 62.53738   -100.0 1.639e+04 7.586e-08
 62.55744   -102.0 1.633e+04 5.799e-08
 62.57750   -104.5 1.624e+04 5.119e-08
 62.59756   -107.7 1.671e+04 8.934e-08
 62.61762   -108.9 1.644e+04 8.644e-08
 62.63043   -110.2 1.575e+04 6.654e-08
 62.63539   -110.3 1.565e+04 6.473e-08
 62.64260   -110.7 1.555e+04 6.348e-08
 62.65188   -111.2 1.532e+04 5.807e-08
 62.65689   -111.7 1.455e+04 4.079e-08
 62.66266   -112.1 1.432e+04 3.592e-08
 62.67336   -113.0 1.391e+04 2.899e-08
 62.68344   -113.1 1.351e+04 2.243e-08
 62.69787   -114.0 1.297e+04 1.608e-08
 62.71793   -114.7 1.241e+04 1.123e-08
 62.73799   -114.9 1.202e+04 8.722e-09
 62.75805   -115.0 1.171e+04 7.345e-09
 62.76930   -114.4 1.141e+04 6.333e-09
 62.77933   -114.2 1.133e+04 5.968e-09
 62.79817   -113.3 1.127e+04 5.453e-09
 62.81823   -112.4 1.130e+04 4.916e-09
 62.83829   -111.6 1.138e+04 4.486e-09
 62.85516   -110.8 1.148e+04 4.105e-09
 62.86519   -110.8 1.151e+04 4.215e-09
 62.87841   -110.0 1.153e+04 3.951e-09
 62.89365   -109.3 1.155e+04 3.852e-09
 62.90368   -109.3 1.153e+04 3.889e-09
 62.91853   -108.6 1.153e+04 3.851e-09
 62.93859   -107.9 1.159e+04 3.925e-09
 62.96878   -107.4 1.186e+04 4.521e-09
 63.00900   -106.4 1.229e+04 6.621e-09
 63.03711   -106.1 1.282e+04 1.036e-08
 63.04705   -106.6 1.288e+04 1.028e-08
 63.05895   -106.8 1.330e+04 1.360e-08
 63.07901   -106.9 1.374e+04 1.780e-08
 63.09907   -107.2 1.408e+04 2.069e-08
 63.11913   -107.9 1.417e+04 2.134e-08
 63.13281   -108.6 1.411e+04 1.949e-08
 63.13896   -110.0 1.474e+04 2.614e-08
 63.14535   -110.5 1.464e+04 3.192e-08
 63.15925   -111.8 1.459e+04 2.905e-08
 63.17931   -113.4 1.451e+04 2.750e-08
 63.19938   -115.1 1.450e+04 2.784e-08
 63.21867   -116.9 1.448e+04 3.034e-08
 63.22870   -116.4 1.460e+04 4.882e-08
 63.23950   -117.7 1.444e+04 4.447e-08
 63.25956   -118.9 1.409e+04 3.358e-08
 63.27962   -120.1 1.361e+04 2.347e-08
 63.29968   -121.3 1.313e+04 1.687e-08
 63.31456   -122.2 1.277e+04 1.372e-08
 63.32460   -121.6 1.287e+04 1.418e-08
 63.33980   -121.9 1.270e+04 1.274e-08
 63.35986   -121.9 1.263e+04 1.225e-08
 63.37699   -121.8 1.261e+04 1.217e-08
 63.38702   -121.9 1.269e+04 1.223e-08
 63.39998   -121.7 1.277e+04 1.262e-08
 63.41046   -121.5 1.278e+04 1.295e-08
 63.42049   -120.8 1.280e+04 1.416e-08
 63.44010   -120.5 1.281e+04 1.426e-08
 63.46016   -120.2 1.281e+04 1.421e-08
 63.48022   -120.0 1.276e+04 1.359e-08
 63.49632   -119.9 1.267e+04 1.275e-08
 63.50635   -119.2 1.300e+04 1.569e-08
 63.52034   -119.2 1.289e+04 1.446e-08
 63.54040   -119.3 1.275e+04 1.332e-08
 63.56046   -119.4 1.262e+04 1.231e-08
 63.58052   -119.6 1.250e+04 1.122e-08
 63.59221   -119.7 1.238e+04 1.001e-08
 63.60224   -119.4 1.290e+04 1.122e-08
 63.61866   -119.6 1.263e+04 9.435e-09
 63.62869   -120.2 1.334e+04 1.235e-08
 63.64070   -120.2 1.314e+04 1.060e-08
 63.66076   -120.3 1.294e+04 8.986e-09
 63.67807   -120.2 1.274e+04 7.570e-09
 63.68810   -120.5 1.367e+04 1.304e-08
 63.70089   -120.3 1.332e+04 1.048e-08
 63.72095   -119.9 1.300e+04 8.686e-09
 63.74101   -119.5 1.277e+04 7.617e-09
 63.76107   -119.1 1.261e+04 7.008e-09
 63.77397   -118.6 1.248e+04 6.573e-09
 63.78400   -118.8 1.284e+04 8.913e-09
 63.80119   -118.1 1.260e+04 7.649e-09
 63.82125   -117.3 1.236e+04 6.377e-09
 63.84131   -116.3 1.215e+04 5.103e-09
 63.85983   -115.2 1.201e+04 3.940e-09
 63.86883   -115.3 1.206e+04 4.054e-09
 63.87037   -115.4 1.223e+04 4.259e-09
 63.88143   -114.3 1.213e+04 3.189e-09
 63.90149   -113.3 1.216e+04 2.515e-09
 63.93168   -112.5 1.219e+04 2.094e-09
 63.95592   -111.0 1.210e+04 1.628e-09
 63.97598   -111.3 1.229e+04 1.964e-09
 64.01202   -109.7 1.214e+04 1.713e-09
 64.05214   -107.7 1.205e+04 1.569e-09
 64.09218   -106.1 1.205e+04 1.551e-09
 64.12756   -104.9 1.242e+04 1.941e-09
 64.14770   -106.0 1.253e+04 3.400e-09
 64.17250   -105.5 1.268e+04 4.978e-09
 64.21262   -105.2 1.284e+04 7.064e-09
 64.25274   -105.1 1.295e+04 8.435e-09
 64.29286   -105.3 1.298e+04 8.749e-09
 64.31943   -105.5 1.292e+04 8.314e-09
 64.33949   -106.2 1.267e+04 4.144e-09
 64.37310   -105.9 1.258e+04 3.516e-09
 64.41323   -105.2 1.255e+04 2.920e-09
 64.45335   -104.4 1.249e+04 2.245e-09
 64.49115   -103.1 1.246e+04 1.689e-09
 64.51121   -102.6 1.246e+04 1.317e-09
 64.53359   -101.0 1.252e+04 1.125e-09
 64.57371    -99.2 1.262e+04 1.047e-09
 64.59558    -97.3 1.266e+04 1.039e-09
 64.61564    -98.0 1.272e+04 1.055e-09
 64.65395    -96.5 1.309e+04 1.178e-09
 64.68294    -95.1 1.307e+04 1.639e-09
 64.70300    -94.5 1.272e+04 1.475e-09
 64.73419    -93.0 1.269e+04 1.956e-09
 64.77431    -91.5 1.276e+04 2.432e-09
 64.81443    -90.1 1.285e+04 2.676e-09
 64.85455    -88.5 1.288e+04 2.717e-09
 64.89468    -85.6 1.285e+04 2.205e-09
 64.93480    -83.6 1.284e+04 2.066e-09
 64.97492    -81.3 1.281e+04 1.947e-09
 65.01504    -79.2 1.282e+04 1.921e-09
 65.04645    -77.5 1.287e+04 1.977e-09
 65.06651    -76.7 1.268e+04 2.311e-09
 65.07893    -75.7 1.280e+04 3.438e-09
 65.09899    -74.8 1.297e+04 4.785e-09
 65.13540    -74.3 1.318e+04 8.734e-09
 65.16539    -74.4 1.296e+04 1.112e-08
 65.18536    -75.5 1.315e+04 1.222e-08
 65.20542    -76.9 1.359e+04 1.271e-08
 65.22548    -78.7 1.370e+04 1.272e-08
 65.23804    -80.9 1.388e+04 1.231e-08
 65.24807    -80.0 1.376e+04 1.220e-08
 65.26560    -82.8 1.462e+04 1.311e-08
 65.28566    -85.0 1.511e+04 1.605e-08
 65.30572    -86.6 1.524e+04 1.899e-08
 65.32041    -87.9 1.531e+04 1.985e-08
 65.32856    -90.9 1.547e+04 2.278e-08
 65.33393    -90.2 1.573e+04 2.847e-08
 65.34584    -91.6 1.555e+04 2.389e-08
 65.36590    -93.6 1.528e+04 1.991e-08
 65.38596    -96.0 1.492e+04 1.769e-08
 65.40602    -98.5 1.473e+04 1.719e-08
 65.41979   -100.2 1.459e+04 1.756e-08
 65.42982   -100.9 1.500e+04 2.755e-08
 65.44614   -102.5 1.455e+04 2.312e-08
 65.46620   -103.2 1.404e+04 1.731e-08
 65.48626   -103.4 1.364e+04 1.257e-08
 65.50565   -103.5 1.336e+04 9.702e-09
 65.51568   -103.9 1.346e+04 1.213e-08
 65.52638   -103.8 1.326e+04 9.702e-09
 65.54644   -103.6 1.316e+04 8.787e-09
 65.56208   -103.2 1.309e+04 8.310e-09
 65.57211   -103.3 1.313e+04 8.335e-09
 65.58656   -102.9 1.303e+04 7.666e-09
 65.60155   -102.5 1.295e+04 6.649e-09
 65.61158   -103.0 1.296e+04 6.724e-09
 65.62669   -102.7 1.274e+04 5.346e-09
 65.64675   -102.3 1.249e+04 4.224e-09
 65.66681   -101.9 1.229e+04 3.419e-09
 65.69699   -101.5 1.213e+04 2.709e-09
 65.73721    -99.9 1.168e+04 1.890e-09
 65.77347    -98.2 1.146e+04 1.326e-09
 65.79353    -98.2 1.138e+04 1.203e-09
 65.81745    -96.5 1.122e+04 9.644e-10
 65.85758    -95.0 1.110e+04 9.046e-10
 65.89770    -93.6 1.106e+04 9.039e-10
 65.93782    -92.3 1.083e+04 1.099e-09
 65.96525    -91.1 1.068e+04 1.519e-09
 65.98531    -90.7 1.068e+04 1.585e-09
 66.01806    -89.5 1.061e+04 2.031e-09
 66.04562    -88.6 1.052e+04 2.426e-09
 66.06568    -89.4 1.074e+04 2.220e-09
 66.09830    -88.9 1.070e+04 2.767e-09
 66.13698    -88.6 1.076e+04 3.230e-09
 66.15704    -88.0 1.076e+04 3.124e-09
 66.17854    -88.0 1.077e+04 3.461e-09
 66.21866    -88.3 1.079e+04 3.746e-09
 66.25878    -88.9 1.085e+04 4.047e-09
 66.29890    -89.4 1.092e+04 4.600e-09
 66.32876    -89.7 1.104e+04 5.526e-09
 66.33869    -90.4 1.147e+04 7.830e-09
 66.34886    -90.5 1.144e+04 7.788e-09
 66.36892    -90.8 1.136e+04 7.796e-09
 66.38898    -91.0 1.134e+04 8.010e-09
 66.40904    -91.1 1.132e+04 8.061e-09
 66.42446    -91.2 1.132e+04 7.953e-09
 66.43449    -91.7 1.141e+04 7.700e-09
 66.44916    -91.8 1.138e+04 7.498e-09
 66.46922    -91.9 1.138e+04 7.437e-09
 66.48928    -92.1 1.142e+04 7.446e-09
 66.50934    -92.5 1.158e+04 7.761e-09
 66.52035    -93.2 1.182e+04 8.519e-09
 66.52975    -94.3 1.200e+04 8.955e-09
 66.53880    -95.2 1.211e+04 9.377e-09
 66.54946    -96.1 1.240e+04 1.141e-08
 66.56952    -96.9 1.267e+04 1.335e-08
 66.58958    -97.8 1.288e+04 1.469e-08
 66.61977    -99.5 1.301e+04 1.556e-08
 66.64986   -101.3 1.292e+04 1.544e-08
 66.66983   -102.3 1.288e+04 1.530e-08
 66.68989   -102.7 1.279e+04 1.458e-08
 66.70211   -103.9 1.282e+04 1.480e-08
 66.71214   -104.3 1.259e+04 1.093e-08
 66.73001   -105.5 1.262e+04 1.099e-08
 66.75007   -106.9 1.255e+04 1.204e-08
 66.77013   -108.4 1.238e+04 1.275e-08
 66.78047   -109.7 1.226e+04 1.300e-08
 66.78828   -110.1 1.217e+04 1.176e-08
 66.79800   -109.9 1.203e+04 9.984e-09
 66.81025   -111.3 1.201e+04 1.137e-08
 66.83031   -112.4 1.212e+04 1.368e-08
 66.85037   -113.3 1.228e+04 1.612e-08
 66.87043   -114.3 1.243e+04 1.780e-08
 66.88386   -115.3 1.248e+04 1.829e-08
 66.89389   -115.4 1.292e+04 2.356e-08
 66.91055   -116.4 1.288e+04 2.351e-08
 66.93061   -117.2 1.257e+04 2.020e-08
 66.95067   -117.8 1.216e+04 1.568e-08
 66.96972   -118.4 1.176e+04 1.209e-08
 66.97975   -118.4 1.188e+04 1.330e-08
 66.99079   -118.9 1.154e+04 1.040e-08
 67.01085   -119.2 1.127e+04 8.945e-09
 67.02215   -119.3 1.108e+04 8.352e-09
 67.03218   -119.6 1.135e+04 9.582e-09
 67.05097   -119.4 1.126e+04 9.354e-09
 67.06562   -118.9 1.125e+04 9.323e-09
 67.07565   -119.5 1.133e+04 8.240e-09
 67.09110   -119.2 1.134e+04 8.175e-09
 67.11116   -118.9 1.140e+04 8.184e-09
 67.13122   -118.6 1.150e+04 8.317e-09
 67.15128   -118.3 1.161e+04 8.533e-09
 67.16151   -117.9 1.171e+04 8.799e-09
 67.17154   -118.1 1.112e+04 6.794e-09
 67.19140   -117.9 1.119e+04 6.926e-09
 67.21146   -117.7 1.125e+04 7.147e-09
 67.23152   -117.5 1.132e+04 7.390e-09
 67.24737   -117.3 1.145e+04 7.652e-09
 67.25740   -117.0 1.128e+04 5.146e-09
 67.26382   -117.1 1.146e+04 5.483e-09
 67.27385   -117.4 1.134e+04 5.105e-09
 67.29170   -117.6 1.160e+04 5.564e-09
 67.31176   -118.1 1.172e+04 6.322e-09
 67.33182   -118.6 1.195e+04 7.907e-09
 67.34326   -119.1 1.227e+04 1.047e-08
 67.35329   -119.6 1.220e+04 1.092e-08
 67.37194   -120.0 1.258e+04 1.508e-08
 67.39200   -120.2 1.284e+04 1.878e-08
 67.41206   -120.4 1.290e+04 2.042e-08
 67.42913   -120.4 1.289e+04 2.063e-08
 67.43916   -120.2 1.262e+04 2.271e-08
 67.45218   -120.0 1.256e+04 1.966e-08
 67.47224   -119.9 1.239e+04 1.478e-08
 67.49230   -120.0 1.237e+04 1.164e-08
 67.50549   -120.1 1.244e+04 9.993e-09
 67.51552   -119.6 1.248e+04 1.057e-08
 67.52502   -119.7 1.258e+04 1.009e-08
 67.53505   -120.2 1.246e+04 8.527e-09
 67.55248   -120.4 1.251e+04 8.571e-09
 67.57254   -120.9 1.272e+04 9.493e-09
 67.59261   -121.3 1.287e+04 1.114e-08
 67.61088   -121.8 1.302e+04 1.304e-08
 67.62091   -122.4 1.277e+04 1.157e-08
 67.63273   -122.9 1.280e+04 1.233e-08
 67.65279   -123.6 1.276e+04 1.252e-08
 67.67285   -124.2 1.239e+04 1.225e-08
 67.69291   -124.6 1.203e+04 1.076e-08
 67.70677   -124.9 1.169e+04 8.762e-09
 67.71680   -125.1 1.144e+04 7.429e-09
 67.73303   -125.5 1.123e+04 5.849e-09
 67.74717   -126.1 1.097e+04 4.642e-09
 67.75720   -124.9 1.122e+04 5.864e-09
 67.77315   -125.4 1.099e+04 4.806e-09
 67.79264   -125.8 1.073e+04 4.136e-09
 67.80267   -126.0 1.058e+04 4.114e-09
 67.81327   -126.3 1.040e+04 3.899e-09
 67.83333   -126.3 1.024e+04 3.835e-09
 67.85339   -126.1 1.015e+04 3.729e-09
 67.87345   -125.7 1.014e+04 3.664e-09
 67.88853   -125.4 1.018e+04 3.659e-09
 67.89856   -124.9 1.009e+04 3.366e-09
 67.91357   -124.6 1.014e+04 3.397e-09
 67.93363   -124.8 1.072e+04 3.651e-09
 67.95369   -126.3 1.227e+04 6.759e-09
 67.97375   -127.3 1.323e+04 1.697e-08
 67.98442   -127.5 1.397e+04 3.404e-08
 67.98948   -126.7 1.352e+04 2.002e-08
 67.99887   -126.2 1.370e+04 1.888e-08
 68.01387   -126.5 1.468e+04 4.369e-08
 68.03393   -126.8 1.563e+04 7.026e-08
 68.05399   -128.7 1.624e+04 7.851e-08
 68.07028   -132.7 1.650e+04 7.408e-08
 68.08031   -133.0 1.803e+04 1.373e-07
 68.08905   -138.1 1.761e+04 8.905e-08
 68.09903   -142.3 1.757e+04 8.455e-08
 68.11413   -146.7 1.732e+04 7.624e-08
 68.13424   -153.4 1.582e+04 5.060e-08
 68.15430   -158.5 1.489e+04 3.901e-08
 68.16618   -161.1 1.449e+04 3.473e-08
 68.17114   -161.9 1.445e+04 4.118e-08
 68.17927   -162.5 1.451e+04 4.199e-08
 68.19437   -163.7 1.454e+04 4.300e-08
 68.21448   -164.8 1.442e+04 4.221e-08
 68.23051   -165.3 1.428e+04 4.108e-08
 68.24054   -164.0 1.371e+04 3.208e-08
 68.25204   -164.3 1.375e+04 3.206e-08
 68.26207   -165.1 1.385e+04 2.533e-08
 68.27466   -165.2 1.376e+04 2.419e-08
 68.29472   -165.4 1.353e+04 2.215e-08
 68.31478   -165.2 1.318e+04 1.890e-08
 68.33484   -164.7 1.281e+04 1.504e-08
 68.34793   -164.2 1.253e+04 1.153e-08
 68.35796   -164.6 1.227e+04 9.245e-09
 68.37496   -164.2 1.217e+04 7.466e-09
 68.39502   -163.9 1.217e+04 6.815e-09
 68.41508   -163.5 1.218e+04 6.710e-09
 68.43379   -163.2 1.228e+04 6.825e-09
 68.44382   -163.4 1.206e+04 5.916e-09
 68.45520   -163.2 1.227e+04 6.900e-09
 68.47218   -162.9 1.245e+04 8.264e-09
 68.48221   -162.3 1.240e+04 7.116e-09
 68.49532   -162.1 1.256e+04 8.296e-09
 68.51538   -161.9 1.272e+04 9.277e-09
 68.52969   -161.6 1.287e+04 9.886e-09
 68.53972   -161.7 1.290e+04 1.046e-08
 68.55551   -161.5 1.309e+04 1.089e-08
 68.57557   -161.3 1.318e+04 1.102e-08
 68.59563   -161.1 1.321e+04 1.102e-08
 68.61555   -160.8 1.330e+04 1.050e-08
 68.62558   -161.1 1.333e+04 1.091e-08
 68.63575   -160.7 1.337e+04 9.909e-09
 68.65581   -160.2 1.335e+04 8.877e-09
 68.67587   -159.6 1.329e+04 7.978e-09
 68.69593   -159.0 1.319e+04 7.183e-09
 68.71144   -158.4 1.304e+04 6.419e-09
 68.71934   -158.6 1.306e+04 6.386e-09
 68.72389   -158.3 1.308e+04 6.525e-09
 68.73605   -157.7 1.289e+04 5.796e-09
 68.75611   -156.9 1.267e+04 5.068e-09
 68.77617   -155.9 1.245e+04 4.372e-09
 68.79623   -154.7 1.227e+04 3.753e-09
 68.80733   -153.5 1.217e+04 3.264e-09
 68.81736   -153.8 1.210e+04 3.218e-09
 68.83635   -152.7 1.206e+04 2.926e-09
 68.86654   -151.8 1.199e+04 2.758e-09
 68.89339   -149.5 1.174e+04 2.630e-09
 68.91345   -150.2 1.191e+04 2.591e-09
 68.94569   -148.2 1.165e+04 2.694e-09
 68.96576   -147.2 1.150e+04 2.253e-09
 68.98700   -144.8 1.140e+04 2.205e-09
 69.02712   -142.4 1.128e+04 2.409e-09
 69.06512   -139.9 1.118e+04 2.745e-09
 69.08518   -140.6 1.123e+04 2.705e-09
 69.10736   -138.3 1.114e+04 2.961e-09
 69.14748   -136.0 1.101e+04 3.376e-09
 69.18760   -133.3 1.093e+04 3.941e-09
 69.22772   -130.9 1.089e+04 4.310e-09
 69.25690   -128.6 1.082e+04 4.607e-09
 69.27696   -129.6 1.079e+04 3.551e-09
 69.30797   -127.5 1.073e+04 3.816e-09
 69.34809   -125.3 1.070e+04 4.219e-09
 69.38821   -123.2 1.080e+04 4.843e-09
 69.42833   -121.4 1.100e+04 5.911e-09
 69.44869   -119.6 1.128e+04 7.715e-09
 69.44940   -121.9 1.171e+04 9.955e-09
 69.46916   -120.6 1.161e+04 9.037e-09
 69.50857   -119.6 1.213e+04 1.328e-08
 69.53445   -118.8 1.248e+04 1.722e-08
 69.54438   -120.1 1.259e+04 1.807e-08
 69.55853   -119.4 1.299e+04 2.161e-08
 69.57859   -118.8 1.332e+04 2.297e-08
 69.59865   -118.5 1.348e+04 2.235e-08
 69.61871   -118.8 1.366e+04 1.905e-08
 69.63024   -120.2 1.377e+04 1.631e-08
 69.64028   -124.6 1.291e+04 1.181e-08
 69.65883   -127.8 1.338e+04 1.644e-08
 69.67889   -130.5 1.401e+04 2.987e-08
 69.69058   -132.7 1.464e+04 4.611e-08
 69.70061   -133.0 1.534e+04 5.664e-08
 69.71611   -135.6 1.551e+04 6.478e-08
 69.72614   -137.6 1.562e+04 7.267e-08
 69.73907   -139.9 1.476e+04 5.285e-08
 69.75913   -142.3 1.314e+04 2.501e-08
 69.77919   -145.4 1.121e+04 1.098e-08
 69.79925   -148.1 1.026e+04 6.445e-09
 69.81200   -149.5 1.004e+04 5.165e-09
 69.82203   -149.1 1.002e+04 5.346e-09
 69.83937   -149.4 1.002e+04 4.956e-09
 69.85943   -149.6 1.004e+04 4.880e-09
 69.87949   -149.8 1.023e+04 5.004e-09
 69.89786   -149.9 1.043e+04 5.551e-09
 69.90789   -149.3 1.045e+04 5.647e-09
 69.91961   -149.4 1.070e+04 6.487e-09
 69.93225   -149.6 1.094e+04 7.850e-09
 69.94228   -149.6 1.072e+04 7.467e-09
 69.95973   -149.4 1.088e+04 8.468e-09
 69.97979   -149.2 1.111e+04 1.007e-08
 69.99375   -149.0 1.140e+04 1.234e-08
 70.00379   -148.7 1.150e+04 1.291e-08
 70.01992   -148.3 1.178e+04 1.556e-08
 70.03998   -147.9 1.201e+04 1.782e-08
 70.06004   -147.4 1.213e+04 1.902e-08
 70.07962   -146.8 1.217e+04 1.920e-08
 70.08965   -146.5 1.212e+04 1.870e-08
 70.10016   -145.8 1.197e+04 1.663e-08
 70.12022   -145.0 1.185e+04 1.515e-08
 70.14028   -144.3 1.178e+04 1.395e-08
 70.16034   -143.6 1.177e+04 1.309e-08
 70.17392   -142.8 1.179e+04 1.263e-08
 70.17907   -141.6 1.181e+04 1.307e-08
 70.18554   -141.4 1.175e+04 1.256e-08
 70.20046   -140.5 1.179e+04 1.251e-08
 70.22052   -139.8 1.189e+04 1.263e-08
 70.24058   -139.0 1.201e+04 1.308e-08
 70.26064   -138.4 1.212e+04 1.372e-08
 70.27140   -137.8 1.219e+04 1.417e-08
 70.28143   -137.6 1.216e+04 1.373e-08
 70.30076   -137.1 1.216e+04 1.349e-08
 70.32082   -136.7 1.204e+04 1.244e-08
 70.34088   -136.3 1.186e+04 1.080e-08
 70.35726   -136.1 1.157e+04 8.900e-09
 70.36729   -136.0 1.146e+04 8.348e-09
 70.38100   -135.9 1.112e+04 6.825e-09
 70.40106   -135.8 1.083e+04 5.721e-09
 70.41560   -135.6 1.063e+04 5.019e-09
 70.42563   -134.6 1.155e+04 9.064e-09
 70.44118   -134.6 1.126e+04 7.908e-09
 70.45316   -134.3 1.106e+04 7.242e-09
 70.46319   -134.1 1.095e+04 6.609e-09
 70.48130   -133.7 1.088e+04 6.313e-09
 70.50136   -133.1 1.086e+04 6.197e-09
 70.52143   -132.5 1.090e+04 6.285e-09
 70.53902   -131.8 1.092e+04 6.366e-09
 70.54905   -131.5 1.080e+04 5.603e-09
 70.56155   -130.7 1.083e+04 5.639e-09
 70.58161   -129.9 1.085e+04 5.637e-09
 70.60167   -129.0 1.087e+04 5.607e-09
 70.62173   -128.2 1.089e+04 5.511e-09
 70.63491   -127.3 1.089e+04 5.341e-09
 70.64494   -127.0 1.074e+04 4.419e-09
 70.65727   -126.1 1.073e+04 4.242e-09
 70.66730   -125.6 1.091e+04 4.985e-09
 70.68191   -124.7 1.089e+04 4.696e-09
 70.70197   -123.7 1.088e+04 4.411e-09
 70.72077   -122.7 1.087e+04 4.164e-09
 70.73080   -122.5 1.077e+04 3.504e-09
 70.75222   -121.2 1.074e+04 3.271e-09
 70.79244   -118.7 1.076e+04 3.191e-09
 70.83256   -116.8 1.089e+04 3.757e-09
 70.87268   -115.1 1.114e+04 5.154e-09
 70.89914   -113.6 1.145e+04 6.909e-09
 70.90913   -113.0 1.169e+04 7.736e-09
 70.92279   -112.1 1.177e+04 8.057e-09
 70.95292   -111.1 1.217e+04 1.123e-08
 70.99304   -110.7 1.231e+04 1.235e-08
 71.03316   -110.5 1.225e+04 1.198e-08
 71.07328   -110.3 1.183e+04 7.836e-09
 71.09451   -110.3 1.140e+04 4.286e-09
 71.11457   -109.9 1.190e+04 6.548e-09
 71.15352   -110.4 1.159e+04 4.390e-09
 71.19364   -110.8 1.153e+04 4.022e-09
 71.23377   -111.0 1.165e+04 4.284e-09
 71.26623   -111.1 1.171e+04 4.500e-09
 71.28629   -111.4 1.171e+04 4.630e-09
 71.31401   -110.6 1.164e+04 3.654e-09
 71.35413   -109.3 1.157e+04 2.688e-09
 71.38248   -107.6 1.164e+04 2.307e-09
 71.40255   -107.3 1.168e+04 2.244e-09
 71.43437   -105.7 1.173e+04 2.203e-09
 71.45802   -105.0 1.231e+04 2.864e-09
 71.47808   -104.6 1.234e+04 2.323e-09
 71.51461   -104.2 1.258e+04 5.080e-09
 71.55473   -103.9 1.284e+04 9.817e-09
 71.59485   -103.9 1.304e+04 1.349e-08
 71.62974   -104.6 1.302e+04 1.421e-08
 71.64980   -103.4 1.302e+04 1.399e-08
 71.67509   -103.7 1.268e+04 1.310e-08
 71.71522   -103.7 1.225e+04 9.806e-09
 71.75534   -103.9 1.188e+04 6.997e-09
 71.79546   -104.0 1.150e+04 4.785e-09
 71.82153   -104.0 1.123e+04 3.447e-09
 71.84159   -104.1 1.164e+04 5.492e-09
 71.86583   -104.4 1.141e+04 4.338e-09
 71.88589   -104.6 1.160e+04 5.819e-09
 71.91582   -104.7 1.126e+04 4.239e-09
 71.95594   -104.2 1.109e+04 3.624e-09
 71.99325   -103.6 1.107e+04 3.567e-09
 72.01331   -104.7 1.136e+04 4.935e-09
 72.03618   -104.3 1.142e+04 4.985e-09
 72.07630   -103.8 1.145e+04 5.066e-09
 72.11642   -103.3 1.140e+04 4.925e-09
 72.15654   -102.4 1.127e+04 3.965e-09
 72.18504   -101.4 1.113e+04 2.852e-09
 72.20510   -102.3 1.117e+04 2.963e-09
 72.23679   -101.2 1.107e+04 2.312e-09
 72.27691   -100.3 1.103e+04 2.049e-09
 72.31703    -99.4 1.103e+04 1.928e-09
 72.34918    -98.8 1.116e+04 1.834e-09
 72.36885   -100.1 1.186e+04 2.590e-09
 72.37682   -103.9 1.283e+04 5.484e-09
 72.38714   -102.7 1.263e+04 4.441e-09
 72.40710   -103.5 1.281e+04 6.466e-09
 72.42716   -104.3 1.305e+04 8.950e-09
 72.44722   -105.8 1.368e+04 1.658e-08
 72.46249   -107.0 1.432e+04 2.884e-08
 72.47252   -108.5 1.464e+04 3.824e-08
 72.48735   -109.5 1.493e+04 4.567e-08
 72.50741   -110.6 1.496e+04 4.680e-08
 72.52747   -111.9 1.459e+04 3.649e-08
 72.54753   -113.4 1.383e+04 2.280e-08
 72.55838   -115.3 1.302e+04 1.486e-08
 72.56841   -117.0 1.223e+04 9.784e-09
 72.58765   -118.0 1.215e+04 9.393e-09
 72.60068   -119.3 1.237e+04 9.879e-09
 72.61071   -120.9 1.230e+04 9.357e-09
 72.62777   -122.5 1.268e+04 1.194e-08
 72.64425   -124.3 1.301e+04 1.481e-08
 72.65428   -124.9 1.272e+04 1.212e-08
 72.66789   -127.1 1.287e+04 1.331e-08
 72.68795   -129.5 1.286e+04 1.345e-08
 72.70801   -131.6 1.264e+04 1.227e-08
 72.72807   -133.3 1.239e+04 9.749e-09
 72.74014   -134.6 1.223e+04 7.328e-09
 72.75017   -134.3 1.220e+04 7.411e-09
 72.76819   -135.4 1.218e+04 5.520e-09
 72.78825   -136.4 1.223e+04 4.050e-09
 72.80831   -137.3 1.228e+04 3.036e-09
 72.82600   -138.1 1.230e+04 2.451e-09
 72.83603   -138.2 1.245e+04 2.864e-09
 72.84236   -138.9 1.249e+04 2.416e-09
 72.85239   -138.8 1.235e+04 2.205e-09
 72.87862   -139.4 1.235e+04 2.093e-09
 72.91206   -139.7 1.248e+04 2.116e-09
 72.93212   -140.5 1.255e+04 2.258e-09
 72.95896   -140.2 1.262e+04 2.254e-09
 72.99908   -139.4 1.269e+04 2.450e-09
 73.02907   -139.1 1.270e+04 2.560e-09
 73.04904   -139.0 1.259e+04 2.773e-09
 73.06910   -138.6 1.246e+04 3.127e-09
 73.08403   -138.2 1.239e+04 3.411e-09
 73.09406   -137.6 1.248e+04 3.683e-09
 73.10365   -137.3 1.245e+04 4.086e-09
 73.11368   -137.4 1.243e+04 3.855e-09
 73.12928   -137.0 1.240e+04 4.322e-09
 73.14934   -136.8 1.237e+04 4.784e-09
 73.16940   -136.6 1.235e+04 5.245e-09
 73.18946   -136.5 1.234e+04 5.661e-09
 73.20952   -136.6 1.240e+04 6.757e-09
 73.22958   -136.6 1.238e+04 6.888e-09
 73.24964   -136.6 1.233e+04 6.890e-09
 73.26970   -136.4 1.209e+04 6.443e-09
 73.28540   -136.0 1.189e+04 5.587e-09
 73.29543   -136.2 1.188e+04 5.767e-09
 73.30982   -135.7 1.170e+04 4.836e-09
 73.32570   -135.2 1.156e+04 4.122e-09
 73.33573   -134.7 1.156e+04 4.179e-09
 73.34994   -134.1 1.143e+04 3.652e-09
 73.37000   -133.3 1.132e+04 3.248e-09
 73.40019   -131.8 1.120e+04 2.880e-09
 73.44041   -130.6 1.112e+04 2.651e-09
 73.46735   -128.9 1.100e+04 2.532e-09
 73.48741   -129.2 1.088e+04 2.411e-09
 73.52065   -127.8 1.085e+04 2.379e-09
 73.55064   -127.2 1.098e+04 2.566e-09
 73.56305   -127.1 1.102e+04 3.067e-09
 73.56985   -127.3 1.088e+04 2.822e-09
 73.57741   -126.5 1.088e+04 2.669e-09
 73.59067   -126.5 1.092e+04 3.468e-09
 73.61073   -126.5 1.104e+04 4.737e-09
 73.63079   -126.4 1.121e+04 6.457e-09
 73.64891   -126.3 1.145e+04 8.594e-09
 73.65894   -126.5 1.120e+04 7.484e-09
 73.67091   -126.5 1.140e+04 8.979e-09
 73.69097   -127.2 1.147e+04 9.784e-09
 73.71103   -128.1 1.143e+04 9.840e-09
 73.73109   -128.9 1.108e+04 8.635e-09
 73.74481   -129.5 1.069e+04 6.440e-09
 73.75484   -129.5 1.054e+04 5.464e-09
 73.77121   -130.1 1.027e+04 3.986e-09
 73.79127   -130.8 1.008e+04 3.003e-09
 73.80905   -131.6 9.955e+03 2.493e-09
 73.81908   -130.4 1.005e+04 2.722e-09
 73.83067   -131.4 9.969e+03 2.368e-09
 73.84070   -131.4 1.013e+04 2.594e-09
 73.85145   -132.6 1.020e+04 2.610e-09
 73.87151   -133.7 1.045e+04 3.163e-09
 73.89157   -134.6 1.072e+04 4.281e-09
 73.92176   -135.7 1.106e+04 6.313e-09
 73.96198   -137.1 1.123e+04 8.598e-09
 73.99197   -138.2 1.126e+04 9.653e-09
 74.01194   -138.5 1.102e+04 8.492e-09
 74.02245   -138.3 1.076e+04 7.025e-09
 74.03248   -138.9 1.048e+04 6.139e-09
 74.05072   -138.3 1.019e+04 4.471e-09
 74.06075   -138.3 1.017e+04 4.740e-09
 74.08225   -137.5 9.849e+03 2.894e-09
 74.12246   -136.2 9.703e+03 2.149e-09
 74.16259   -134.3 9.507e+03 1.637e-09
 74.19437   -132.2 9.388e+03 1.370e-09
 74.21443   -131.9 9.289e+03 9.837e-10
 74.24283   -129.6 9.321e+03 9.052e-10
 74.28256   -127.3 9.350e+03 8.811e-10
 74.30262   -126.8 9.265e+03 7.571e-10
 74.32307   -124.5 9.331e+03 7.598e-10
 74.36319   -122.5 9.519e+03 8.750e-10
 74.38616   -120.5 9.649e+03 1.116e-09
 74.40622   -120.3 9.678e+03 1.125e-09
 74.44343   -118.5 9.825e+03 1.463e-09
 74.48355   -116.8 9.950e+03 1.708e-09
 74.52367   -115.1 9.991e+03 1.777e-09
 74.55788   -113.3 9.993e+03 1.762e-09
 74.57794   -113.2 1.005e+04 2.006e-09
 74.60391   -111.3 1.006e+04 1.836e-09
 74.64403   -109.2 1.010e+04 1.577e-09
 74.68416   -107.1 1.016e+04 1.349e-09
 74.72428   -104.9 1.022e+04 1.228e-09
 74.74967   -102.7 1.026e+04 1.203e-09
 74.76973   -102.9 1.033e+04 1.397e-09
 74.78597   -100.8 1.049e+04 1.417e-09
 74.80603   -100.3 1.032e+04 1.317e-09
 74.84464    -98.2 1.048e+04 1.344e-09
 74.88476    -96.3 1.060e+04 1.626e-09
 74.92139    -94.6 1.067e+04 2.085e-09
 74.94145    -94.5 1.063e+04 1.700e-09
 74.96500    -92.7 1.072e+04 1.981e-09
 75.00512    -91.0 1.079e+04 2.181e-09
 75.04524    -89.3 1.081e+04 2.235e-09
 75.08536    -87.4 1.085e+04 2.027e-09
 75.11318    -85.3 1.087e+04 1.571e-09
 75.13324    -84.9 1.086e+04 1.402e-09
 75.16561    -82.6 1.097e+04 1.045e-09
 75.20573    -80.2 1.112e+04 7.395e-10
 75.24585    -77.8 1.125e+04 5.336e-10
 75.26931    -75.5 1.129e+04 4.138e-10
 75.28831    -74.9 1.123e+04 4.973e-10
 75.30496    -74.4 1.116e+04 5.077e-10
 75.32609    -71.9 1.130e+04 3.823e-10
 75.36621    -69.4 1.139e+04 3.160e-10
 75.40633    -66.8 1.141e+04 2.948e-10
 75.44645    -64.2 1.142e+04 2.893e-10
 75.47669    -61.6 1.153e+04 2.896e-10
 75.49675    -61.3 1.154e+04 2.886e-10
 75.52669    -59.0 1.166e+04 3.250e-10
 75.56681    -56.7 1.155e+04 4.386e-10
 75.60693    -54.2 1.154e+04 6.004e-10
 75.64706    -51.7 1.159e+04 7.391e-10
 75.66847    -49.3 1.167e+04 7.965e-10
 75.68853    -49.5 1.177e+04 8.068e-10
 75.72730    -47.3 1.182e+04 8.090e-10
 75.75266    -44.9 1.200e+04 6.904e-10
 75.77272    -44.3 1.189e+04 7.962e-10
 75.80754    -42.1 1.211e+04 6.279e-10
 75.84020    -40.1 1.234e+04 5.210e-10
 75.86026    -40.9 1.233e+04 6.401e-10
 75.88778    -38.7 1.232e+04 6.403e-10
 75.92790    -36.5 1.233e+04 6.885e-10
 75.96802    -34.1 1.233e+04 7.298e-10
 76.00814    -31.8 1.243e+04 7.360e-10
 76.03198    -29.5 1.246e+04 7.882e-10
 76.05204    -29.9 1.252e+04 7.442e-10
 76.08838    -27.4 1.256e+04 7.606e-10
 76.12851    -25.1 1.265e+04 7.364e-10
 76.16863    -22.8 1.280e+04 6.375e-10
 76.20371    -20.8 1.289e+04 5.916e-10
 76.22377    -21.0 1.289e+04 5.663e-10
 76.23600    -19.1 1.288e+04 6.436e-10
 76.25606    -18.7 1.269e+04 5.441e-10
 76.28899    -17.0 1.256e+04 6.826e-10
 76.32911    -15.6 1.241e+04 1.160e-09
 76.36923    -14.0 1.235e+04 2.745e-09
 76.39549    -12.8 1.249e+04 5.846e-09
 76.41555    -12.8 1.262e+04 6.369e-09
 76.44947    -12.4 1.272e+04 9.465e-09
 76.48959    -12.9 1.294e+04 9.945e-09
 76.52971    -13.7 1.255e+04 9.787e-09
 76.56722    -13.1 1.200e+04 7.220e-09
 76.58728    -13.0 1.205e+04 6.338e-09
 76.60996    -12.3 1.172e+04 3.617e-09
 76.65008    -11.3 1.143e+04 2.964e-09
 76.69020     -9.4 1.131e+04 3.202e-09
 76.71935     -7.0 1.120e+04 3.149e-09
 76.73941     -7.0 1.126e+04 3.857e-09
 76.75900     -4.5 1.116e+04 3.453e-09
 76.77906     -5.5 1.143e+04 3.627e-09
 76.81056     -3.5 1.144e+04 3.265e-09
 76.85068     -1.6 1.144e+04 3.520e-09
 76.89080      0.4 1.157e+04 4.298e-09
 76.93073      2.6 1.188e+04 5.961e-09
 76.96072      2.6 1.271e+04 9.195e-09
 76.98088      2.1 1.368e+04 1.786e-08
 77.00094      2.3 1.453e+04 3.026e-08
 77.02100      2.9 1.511e+04 3.836e-08
 77.03645      3.3 1.520e+04 3.598e-08
 77.04648      2.2 1.650e+04 7.633e-08
 77.06112      1.6 1.692e+04 6.329e-08
 77.08118     -0.3 1.815e+04 5.676e-08
 77.10124     -3.3 1.928e+04 6.488e-08
 77.12130     -4.7 1.862e+04 5.856e-08
 77.13235     -5.7 1.719e+04 4.782e-08
 77.14238     -8.5 1.874e+04 6.100e-08
 77.16142    -10.6 1.869e+04 4.612e-08
 77.18148    -14.2 1.960e+04 4.841e-08
 77.20154    -16.8 1.768e+04 6.161e-08
 77.21253    -17.5 1.542e+04 5.574e-08
 77.21750    -16.6 1.712e+04 1.536e-07
 77.22313    -17.0 1.608e+04 1.113e-07
 77.22814    -17.1 1.609e+04 1.112e-07
 77.24161    -15.5 1.522e+04 5.630e-08
 77.26172    -17.8 1.389e+04 1.899e-08
 77.28178    -19.7 1.234e+04 1.194e-08
 77.30184    -19.3 1.172e+04 1.112e-08
 77.31410    -18.1 1.157e+04 1.084e-08
 77.32413    -18.2 1.161e+04 1.049e-08
 77.34196    -17.5 1.182e+04 1.127e-08
 77.36203    -17.1 1.202e+04 1.314e-08
 77.38209    -16.2 1.206e+04 1.595e-08
 77.39996    -15.1 1.223e+04 1.877e-08
 77.40999    -15.5 1.226e+04 1.875e-08
 77.42221    -14.5 1.242e+04 2.040e-08
 77.44227    -13.7 1.237e+04 1.991e-08
 77.45420    -13.1 1.222e+04 1.858e-08
 77.46423    -12.9 1.222e+04 1.876e-08
 77.48239    -12.2 1.195e+04 1.671e-08
 77.49586    -11.6 1.171e+04 1.438e-08
 77.50589    -12.1 1.171e+04 1.323e-08
 77.52251    -11.5 1.167e+04 1.250e-08
 77.54257    -11.0 1.176e+04 1.299e-08
 77.56263    -10.4 1.200e+04 1.437e-08
 77.58172     -9.9 1.245e+04 1.805e-08
 77.59175     -9.9 1.255e+04 1.885e-08
 77.60275     -8.8 1.302e+04 2.468e-08
 77.62281     -7.5 1.353e+04 3.239e-08
 77.64287     -6.3 1.417e+04 4.393e-08
 77.66293     -5.3 1.478e+04 5.739e-08
 77.67761     -4.0 1.494e+04 6.606e-08
 77.68764     -3.1 1.555e+04 7.720e-08
 77.69588     -1.9 1.682e+04 1.009e-07
 77.70591     -2.1 1.814e+04 1.272e-07
 77.71805     -1.1 1.789e+04 1.435e-07
 77.72546     -1.6 1.868e+04 1.684e-07
 77.73048     -0.6 1.912e+04 2.137e-07
 77.73806     -1.4 2.019e+04 2.833e-07
 77.74809     -2.4 2.094e+04 3.978e-07
 77.75812     -3.9 2.120e+04 6.553e-07
 77.76815     -5.0 2.081e+04 9.578e-07
 77.77341     -6.9 2.123e+04 9.660e-07
 77.77842     -3.4 2.038e+04 1.452e-06
 77.78821     -5.9 2.056e+04 1.518e-06
 77.79824     -9.9 2.185e+04 1.300e-06
 77.80827    -15.1 2.536e+04 6.313e-07
 77.81634    -19.9 2.252e+04 6.881e-07
 77.81967    -18.8 1.943e+04 2.520e-06
 77.82163    -19.9 1.711e+04 9.505e-06
 77.82833    -26.7 1.973e+04 1.820e-06
 77.83836    -31.0 2.035e+04 7.139e-07
 77.84839    -32.8 1.980e+04 5.019e-07
 77.85842    -33.3 1.957e+04 4.678e-07
 77.86428    -34.0 1.937e+04 4.814e-07
 77.86930    -34.8 1.957e+04 5.192e-07
 77.87848    -35.3 1.945e+04 5.030e-07
 77.88851    -35.4 1.937e+04 5.295e-07
 77.89854    -35.5 1.916e+04 5.895e-07
 77.90722    -35.5 1.886e+04 6.466e-07
 77.91223    -36.1 1.924e+04 6.610e-07
 77.91860    -36.0 1.865e+04 6.860e-07
 77.92863    -36.1 1.861e+04 6.968e-07
 77.93745    -36.1 1.852e+04 6.659e-07
 77.94247    -38.0 2.457e+04 1.260e-07
 77.94869    -38.1 2.489e+04 9.681e-08
 77.95516    -38.5 2.502e+04 7.172e-08
 77.96018    -38.1 2.486e+04 7.029e-08
 77.96876    -38.4 2.410e+04 5.094e-08
 77.97879    -40.4 2.139e+04 3.865e-08
 77.98882    -44.8 1.944e+04 3.252e-08
 77.99809    -50.5 2.133e+04 3.485e-08
 78.00311    -48.4 2.115e+04 3.857e-08
 78.00888    -53.8 2.598e+04 6.130e-08
 78.01891    -59.4 2.747e+04 6.938e-08
 78.02894    -64.6 2.534e+04 5.942e-08
 78.03897    -70.6 1.966e+04 5.306e-08
 78.04604    -74.4 1.791e+04 5.463e-08
 78.05105    -74.7 1.853e+04 6.359e-08
 78.05829    -75.8 1.767e+04 7.324e-08
 78.06330    -73.3 1.591e+04 5.647e-08
 78.06906    -74.1 1.757e+04 7.112e-08
 78.08415    -75.2 1.809e+04 8.281e-08
 78.10426    -75.6 1.777e+04 7.995e-08
 78.12432    -76.2 1.720e+04 7.026e-08
 78.13701    -76.7 1.653e+04 5.809e-08
 78.14704    -76.9 1.702e+04 6.316e-08
 78.16444    -77.4 1.584e+04 4.751e-08
 78.17922    -77.7 1.490e+04 3.571e-08
 78.18925    -78.1 1.546e+04 5.465e-08
 78.20456    -79.0 1.471e+04 4.535e-08
 78.22288    -79.5 1.406e+04 3.937e-08
 78.23291    -79.3 1.390e+04 3.872e-08
 78.24468    -79.3 1.332e+04 3.282e-08
 78.26474    -79.1 1.276e+04 2.728e-08
 78.28480    -78.4 1.220e+04 2.220e-08
 78.30486    -77.6 1.166e+04 1.794e-08
 78.31877    -76.7 1.118e+04 1.456e-08
 78.32880    -76.2 1.105e+04 1.302e-08
 78.34499    -75.2 1.064e+04 1.090e-08
 78.36505    -74.3 1.044e+04 9.782e-09
 78.38511    -73.5 1.042e+04 9.573e-09
 78.40463    -73.2 1.073e+04 9.953e-09
 78.41466    -72.1 1.033e+04 8.643e-09
 78.42090    -71.9 1.071e+04 1.022e-08
 78.43093    -72.4 1.063e+04 1.403e-08
 78.44529    -71.8 1.087e+04 1.688e-08
 78.46535    -70.6 1.114e+04 2.010e-08
 78.48541    -69.3 1.138e+04 2.206e-08
 78.50052    -67.9 1.147e+04 2.241e-08
 78.51055    -67.0 1.125e+04 2.046e-08
 78.52553    -66.0 1.135e+04 1.960e-08
 78.54559    -65.4 1.102e+04 1.507e-08
 78.56565    -65.4 1.031e+04 1.030e-08
 78.58571    -66.0 9.380e+03 6.959e-09
 78.59642    -66.2 8.365e+03 4.847e-09
 78.60645    -64.8 8.519e+03 5.216e-09
 78.62583    -64.7 7.840e+03 3.851e-09
 78.64589    -63.8 7.371e+03 2.989e-09
 78.66257    -62.9 7.074e+03 2.442e-09
 78.67260    -63.8 6.861e+03 1.972e-09
 78.69614    -62.6 6.745e+03 1.739e-09
 78.73636    -60.9 6.681e+03 1.638e-09
 78.76834    -59.6 6.875e+03 1.725e-09
 78.78840    -57.3 6.743e+03 1.665e-09
 78.81660    -57.0 7.343e+03 2.423e-09
 78.84659    -56.4 7.319e+03 2.964e-09
 78.86403    -57.4 8.046e+03 4.373e-09
 78.87406    -55.8 7.884e+03 4.118e-09
 78.88662    -57.4 9.044e+03 6.847e-09
 78.90424    -59.7 1.063e+04 1.284e-08
 78.91427    -61.1 1.118e+04 1.681e-08
 78.92674    -62.4 1.242e+04 2.929e-08
 78.94680    -62.6 1.343e+04 4.382e-08
 78.95993    -62.9 1.406e+04 5.173e-08
 78.96996    -62.6 1.413e+04 5.285e-08
 78.98692    -63.8 1.431e+04 5.472e-08
 79.00698    -66.0 1.397e+04 4.281e-08
 79.02704    -70.0 1.291e+04 2.681e-08
 79.04579    -75.1 1.163e+04 1.821e-08
 79.05582    -74.4 1.214e+04 2.094e-08
 79.06716    -78.9 1.139e+04 1.707e-08
 79.08722    -82.2 1.116e+04 1.549e-08
 79.10728    -85.4 1.114e+04 1.422e-08
 79.12734    -89.0 1.124e+04 1.365e-08
 79.14168    -94.1 1.192e+04 1.375e-08
 79.15022    -95.6 1.261e+04 1.564e-08
 79.15594    -90.5 1.152e+04 1.400e-08
 79.16746    -96.9 1.271e+04 1.495e-08
 79.18752   -103.6 1.439e+04 2.454e-08
 79.20758   -108.5 1.511e+04 4.092e-08
 79.22754   -112.5 1.512e+04 4.838e-08
 79.23757   -115.4 1.532e+04 5.432e-08
 79.24770   -118.4 1.422e+04 5.026e-08
 79.26776   -120.9 1.301e+04 3.199e-08
 79.28782   -123.4 1.181e+04 1.908e-08
 79.30789   -125.3 1.091e+04 1.334e-08
 79.32344   -126.2 1.032e+04 1.097e-08
 79.33347   -128.9 1.010e+04 1.043e-08
 79.34801   -128.8 9.691e+03 9.015e-09
 79.36807   -128.1 9.336e+03 7.714e-09
 79.38759   -127.4 9.005e+03 6.493e-09
 79.39762   -127.0 9.460e+03 8.129e-09
 79.40819   -126.3 9.127e+03 6.903e-09
 79.41933   -125.6 8.814e+03 5.812e-09
 79.42936   -127.3 8.526e+03 4.931e-09
 79.44831   -126.2 8.255e+03 3.997e-09
 79.46837   -125.1 8.099e+03 3.492e-09
 79.49526   -122.9 8.061e+03 3.246e-09
 79.51542   -125.2 7.815e+03 2.842e-09
 79.53878   -122.7 7.558e+03 2.499e-09
 79.57890   -120.1 7.373e+03 2.265e-09
 79.61902   -117.3 7.244e+03 2.122e-09
 79.63949   -114.5 7.185e+03 2.072e-09
 79.65955   -114.9 7.197e+03 2.307e-09
 79.68714   -111.9 7.113e+03 2.207e-09
 79.70720   -112.3 6.789e+03 1.592e-09
 79.73938   -109.3 6.791e+03 1.587e-09
 79.77950   -106.6 6.917e+03 1.700e-09
 79.81962   -104.2 7.172e+03 2.043e-09
 79.85887   -101.8 7.532e+03 2.652e-09
 79.87893   -102.1 7.143e+03 1.972e-09
 79.89986   -100.0 7.524e+03 2.619e-09
 79.93998    -98.0 7.861e+03 3.179e-09
 79.98010    -96.2 8.037e+03 3.383e-09
 80.02023    -94.6 8.094e+03 3.396e-09
 80.05065    -92.9 8.147e+03 3.346e-09
 80.07071    -92.7 7.778e+03 2.631e-09
 80.10047    -90.9 7.813e+03 2.544e-09
 80.12283    -88.9 7.857e+03 2.533e-09
 80.14289    -88.1 7.764e+03 2.298e-09
 80.18071    -86.2 7.802e+03 2.278e-09
 80.22083    -84.2 7.944e+03 2.330e-09
 80.24244    -82.3 8.059e+03 2.381e-09
 80.26250    -82.0 7.989e+03 2.355e-09
 80.30107    -80.2 8.152e+03 2.539e-09
 80.34119    -78.5 8.293e+03 2.713e-09
 80.38131    -77.0 8.493e+03 2.911e-09
 80.41416    -75.8 8.767e+03 3.298e-09
 80.43422    -75.4 8.941e+03 4.106e-09
 80.46155    -74.4 9.293e+03 4.849e-09
 80.50167    -73.6 9.640e+03 5.618e-09
 80.53167    -72.7 9.898e+03 6.426e-09
 80.55163    -72.7 9.963e+03 6.452e-09
 80.57169    -72.4 1.003e+04 6.426e-09
 80.59175    -72.2 1.009e+04 6.339e-09
 80.60575    -72.0 1.021e+04 6.319e-09
 80.60995    -71.7 1.035e+04 7.231e-09
 80.61601    -71.0 1.047e+04 7.883e-09
 80.63187    -71.0 1.060e+04 7.821e-09
 80.65193    -71.2 1.085e+04 7.830e-09
 80.67199    -71.6 1.110e+04 8.458e-09
 80.69161    -72.1 1.145e+04 9.739e-09
 80.70164    -71.9 1.191e+04 1.400e-08
 80.71211    -72.5 1.241e+04 1.772e-08
 80.73217    -73.3 1.290e+04 2.157e-08
 80.75223    -74.6 1.311e+04 2.264e-08
 80.77230    -76.0 1.316e+04 2.242e-08
 80.78751    -77.5 1.304e+04 2.002e-08
 80.79754    -77.1 1.349e+04 2.438e-08
 80.81242    -78.7 1.304e+04 1.872e-08
 80.83248    -79.9 1.274e+04 1.573e-08
 80.84766    -80.7 1.268e+04 1.443e-08
 80.85769    -80.0 1.269e+04 1.363e-08
 80.87260    -80.5 1.269e+04 1.320e-08
 80.88340    -80.7 1.270e+04 1.271e-08
 80.89343    -80.4 1.244e+04 1.064e-08
 80.91272    -80.2 1.242e+04 9.551e-09
 80.93278    -79.9 1.221e+04 7.692e-09
 80.95284    -79.4 1.195e+04 5.660e-09
 80.96926    -78.7 1.179e+04 3.855e-09
 80.97929    -78.3 1.174e+04 3.628e-09
 80.99296    -77.8 1.173e+04 2.681e-09
 81.02315    -77.3 1.162e+04 2.095e-09
 81.06337    -75.4 1.141e+04 1.667e-09
 81.08952    -73.3 1.140e+04 1.646e-09
 81.10958    -72.3 1.119e+04 1.736e-09
 81.14118    -70.7 1.146e+04 2.175e-09
 81.16124    -69.6 1.127e+04 1.717e-09
 81.18373    -68.1 1.147e+04 2.288e-09
 81.22385    -66.5 1.167e+04 2.577e-09
 81.26397    -65.0 1.176e+04 2.552e-09
 81.30409    -63.4 1.168e+04 1.967e-09
 81.33297    -61.7 1.170e+04 1.565e-09
 81.35303    -60.8 1.168e+04 1.722e-09
 81.38433    -59.1 1.171e+04 1.571e-09
 81.42445    -57.4 1.166e+04 1.459e-09
 81.46457    -55.7 1.156e+04 1.311e-09
 81.50469    -53.9 1.147e+04 1.119e-09
 81.54481    -51.4 1.142e+04 1.089e-09
 81.57287    -49.5 1.144e+04 8.734e-10
 81.59293    -49.0 1.151e+04 1.332e-09
 81.62506    -47.0 1.153e+04 9.533e-10
 81.66518    -45.0 1.161e+04 6.984e-10
 81.69648    -43.0 1.160e+04 5.933e-10
 81.71654    -42.8 1.150e+04 6.657e-10
 81.74542    -40.8 1.148e+04 6.252e-10
 81.78554    -38.7 1.147e+04 6.483e-10
 81.82566    -36.5 1.139e+04 7.551e-10
 81.86578    -34.2 1.139e+04 8.631e-10
 81.88826    -32.0 1.147e+04 9.184e-10
 81.90832    -31.9 1.133e+04 7.398e-10
 81.94602    -30.1 1.155e+04 7.203e-10
 81.98615    -29.7 1.194e+04 9.756e-10
 82.02627    -29.6 1.171e+04 3.089e-09
 82.05622    -28.1 1.223e+04 7.227e-09
 82.06987    -27.4 1.195e+04 4.493e-09
 82.08005    -27.2 1.170e+04 3.362e-09
 82.10651    -26.2 1.218e+04 5.296e-09
 82.14663    -26.2 1.229e+04 5.144e-09
 82.18675    -25.9 1.221e+04 3.340e-09
 82.22687    -25.4 1.202e+04 2.252e-09
 82.25177    -24.5 1.189e+04 1.684e-09
 82.27183    -24.3 1.181e+04 1.649e-09
 82.30711    -22.9 1.175e+04 1.258e-09
 82.34723    -21.3 1.171e+04 1.103e-09
 82.38735    -19.6 1.170e+04 1.056e-09
 82.42349    -18.2 1.186e+04 1.136e-09
 82.44356    -18.2 1.196e+04 9.978e-10
 82.46760    -17.3 1.191e+04 1.610e-09
 82.50772    -16.0 1.177e+04 2.856e-09
 82.53956    -14.8 1.181e+04 3.918e-09
 82.55962    -15.0 1.179e+04 4.323e-09
 82.58796    -14.5 1.182e+04 3.968e-09
 82.61528    -13.5 1.145e+04 3.723e-09
 82.63534    -13.2 1.145e+04 3.130e-09
 82.66820    -11.6 1.128e+04 2.107e-09
 82.70832     -9.8 1.131e+04 1.169e-09
 82.74844     -8.7 1.129e+04 8.213e-10
 82.78700     -6.9 1.119e+04 8.429e-10
 82.80707     -6.5 1.126e+04 8.498e-10
 82.82868     -5.3 1.124e+04 1.052e-09
 82.86880     -3.6 1.119e+04 1.574e-09
 82.90892     -2.0 1.123e+04 2.224e-09
 82.94904     -0.8 1.159e+04 3.368e-09
 82.97879     -0.9 1.203e+04 6.218e-09
 82.99885     -1.2 1.214e+04 7.079e-09
 83.02291     -0.9 1.228e+04 1.182e-08
 83.04297     -0.2 1.250e+04 1.374e-08
 83.06941     -0.3 1.255e+04 1.425e-08
 83.10953      0.0 1.224e+04 1.134e-08
 83.14965      0.1 1.179e+04 7.984e-09
 83.17057      0.8 1.120e+04 5.096e-09
 83.19064      1.0 1.133e+04 6.239e-09
 83.22989      2.4 1.092e+04 3.574e-09
 83.27001      3.1 1.075e+04 2.231e-09
 83.31013      4.3 1.045e+04 2.121e-09
 83.34230      5.8 1.030e+04 2.040e-09
 83.36236      6.2 1.042e+04 2.377e-09
 83.39037      8.2 1.019e+04 1.997e-09
 83.43049     10.2 1.009e+04 1.235e-09
 83.47062     11.5 1.012e+04 7.514e-10
 83.50625     12.8 9.966e+03 6.624e-10
 83.52631     13.5 1.012e+04 7.487e-10
 83.53408     15.0 1.006e+04 7.610e-10
 83.55415     15.4 1.019e+04 7.789e-10
 83.59098     16.8 1.010e+04 8.826e-10
 83.63110     18.4 1.007e+04 1.102e-09
 83.67122     20.1 1.007e+04 1.267e-09
 83.70581     21.6 9.989e+03 1.350e-09
 83.72587     21.9 1.001e+04 1.257e-09
 83.75146     23.4 9.894e+03 1.264e-09
 83.79158     24.8 9.838e+03 1.276e-09
 83.83170     26.3 9.807e+03 1.287e-09
 83.87182     27.8 9.757e+03 1.297e-09
 83.89759     29.1 9.736e+03 1.338e-09
 83.91765     29.6 9.743e+03 1.175e-09
 83.95207     30.7 9.749e+03 1.387e-09
 83.98960     31.9 9.768e+03 1.791e-09
 84.00966     32.8 9.834e+03 1.594e-09
 84.03231     34.0 9.810e+03 2.020e-09
 84.06932     35.3 9.849e+03 2.011e-09
 84.08938     35.7 9.821e+03 1.711e-09
 84.11255     37.0 9.751e+03 1.519e-09
 84.15267     38.4 9.657e+03 1.271e-09
 84.19279     39.9 9.542e+03 1.219e-09
 84.23291     41.7 9.528e+03 1.248e-09
 84.26110     43.6 9.493e+03 1.377e-09
 84.28116     44.1 9.516e+03 1.209e-09
 84.31315     46.2 9.495e+03 1.358e-09
 84.35327     48.4 9.502e+03 1.515e-09
 84.39339     50.6 9.538e+03 1.680e-09
 84.43283     52.6 9.615e+03 1.871e-09
 84.45289     53.0 9.660e+03 1.666e-09
 84.47294     55.0 9.797e+03 1.984e-09
 84.49301     55.1 9.990e+03 2.033e-09
 84.51376     57.0 1.008e+04 2.275e-09
 84.55388     58.7 1.022e+04 2.597e-09
 84.59400     60.2 1.044e+04 3.300e-09
 84.62461     61.5 1.080e+04 4.930e-09
 84.64467     61.6 1.082e+04 4.801e-09
 84.67424     62.4 1.125e+04 7.332e-09
 84.71436     62.8 1.158e+04 9.013e-09
 84.75448     63.0 1.160e+04 8.726e-09
 84.78447     63.3 1.150e+04 7.181e-09
 84.80444     63.2 1.141e+04 6.274e-09
 84.81620     63.4 1.135e+04 5.357e-09
 84.83636     63.6 1.136e+04 4.615e-09
 84.87484     64.1 1.138e+04 4.691e-09
 84.91497     64.5 1.150e+04 5.536e-09
 84.95509     64.4 1.190e+04 7.874e-09
 84.97625     64.6 1.202e+04 8.919e-09
 84.98923     64.6 1.200e+04 9.285e-09
 85.00818     66.3 1.174e+04 6.835e-09
 85.02520     64.4 1.234e+04 1.081e-08
 85.04516     63.1 1.269e+04 1.454e-08
 85.06522     61.9 1.303e+04 1.796e-08
 85.08382     60.5 1.329e+04 2.090e-08
 85.09385     60.9 1.348e+04 2.146e-08
 85.10534     59.5 1.343e+04 2.237e-08
 85.12540     58.3 1.328e+04 2.086e-08
 85.14546     57.8 1.299e+04 1.808e-08
 85.16553     57.4 1.281e+04 1.625e-08
 85.17981     57.4 1.246e+04 1.348e-08
 85.19997     57.7 1.257e+04 1.365e-08
 85.23593     57.3 1.216e+04 1.069e-08
 85.27605     57.6 1.178e+04 7.304e-09
 85.31617     58.1 1.147e+04 4.502e-09
 85.35163     58.8 1.120e+04 2.892e-09
 85.37169     59.1 1.139e+04 3.477e-09
 85.39642     60.3 1.117e+04 2.744e-09
 85.43654     62.0 1.114e+04 2.782e-09
 85.45970     63.9 1.115e+04 2.871e-09
 85.47976     66.0 1.106e+04 2.580e-09
 85.51678     68.0 1.110e+04 2.716e-09
 85.54342     70.0 1.116e+04 2.767e-09
 85.56348     70.3 1.119e+04 2.667e-09
 85.59702     72.4 1.127e+04 2.488e-09
 85.63714     74.5 1.141e+04 2.378e-09
 85.67726     76.4 1.150e+04 2.430e-09
 85.71514     78.2 1.164e+04 2.729e-09
 85.73520     78.7 1.148e+04 2.449e-09
 85.75750     80.2 1.162e+04 2.956e-09
 85.79762     81.7 1.179e+04 3.311e-09
 85.83774     83.1 1.175e+04 3.150e-09
 85.87786     84.1 1.168e+04 2.688e-09
 85.90693     85.2 1.162e+04 2.242e-09
 85.92699     86.4 1.159e+04 1.586e-09
 85.94304     87.5 1.157e+04 1.460e-09
 85.96310     88.7 1.184e+04 1.725e-09
 85.99823     89.8 1.186e+04 1.661e-09
 86.03835     90.7 1.197e+04 1.677e-09
 86.07847     91.5 1.207e+04 1.658e-09
 86.11859     93.7 1.219e+04 1.523e-09
 86.15871     94.7 1.229e+04 1.346e-09
 86.19883     96.0 1.230e+04 1.073e-09
 86.23895     97.4 1.228e+04 8.264e-10
 86.27044     98.8 1.225e+04 6.594e-10
 86.29050    100.1 1.227e+04 8.716e-10
 86.31919    101.6 1.226e+04 7.802e-10
 86.35931    103.3 1.230e+04 7.308e-10
 86.39944    105.1 1.231e+04 7.132e-10
 86.42639    106.9 1.231e+04 7.153e-10
 86.44645    107.6 1.232e+04 7.183e-10
 86.46222    109.3 1.231e+04 7.433e-10
 86.48228    110.4 1.228e+04 9.091e-10
 86.51980    112.0 1.225e+04 9.354e-10
 86.55992    113.4 1.221e+04 1.020e-09
 86.60004    114.7 1.217e+04 1.124e-09
 86.63395    115.8 1.215e+04 1.144e-09
 86.65401    116.5 1.210e+04 1.177e-09
 86.68028    117.4 1.208e+04 1.176e-09
 86.72040    118.3 1.203e+04 1.124e-09
 86.76052    119.3 1.207e+04 9.841e-10
 86.80064    120.3 1.226e+04 8.440e-10
 86.82573    121.5 1.236e+04 9.197e-10
 86.84579    122.2 1.238e+04 9.349e-10
 86.88089    123.6 1.231e+04 1.054e-09
 86.90973    125.1 1.220e+04 1.372e-09
 86.92980    126.3 1.212e+04 8.606e-10
 86.96113    127.8 1.206e+04 1.224e-09
 86.99746    129.6 1.200e+04 1.875e-09
 87.01752    130.6 1.203e+04 1.808e-09
 87.04137    132.9 1.214e+04 2.763e-09
 87.07136    133.4 1.225e+04 3.386e-09
 87.09132    134.0 1.231e+04 3.922e-09
 87.10319    134.9 1.236e+04 4.408e-09
 87.11322    135.2 1.231e+04 4.581e-09
 87.13145    136.1 1.244e+04 4.994e-09
 87.15121    136.9 1.253e+04 4.999e-09
 87.16124    137.7 1.257e+04 5.157e-09
 87.17157    138.5 1.260e+04 5.126e-09
 87.18905    139.2 1.265e+04 5.052e-09
 87.19908    139.7 1.269e+04 5.543e-09
 87.21169    140.4 1.268e+04 5.267e-09
 87.23175    141.3 1.271e+04 4.958e-09
 87.25181    142.1 1.277e+04 4.689e-09
 87.27187    142.9 1.290e+04 4.471e-09
 87.28494    143.6 1.306e+04 4.342e-09
 87.29497    144.2 1.283e+04 3.953e-09
 87.31199    145.0 1.291e+04 3.935e-09
 87.33205    145.7 1.299e+04 3.970e-09
 87.35211    146.2 1.308e+04 4.042e-09
 87.37080    146.6 1.335e+04 4.169e-09
 87.38083    147.4 1.320e+04 3.965e-09
 87.39223    147.6 1.335e+04 4.473e-09
 87.40292    147.8 1.338e+04 5.290e-09
 87.41295    148.6 1.328e+04 4.620e-09
 87.43235    148.9 1.329e+04 5.413e-09
 87.45241    149.1 1.327e+04 6.556e-09
 87.46670    149.4 1.328e+04 8.171e-09
 87.47673    150.0 1.337e+04 7.493e-09
 87.49253    150.2 1.348e+04 9.553e-09
 87.51259    150.2 1.368e+04 1.227e-08
 87.53265    150.0 1.395e+04 1.550e-08
 87.55256    149.4 1.423e+04 1.904e-08
 87.56259    149.9 1.412e+04 1.725e-08
 87.57277    149.2 1.437e+04 1.837e-08
 87.59283    148.3 1.441e+04 1.842e-08
 87.61290    147.4 1.441e+04 1.796e-08
 87.63296    146.8 1.437e+04 1.670e-08
 87.64459    146.8 1.434e+04 1.517e-08
 87.65005    147.6 1.430e+04 1.481e-08
 87.65848    148.4 1.389e+04 1.029e-08
 87.67308    148.6 1.386e+04 9.590e-09
 87.69314    149.0 1.388e+04 9.068e-09
 87.71320    149.7 1.395e+04 8.522e-09
 87.73326    150.5 1.405e+04 7.837e-09
 87.74434    151.5 1.412e+04 7.154e-09
 87.75437    152.6 1.386e+04 6.201e-09
 87.77338    153.7 1.391e+04 6.290e-09
 87.79344    154.8 1.407e+04 6.648e-09
 87.81350    156.1 1.426e+04 7.296e-09
 87.83021    157.4 1.447e+04 7.984e-09
 87.84024    157.2 1.407e+04 1.007e-08
 87.85362    158.6 1.407e+04 1.229e-08
 87.87368    160.1 1.411e+04 1.429e-08
 87.88626    161.6 1.427e+04 1.562e-08
 87.89629    161.5 1.419e+04 1.754e-08
 87.91380    163.0 1.457e+04 1.862e-08
 87.92610    164.0 1.516e+04 1.970e-08
 87.93613    163.5 1.497e+04 3.958e-08
 87.95392    163.5 1.563e+04 6.530e-08
 87.97398    163.4 1.648e+04 1.178e-07
 87.99404    163.1 1.739e+04 1.871e-07
 88.01196    161.2 1.797e+04 2.067e-07
 88.02199    159.8 1.826e+04 2.195e-07
 88.03416    157.1 1.815e+04 1.750e-07
 88.05422    155.1 1.759e+04 9.490e-08
 88.07428    153.2 1.652e+04 4.071e-08
 88.09434    150.6 1.535e+04 2.100e-08
 88.10785    148.5 1.501e+04 1.856e-08
 88.11788    149.1 1.515e+04 3.083e-08
 88.12793    148.0 1.523e+04 2.686e-08
 88.13796    148.4 1.503e+04 2.151e-08
 88.15453    147.4 1.527e+04 1.712e-08
 88.17459    146.0 1.546e+04 1.694e-08
 88.19371    144.5 1.574e+04 1.904e-08
 88.20375    146.1 1.579e+04 1.376e-08
 88.21471    144.7 1.585e+04 1.491e-08
 88.23477    144.0 1.539e+04 1.771e-08
 88.25483    144.4 1.494e+04 1.957e-08
 88.27489    145.2 1.470e+04 1.996e-08
 88.28961    145.9 1.446e+04 1.588e-08
 88.29974    147.1 1.471e+04 1.712e-08
 88.31511    147.5 1.462e+04 1.527e-08
 88.33507    147.8 1.449e+04 1.380e-08
 88.35513    148.0 1.435e+04 1.215e-08
 88.36961    148.4 1.424e+04 1.013e-08
 88.37964    148.9 1.420e+04 1.066e-08
 88.38550    149.3 1.417e+04 9.001e-09
 88.39553    149.9 1.424e+04 1.041e-08
 88.41531    150.6 1.427e+04 9.144e-09
 88.43537    151.4 1.435e+04 7.929e-09
 88.45543    152.2 1.441e+04 6.947e-09
 88.47136    153.0 1.440e+04 6.342e-09
 88.48139    153.6 1.450e+04 8.340e-09
 88.49555    154.3 1.452e+04 7.703e-09
 88.51561    154.7 1.451e+04 7.556e-09
 88.53567    154.9 1.451e+04 7.979e-09
 88.55573    154.8 1.455e+04 9.119e-09
 88.56725    154.6 1.465e+04 1.082e-08
 88.57729    154.6 1.498e+04 1.455e-08
 88.59586    154.2 1.511e+04 1.799e-08
 88.61128    153.7 1.535e+04 2.045e-08
 88.62131    154.1 1.540e+04 2.063e-08
 88.63598    153.5 1.549e+04 2.075e-08
 88.65312    153.0 1.550e+04 2.023e-08
 88.66315    152.3 1.583e+04 2.997e-08
 88.67610    151.8 1.562e+04 2.396e-08
 88.69616    151.7 1.531e+04 1.717e-08
 88.71622    151.7 1.496e+04 1.148e-08
 88.73628    151.8 1.460e+04 7.591e-09
 88.74901    151.8 1.428e+04 5.247e-09
 88.75904    151.2 1.428e+04 5.361e-09
 88.77640    151.5 1.408e+04 3.986e-09
 88.79646    152.2 1.400e+04 3.043e-09
 88.81652    152.7 1.399e+04 2.667e-09
 88.83497    154.2 1.380e+04 2.297e-09
 88.85144    154.3 1.349e+04 2.326e-09
 88.86318    155.3 1.349e+04 2.715e-09
 88.88693    157.3 1.323e+04 1.991e-09
 88.92705    159.3 1.299e+04 1.554e-09
 88.96717    161.5 1.282e+04 1.299e-09
 89.00679    163.8 1.273e+04 1.153e-09
 89.02685    164.0 1.257e+04 1.351e-09
 89.04741    166.3 1.242e+04 1.190e-09
 89.08753    168.5 1.229e+04 1.077e-09
 89.12765    170.8 1.219e+04 1.014e-09
 89.16777    172.9 1.216e+04 9.959e-10
 89.19858    175.1 1.214e+04 1.022e-09
 89.21864    176.0 1.198e+04 9.752e-10
 89.24801    178.2 1.199e+04 1.014e-09
 89.28813    180.3 1.190e+04 1.130e-09
 89.32646    182.2 1.182e+04 1.311e-09
 89.34652    182.4 1.173e+04 1.329e-09
 89.36838    184.3 1.176e+04 1.506e-09
 89.39036    186.1 1.186e+04 1.886e-09
 89.41042    187.2 1.163e+04 1.217e-09
 89.44862    189.2 1.175e+04 1.377e-09
 89.48874    191.2 1.179e+04 1.680e-09
 89.52886    193.4 1.184e+04 2.091e-09
 89.56209    195.7 1.204e+04 2.526e-09
 89.58215    196.9 1.177e+04 1.261e-09
 89.60910    199.4 1.198e+04 1.763e-09
 89.64922    201.9 1.222e+04 2.318e-09
 89.67922    202.8 1.229e+04 2.476e-09
 89.69918    203.3 1.244e+04 3.002e-09
 89.71924    203.9 1.258e+04 4.254e-09
 89.73930    204.6 1.273e+04 6.361e-09
 89.75368    205.3 1.297e+04 9.334e-09
 89.76371    205.8 1.278e+04 6.395e-09
 89.77942    206.4 1.302e+04 1.016e-08
 89.79948    207.1 1.338e+04 1.468e-08
 89.81954    207.5 1.379e+04 1.840e-08
 89.82968    207.8 1.403e+04 1.982e-08
 89.83964    208.0 1.374e+04 1.690e-08
 89.85960    208.9 1.375e+04 1.746e-08
 89.87972    209.3 1.391e+04 1.857e-08
 89.89978    209.8 1.396e+04 1.756e-08
 89.91984    210.3 1.397e+04 1.519e-08
 89.93543    210.7 1.390e+04 1.234e-08
 89.94546    211.3 1.401e+04 1.629e-08
 89.95996    211.7 1.403e+04 1.315e-08
 89.98002    212.0 1.403e+04 1.027e-08
 90.00008    212.3 1.396e+04 8.412e-09
 90.02014    212.5 1.385e+04 7.539e-09
 90.03132    212.7 1.380e+04 7.356e-09
 90.04135    213.2 1.423e+04 8.456e-09
 90.06027    213.2 1.413e+04 8.154e-09
 90.07135    213.2 1.412e+04 8.338e-09
 90.08138    213.4 1.418e+04 8.426e-09
 90.10039    213.3 1.414e+04 8.633e-09
 90.11719    213.2 1.414e+04 9.132e-09
 90.12722    213.5 1.474e+04 1.162e-08
 90.14051    213.2 1.461e+04 1.180e-08
 90.16057    212.9 1.457e+04 1.204e-08
 90.18063    212.6 1.452e+04 1.225e-08
 90.20069    212.4 1.451e+04 1.220e-08
 90.21308    212.2 1.452e+04 1.197e-08
 90.22311    212.2 1.491e+04 1.392e-08
 90.24081    211.9 1.481e+04 1.319e-08
 90.26087    211.6 1.470e+04 1.324e-08
 90.28093    211.4 1.471e+04 1.376e-08
 90.29894    211.4 1.468e+04 1.505e-08
 90.30897    210.8 1.477e+04 1.671e-08
 90.31302    210.8 1.470e+04 1.814e-08
 90.32305    210.3 1.472e+04 1.959e-08
 90.34111    210.3 1.470e+04 2.064e-08
 90.36117    210.2 1.472e+04 2.110e-08
 90.38123    210.1 1.472e+04 2.101e-08
 90.39483    210.0 1.468e+04 1.984e-08
 90.40486    209.5 1.461e+04 1.967e-08
 90.42135    209.4 1.445e+04 1.698e-08
 90.44141    209.8 1.420e+04 1.461e-08
 90.46147    210.2 1.404e+04 1.309e-08
 90.48079    210.7 1.370e+04 1.034e-08
 90.50095    210.8 1.362e+04 9.465e-09
 90.53188    212.0 1.327e+04 6.326e-09
 90.57200    213.5 1.299e+04 3.936e-09
 90.61212    215.3 1.286e+04 2.430e-09
 90.65224    217.3 1.274e+04 1.676e-09
 90.67268    219.4 1.241e+04 1.440e-09
 90.69274    219.5 1.257e+04 1.553e-09
 90.73248    221.7 1.230e+04 1.445e-09
 90.77261    224.0 1.223e+04 1.455e-09
 90.79656    226.2 1.221e+04 1.480e-09
 90.81662    224.7 1.208e+04 1.442e-09
 90.84440    226.9 1.202e+04 1.495e-09
 90.86446    227.3 1.211e+04 1.573e-09
 90.89297    229.4 1.199e+04 1.669e-09
 90.93309    231.5 1.191e+04 1.796e-09
 90.97321    233.6 1.187e+04 1.907e-09
 91.01333    235.8 1.185e+04 1.920e-09
 91.03619    238.1 1.182e+04 1.898e-09
 91.05625    238.0 1.187e+04 2.014e-09
 91.09357    240.3 1.182e+04 1.984e-09
 91.13369    242.6 1.182e+04 2.016e-09
 91.17381    244.9 1.198e+04 2.283e-09
 91.20791    247.6 1.250e+04 3.012e-09
 91.22797    246.9 1.251e+04 3.028e-09
 91.24393    247.5 1.259e+04 3.116e-09
 91.26389    247.8 1.282e+04 3.506e-09
 91.27971    247.5 1.326e+04 4.721e-09
 91.28974    247.9 1.269e+04 3.394e-09
 91.30361    247.7 1.309e+04 4.381e-09
 91.31364    247.5 1.293e+04 4.340e-09
 91.32407    247.2 1.325e+04 6.389e-09
 91.34413    247.0 1.367e+04 1.044e-08
 91.36419    247.0 1.421e+04 1.783e-08
 91.38425    247.0 1.485e+04 3.003e-08
 91.39950    246.9 1.551e+04 4.718e-08
 91.40953    246.6 1.582e+04 5.437e-08
 91.42437    246.3 1.637e+04 7.774e-08
 91.44443    246.0 1.676e+04 1.002e-07
 91.46449    245.9 1.702e+04 1.186e-07
 91.48455    245.8 1.718e+04 1.319e-07
 91.49539    245.8 1.728e+04 1.416e-07
 91.50542    245.1 1.711e+04 1.292e-07
 91.52139    245.3 1.703e+04 1.230e-07
 91.53142    246.2 1.718e+04 1.343e-07
 91.54474    246.4 1.727e+04 1.411e-07
 91.56480    246.5 1.724e+04 1.363e-07
 91.58126    246.4 1.722e+04 1.264e-07
 91.59129    246.0 1.655e+04 6.394e-08
 91.60492    245.9 1.650e+04 5.593e-08
 91.62498    245.7 1.645e+04 5.088e-08
 91.64504    245.7 1.639e+04 4.738e-08
 91.66510    245.8 1.633e+04 4.436e-08
 91.67715    246.0 1.628e+04 4.147e-08
 91.68718    246.9 1.579e+04 2.446e-08
 91.70522    247.5 1.578e+04 2.542e-08
 91.72528    248.1 1.578e+04 2.678e-08
 91.74534    248.8 1.586e+04 2.771e-08
 91.76301    249.5 1.592e+04 2.761e-08
 91.77304    250.5 1.582e+04 2.484e-08
 91.78546    251.0 1.591e+04 2.623e-08
 91.80552    251.6 1.593e+04 2.609e-08
 91.82558    252.1 1.594e+04 2.526e-08
 91.84564    252.7 1.587e+04 2.340e-08
 91.85890    253.5 1.575e+04 2.046e-08
 91.86893    254.2 1.576e+04 2.076e-08
 91.88576    255.0 1.564e+04 1.827e-08
 91.90582    256.0 1.549e+04 1.539e-08
 91.92588    257.1 1.545e+04 1.207e-08
 91.94477    258.3 1.544e+04 9.261e-09
 91.95480    258.8 1.537e+04 1.003e-08
 91.96600    260.0 1.541e+04 7.666e-09
 91.98606    261.1 1.543e+04 6.085e-09
 92.00473    262.4 1.526e+04 5.539e-09
 92.01476    262.1 1.512e+04 6.821e-09
 92.02619    263.6 1.511e+04 6.791e-09
 92.04066    265.1 1.510e+04 6.812e-09
 92.05069    265.4 1.504e+04 6.342e-09
 92.06631    266.8 1.504e+04 6.642e-09
 92.08637    268.3 1.502e+04 7.286e-09
 92.10643    269.8 1.501e+04 8.287e-09
 92.12649    271.3 1.503e+04 9.682e-09
 92.14655    272.9 1.489e+04 1.094e-08
 92.16661    274.4 1.493e+04 1.294e-08
 92.18667    275.9 1.500e+04 1.511e-08
 92.20673    277.3 1.511e+04 1.732e-08
 92.22241    278.6 1.524e+04 1.952e-08
 92.23244    278.6 1.513e+04 1.662e-08
 92.24640    279.9 1.523e+04 1.830e-08
 92.25644    279.2 1.494e+04 1.504e-08
 92.26691    280.4 1.501e+04 1.556e-08
 92.28697    281.6 1.510e+04 1.598e-08
 92.30703    282.7 1.522e+04 1.663e-08
 92.31831    283.4 1.537e+04 1.790e-08
 92.32834    283.7 1.497e+04 1.311e-08
 92.34715    284.1 1.516e+04 1.465e-08
 92.36721    284.3 1.536e+04 1.721e-08
 92.38727    284.4 1.567e+04 2.096e-08
 92.40417    284.1 1.612e+04 2.706e-08
 92.41420    285.0 1.552e+04 2.196e-08
 92.42739    284.5 1.608e+04 2.736e-08
 92.44745    283.4 1.659e+04 3.392e-08
 92.46245    282.7 1.666e+04 3.751e-08
 92.47243    282.4 1.667e+04 3.927e-08
 92.48246    282.1 1.671e+04 4.216e-08
 92.49249    281.8 1.674e+04 4.646e-08
 92.49801    281.4 1.677e+04 5.172e-08
 92.50047    281.0 1.686e+04 5.015e-08
 92.50498    281.3 1.669e+04 3.997e-08
 92.51255    280.8 1.670e+04 4.182e-08
 92.52258    280.2 1.672e+04 4.318e-08
 92.53261    279.7 1.668e+04 4.400e-08
 92.54264    279.1 1.662e+04 4.312e-08
 92.54791    278.8 1.655e+04 4.252e-08
 92.55292    278.9 1.644e+04 4.189e-08
 92.56777    278.1 1.637e+04 4.183e-08
 92.58592    277.8 1.633e+04 4.291e-08
 92.59595    277.2 1.668e+04 5.247e-08
 92.60794    277.4 1.669e+04 5.576e-08
 92.62800    277.8 1.671e+04 6.009e-08
 92.64806    278.3 1.684e+04 6.928e-08
 92.66812    279.1 1.717e+04 8.909e-08
 92.68182    280.1 1.769e+04 1.234e-07
 92.69185    278.9 1.738e+04 9.697e-08
 92.70824    279.5 1.788e+04 1.281e-07
 92.72830    280.0 1.825e+04 1.555e-07
 92.73973    279.1 1.825e+04 1.512e-07
 92.74976    277.3 1.825e+04 1.399e-07
 92.76768    276.8 1.823e+04 1.357e-07
 92.77771    275.7 1.690e+04 9.907e-08
 92.78848    275.6 1.697e+04 1.067e-07
 92.80854    275.8 1.705e+04 1.175e-07
 92.82860    276.4 1.722e+04 1.365e-07
 92.84360    276.4 1.736e+04 1.511e-07
 92.85358    276.6 1.755e+04 1.657e-07
 92.86052    276.8 1.776e+04 1.863e-07
 92.86540    277.3 1.772e+04 1.888e-07
 92.86849    277.4 1.745e+04 1.690e-07
 92.87364    277.8 1.779e+04 1.986e-07
 92.88367    278.1 1.812e+04 2.299e-07
 92.89370    278.5 1.832e+04 2.637e-07
 92.90373    278.9 1.842e+04 3.003e-07
 92.91142    279.2 1.841e+04 3.279e-07
 92.91643    279.5 1.814e+04 3.009e-07
 92.92379    279.9 1.815e+04 3.167e-07
 92.93382    280.4 1.805e+04 3.211e-07
 92.94385    281.1 1.803e+04 3.142e-07
 92.95388    281.7 1.802e+04 2.960e-07
 92.95937    282.4 1.801e+04 2.688e-07
 92.96438    282.6 1.782e+04 2.339e-07
 92.97394    283.0 1.780e+04 2.123e-07
 92.98136    283.3 1.774e+04 1.863e-07
 92.98637    283.7 1.828e+04 3.552e-07
 92.99400    283.9 1.830e+04 3.218e-07
 93.00230    284.0 1.830e+04 2.828e-07
 93.00731    284.2 1.813e+04 2.423e-07
 93.01406    283.9 1.816e+04 2.170e-07
 93.02409    283.3 1.814e+04 1.868e-07
 93.03412    282.4 1.798e+04 1.553e-07
 93.04415    281.3 1.767e+04 1.268e-07
 93.05024    280.4 1.727e+04 1.058e-07
 93.05526    280.5 1.752e+04 1.072e-07
 93.06421    279.4 1.725e+04 9.402e-08
 93.07424    278.7 1.702e+04 8.403e-08
 93.08934    277.4 1.732e+04 9.055e-08
 93.10945    276.4 1.657e+04 5.977e-08
 93.12951    275.5 1.557e+04 3.439e-08
 93.14122    274.5 1.418e+04 1.919e-08
 93.15125    275.3 1.544e+04 3.165e-08
 93.16963    274.9 1.367e+04 1.585e-08
 93.18969    274.5 1.220e+04 9.798e-09
 93.20975    274.6 1.157e+04 7.742e-09
 93.22313    275.0 1.138e+04 6.817e-09
 93.23043    274.3 1.154e+04 8.117e-09
 93.23711    274.5 1.174e+04 8.689e-09
 93.24987    275.5 1.165e+04 8.557e-09
 93.26993    276.7 1.159e+04 8.531e-09
 93.28999    277.9 1.156e+04 8.521e-09
 93.31005    278.9 1.153e+04 8.516e-09
 93.32297    279.7 1.149e+04 8.552e-09
 93.33300    280.1 1.191e+04 1.090e-08
 93.35017    280.9 1.190e+04 1.115e-08
 93.37023    281.7 1.189e+04 1.144e-08
 93.39029    282.4 1.188e+04 1.179e-08
 93.40884    283.2 1.189e+04 1.225e-08
 93.41887    283.4 1.245e+04 1.570e-08
 93.43041    284.0 1.252e+04 1.626e-08
 93.45047    284.7 1.261e+04 1.697e-08
 93.46480    285.3 1.276e+04 1.808e-08
 93.47483    284.3 1.257e+04 1.654e-08
 93.49060    285.0 1.259e+04 1.646e-08
 93.50473    285.5 1.258e+04 1.621e-08
 93.51476    285.1 1.332e+04 2.129e-08
 93.53072    285.6 1.325e+04 2.063e-08
 93.55078    286.2 1.314e+04 1.973e-08
 93.57084    286.8 1.300e+04 1.860e-08
 93.59059    287.5 1.284e+04 1.737e-08
 93.60062    286.8 1.361e+04 2.573e-08
 93.61096    287.7 1.332e+04 2.298e-08
 93.63102    288.7 1.304e+04 2.045e-08
 93.65108    289.7 1.279e+04 1.843e-08
 93.67114    290.7 1.265e+04 1.728e-08
 93.68648    291.8 1.264e+04 1.713e-08
 93.69651    290.9 1.293e+04 2.002e-08
 93.70647    291.9 1.296e+04 2.031e-08
 93.71650    290.8 1.267e+04 1.833e-08
 93.73132    291.7 1.284e+04 2.022e-08
 93.75138    292.7 1.306e+04 2.280e-08
 93.77144    293.6 1.332e+04 2.559e-08
 93.78238    294.4 1.359e+04 2.813e-08
 93.79241    293.4 1.329e+04 2.531e-08
 93.81156    293.8 1.329e+04 2.522e-08
 93.83162    294.1 1.322e+04 2.460e-08
 93.85168    294.3 1.307e+04 2.322e-08
 93.86824    294.4 1.285e+04 2.144e-08
 93.87827    293.9 1.223e+04 1.632e-08
 93.89180    294.3 1.212e+04 1.524e-08
 93.91186    294.8 1.203e+04 1.409e-08
 93.93192    295.5 1.196e+04 1.294e-08
 93.94815    296.0 1.180e+04 1.148e-08
 93.95818    295.6 1.154e+04 9.319e-09
 93.96423    296.5 1.154e+04 9.655e-09
 93.98439    294.7 1.107e+04 6.126e-09
 94.02239    295.9 1.077e+04 5.324e-09
 94.06251    297.3 1.046e+04 4.381e-09
 94.09251    297.5 1.023e+04 3.767e-09
 94.11247    298.0 1.013e+04 3.458e-09
 94.13253    298.4 1.010e+04 3.282e-09
 94.14589    298.9 1.013e+04 3.248e-09
 94.15601    300.0 9.790e+03 2.664e-09
 94.17998    301.8 9.945e+03 2.749e-09
 94.20004    299.8 9.739e+03 2.494e-09
 94.22300    301.0 9.956e+03 2.749e-09
 94.26312    301.1 1.018e+04 3.025e-09
 94.29311    301.0 1.030e+04 3.244e-09
 94.31307    301.6 1.042e+04 3.562e-09
 94.32764    301.8 1.056e+04 3.940e-09
 94.33767    302.7 1.036e+04 3.357e-09
 94.35319    302.9 1.054e+04 3.803e-09
 94.37325    302.9 1.071e+04 4.218e-09
 94.39331    302.8 1.084e+04 4.516e-09
 94.41337    302.6 1.093e+04 4.724e-09
 94.42353    302.4 1.100e+04 4.876e-09
 94.43162    303.8 1.099e+04 4.833e-09
 94.44152    303.1 1.088e+04 4.660e-09
 94.45350    302.8 1.097e+04 5.011e-09
 94.47356    302.6 1.106e+04 5.379e-09
 94.49362    302.4 1.115e+04 5.834e-09
 94.50939    302.3 1.127e+04 6.450e-09
 94.51943    303.6 1.122e+04 6.042e-09
 94.53374    303.5 1.135e+04 6.676e-09
 94.55380    303.5 1.155e+04 7.568e-09
 94.57386    303.4 1.183e+04 8.792e-09
 94.59392    303.2 1.217e+04 1.037e-08
 94.60529    303.0 1.252e+04 1.227e-08
 94.61532    304.4 1.230e+04 1.052e-08
 94.63404    304.1 1.270e+04 1.264e-08
 94.65410    303.8 1.309e+04 1.516e-08
 94.67316    303.2 1.345e+04 1.781e-08
 94.68319    301.7 1.378e+04 2.098e-08
 94.69115    300.8 1.383e+04 2.105e-08
 94.70118    302.1 1.384e+04 2.087e-08
 94.71428    301.0 1.385e+04 2.041e-08
 94.73434    299.8 1.378e+04 1.857e-08
 94.75440    298.7 1.357e+04 1.578e-08
 94.78459    296.8 1.301e+04 8.518e-09
 94.82481    294.6 1.197e+04 4.552e-09
 94.86307    293.4 1.094e+04 3.136e-09
 94.88303    294.2 1.080e+04 2.724e-09
 94.89482    294.1 1.068e+04 2.677e-09
 94.91484    294.1 1.063e+04 2.674e-09
 94.93490    293.3 1.060e+04 2.686e-09
 94.95501    293.5 1.057e+04 2.732e-09
 94.96880    293.7 1.054e+04 2.786e-09
 94.97883    294.6 1.046e+04 2.871e-09
 94.99513    295.0 1.043e+04 3.032e-09
 95.01519    295.6 1.045e+04 3.241e-09
 95.03525    296.2 1.050e+04 3.486e-09
 95.05466    296.7 1.057e+04 3.736e-09
 95.06469    297.0 1.063e+04 3.901e-09
 95.07537    297.4 1.065e+04 4.038e-09
 95.09543    297.7 1.066e+04 4.155e-09
 95.11549    298.0 1.068e+04 4.287e-09
 95.13555    298.3 1.070e+04 4.443e-09
 95.15055    298.6 1.073e+04 4.631e-09
 95.16058    298.8 1.070e+04 4.526e-09
 95.16654    299.0 1.076e+04 4.780e-09
 95.17657    297.8 1.093e+04 5.371e-09
 95.19573    297.9 1.102e+04 5.788e-09
 95.21579    297.9 1.111e+04 6.194e-09
 95.23585    297.8 1.118e+04 6.538e-09
 95.24644    297.7 1.123e+04 6.797e-09
 95.25647    297.6 1.138e+04 7.406e-09
 95.27597    297.4 1.141e+04 7.577e-09
 95.29603    297.3 1.145e+04 7.735e-09
 95.31609    297.0 1.151e+04 7.954e-09
 95.33231    296.7 1.159e+04 8.294e-09
 95.34234    296.6 1.166e+04 8.603e-09
 95.35621    296.3 1.171e+04 8.825e-09
 95.37627    295.9 1.173e+04 8.975e-09
 95.39633    295.6 1.171e+04 8.953e-09
 95.40821    295.5 1.165e+04 8.750e-09
 95.41824    293.9 1.153e+04 8.452e-09
 95.42820    293.9 1.132e+04 7.794e-09
 95.43823    294.1 1.106e+04 6.658e-09
 95.45652    294.2 1.082e+04 5.929e-09
 95.47658    294.5 1.060e+04 5.256e-09
 95.49664    294.8 1.043e+04 4.735e-09
 95.51406    295.1 1.040e+04 4.514e-09
 95.52409    295.3 1.019e+04 3.888e-09
 95.53676    295.6 1.021e+04 3.922e-09
 95.55682    295.5 1.029e+04 4.093e-09
 95.57688    295.4 1.044e+04 4.506e-09
 95.59694    295.2 1.064e+04 5.178e-09
 95.60995    294.9 1.089e+04 5.993e-09
 95.61998    295.0 1.068e+04 5.360e-09
 95.63706    294.6 1.093e+04 6.050e-09
 95.64989    293.9 1.105e+04 6.151e-09
 95.65992    292.1 1.088e+04 5.520e-09
 95.67718    291.3 1.087e+04 5.336e-09
 95.69582    289.6 1.086e+04 4.637e-09
 95.70585    290.6 1.062e+04 4.203e-09
 95.71730    289.3 1.051e+04 3.575e-09
 95.73736    287.6 1.047e+04 3.203e-09
 95.75742    285.6 1.049e+04 3.223e-09
 95.77748    283.3 1.063e+04 3.500e-09
 95.79171    281.0 1.096e+04 4.718e-09
 95.80174    283.4 1.049e+04 3.705e-09
 95.81760    279.9 1.151e+04 6.437e-09
 95.83766    277.4 1.209e+04 1.004e-08
 95.85772    274.5 1.289e+04 1.301e-08
 95.87757    272.0 1.310e+04 1.328e-08
 95.88760    274.4 1.338e+04 1.588e-08
 95.89156    271.0 1.347e+04 1.553e-08
 95.90159    269.4 1.322e+04 1.413e-08
 95.91791    266.4 1.316e+04 1.173e-08
 95.94809    262.5 1.294e+04 7.663e-09
 95.97366    255.5 1.188e+04 4.044e-09
 95.99372    257.2 1.238e+04 5.352e-09
 96.02843    249.4 1.074e+04 3.359e-09
 96.06855    242.9 9.676e+03 2.900e-09
 96.10867    238.5 9.366e+03 2.648e-09
 96.13343    235.5 9.194e+03 2.228e-09
 96.15008    233.8 9.116e+03 2.162e-09
 96.16544    234.7 9.124e+03 2.250e-09
 96.18892    232.7 8.854e+03 1.689e-09
 96.22904    231.0 8.583e+03 1.254e-09
 96.26916    229.5 8.350e+03 9.684e-10
 96.30928    228.3 8.147e+03 8.424e-10
 96.33717    227.4 8.091e+03 8.341e-10
 96.35723    229.1 8.126e+03 8.734e-10
 96.38952    228.6 8.124e+03 8.760e-10
 96.42964    228.2 8.144e+03 9.004e-10
 96.46976    227.8 8.228e+03 9.989e-10
 96.50889    227.1 8.395e+03 1.205e-09
 96.52895    228.9 8.540e+03 1.385e-09
 96.55000    228.0 8.760e+03 1.724e-09
 96.59012    226.8 8.966e+03 2.136e-09
 96.61677    225.1 9.117e+03 2.567e-09
 96.63683    224.9 9.136e+03 2.851e-09
 96.67037    223.2 9.117e+03 3.162e-09
 96.70068    221.6 9.070e+03 3.252e-09
 96.72064    223.7 9.077e+03 3.834e-09
 96.74038    223.5 9.114e+03 4.045e-09
 96.76044    222.6 9.147e+03 4.079e-09
 96.78050    221.5 9.136e+03 4.056e-09
 96.79638    220.2 9.059e+03 3.924e-09
 96.80641    221.8 9.309e+03 4.812e-09
 96.82062    220.5 9.169e+03 4.553e-09
 96.84068    219.3 9.000e+03 4.275e-09
 96.85825    218.0 8.865e+03 4.093e-09
 96.86828    218.1 8.660e+03 3.537e-09
 96.88080    217.0 8.622e+03 3.512e-09
 96.89227    216.0 8.636e+03 3.572e-09
 96.90230    216.9 8.803e+03 3.966e-09
 96.92093    216.0 8.821e+03 4.029e-09
 96.94099    215.3 8.894e+03 4.258e-09
 96.96105    214.6 9.049e+03 4.736e-09
 96.97813    213.6 9.379e+03 5.798e-09
 96.98816    214.2 9.297e+03 5.606e-09
 97.00117    212.4 1.015e+04 8.187e-09
 97.02123    210.0 1.185e+04 1.528e-08
 97.04129    207.9 1.391e+04 3.291e-08
 97.06135    205.8 1.572e+04 6.616e-08
 97.07402    203.0 1.710e+04 9.814e-08
 97.08405    204.0 1.703e+04 9.732e-08
 97.09992    200.1 1.748e+04 9.964e-08
 97.10995    201.4 1.754e+04 1.082e-07
 97.12153    197.5 1.746e+04 9.745e-08
 97.14159    193.4 1.696e+04 6.264e-08
 97.15989    187.6 1.575e+04 3.480e-08
 97.16992    189.1 1.577e+04 3.693e-08
 97.18171    181.6 1.499e+04 3.316e-08
 97.20177    174.8 1.487e+04 3.575e-08
 97.22183    169.8 1.494e+04 4.074e-08
 97.24189    165.8 1.493e+04 4.040e-08
 97.25578    162.4 1.462e+04 3.392e-08
 97.26581    162.4 1.484e+04 3.674e-08
 97.28201    158.4 1.395e+04 2.204e-08
 97.30207    153.1 1.241e+04 1.137e-08
 97.32213    147.3 1.072e+04 8.396e-09
 97.34160    143.6 1.048e+04 8.402e-09
 97.35163    146.1 1.099e+04 1.086e-08
 97.36225    143.7 1.098e+04 1.093e-08
 97.38232    142.1 1.118e+04 1.146e-08
 97.40238    140.7 1.144e+04 1.200e-08
 97.42244    139.3 1.163e+04 1.215e-08
 97.43753    138.0 1.173e+04 1.232e-08
 97.44756    137.8 1.188e+04 1.320e-08
 97.46256    136.7 1.190e+04 1.327e-08
 97.48262    135.8 1.197e+04 1.366e-08
 97.50268    135.1 1.207e+04 1.444e-08
 97.52274    134.6 1.226e+04 1.578e-08
 97.53343    134.2 1.243e+04 1.673e-08
 97.54346    134.4 1.238e+04 1.606e-08
 97.56286    134.5 1.252e+04 1.658e-08
 97.58337    132.9 1.253e+04 1.645e-08
 97.60353    135.3 1.219e+04 1.414e-08
 97.61948    135.7 1.220e+04 1.416e-08
 97.63954    135.5 1.187e+04 1.176e-08
 97.67339    136.5 1.199e+04 1.243e-08
 97.71351    137.9 1.191e+04 1.157e-08
 97.75363    139.8 1.167e+04 9.603e-09
 97.79121    141.9 1.125e+04 6.847e-09
 97.81127    141.8 1.118e+04 6.910e-09
 97.83387    143.8 1.073e+04 4.674e-09
 97.87399    145.6 1.030e+04 3.212e-09
 97.91411    147.5 9.903e+03 2.450e-09
 97.95423    150.0 9.918e+03 2.426e-09
 97.98299    151.6 1.007e+04 2.595e-09
 98.00305    151.1 1.012e+04 2.621e-09
 98.02435    151.2 1.012e+04 2.727e-09
 98.04431    152.0 1.005e+04 2.837e-09
 98.06437    153.0 1.005e+04 3.175e-09
 98.07665    154.0 1.020e+04 3.747e-09
 98.08094    155.3 1.040e+04 4.014e-09
 98.08872    155.5 1.042e+04 4.026e-09
 98.10449    156.2 1.065e+04 4.759e-09
 98.12455    156.7 1.094e+04 5.746e-09
 98.14461    156.9 1.129e+04 7.006e-09
 98.16455    157.1 1.168e+04 8.804e-09
 98.17458    157.5 1.169e+04 8.638e-09
 98.18473    157.4 1.219e+04 1.115e-08
 98.20479    157.2 1.286e+04 1.514e-08
 98.22485    156.9 1.359e+04 2.053e-08
 98.24491    156.1 1.408e+04 2.407e-08
 98.26045    154.9 1.410e+04 2.383e-08
 98.27048    155.4 1.398e+04 2.248e-08
 98.28503    154.3 1.385e+04 2.128e-08
 98.30509    153.3 1.341e+04 1.759e-08
 98.31832    152.1 1.279e+04 1.327e-08
 98.32835    152.8 1.326e+04 1.609e-08
 98.34521    151.4 1.275e+04 1.247e-08
 98.35634    149.8 1.239e+04 1.039e-08
 98.36637    150.7 1.281e+04 1.265e-08
 98.38534    149.2 1.255e+04 1.109e-08
 98.40540    147.7 1.239e+04 1.028e-08
 98.42546    146.3 1.230e+04 1.019e-08
 98.44220    145.2 1.232e+04 1.034e-08
 98.45223    146.2 1.238e+04 1.048e-08
 98.46558    145.0 1.244e+04 1.090e-08
 98.48564    143.7 1.270e+04 1.243e-08
 98.50570    142.3 1.320e+04 1.548e-08
 98.52576    140.8 1.381e+04 1.966e-08
 98.53809    138.7 1.429e+04 2.343e-08
 98.54812    139.7 1.431e+04 2.376e-08
 98.55999    137.3 1.454e+04 2.555e-08
 98.57002    137.0 1.440e+04 2.382e-08
 98.58594    134.0 1.451e+04 2.402e-08
 98.60600    130.1 1.554e+04 2.699e-08
 98.62396    125.7 1.722e+04 3.996e-08
 98.63399    126.6 1.541e+04 2.947e-08
 98.64612    122.6 1.685e+04 4.375e-08
 98.66618    119.6 1.756e+04 5.827e-08
 98.68624    117.2 1.764e+04 6.002e-08
 98.70630    114.9 1.766e+04 5.685e-08
 98.71985    111.7 1.809e+04 5.335e-08
 98.72988    110.2 1.550e+04 2.619e-08
 98.74642    102.9 1.601e+04 2.020e-08
 98.76648     90.1 1.593e+04 2.602e-08
 98.78654     77.1 1.664e+04 4.004e-08
 98.80167     68.4 1.630e+04 4.062e-08
 98.81080     67.1 1.595e+04 4.070e-08
 98.81574     70.9 1.541e+04 3.860e-08
 98.82666     67.0 1.513e+04 3.333e-08
 98.84673     62.3 1.480e+04 2.731e-08
 98.86679     52.5 1.748e+04 3.591e-08
 98.88685     40.6 1.976e+04 1.027e-07
 98.90155     36.5 1.905e+04 1.937e-07
 98.90652     37.5 1.918e+04 1.775e-07
 98.91182     35.4 1.993e+04 2.530e-07
 98.92185     32.1 2.011e+04 3.321e-07
 98.92742     28.6 2.075e+04 3.062e-07
 98.93243     27.4 2.047e+04 3.159e-07
 98.94191     22.1 1.941e+04 1.481e-07
 98.94945     20.8 1.967e+04 1.169e-07
 98.95447     20.4 1.961e+04 1.223e-07
 98.96704     12.7 1.698e+04 4.870e-08
 98.98715      6.1 1.447e+04 2.006e-08
 98.99750      1.4 1.283e+04 1.285e-08
 99.00753      3.9 1.412e+04 1.770e-08
 99.02727     -0.8 1.254e+04 1.229e-08
 99.04334     -3.4 1.194e+04 1.110e-08
 99.05337     -4.9 1.164e+04 9.783e-09
 99.06739     -5.8 1.149e+04 9.780e-09
 99.08336     -6.1 1.142e+04 9.587e-09
 99.09339     -5.3 1.196e+04 1.261e-08
 99.10751     -5.4 1.182e+04 1.130e-08
 99.12757     -6.0 1.154e+04 9.181e-09
 99.14763     -7.3 1.131e+04 7.978e-09
 99.16769     -8.9 1.126e+04 7.991e-09
 99.17925    -10.5 1.175e+04 1.010e-08
 99.18928     -9.2 1.187e+04 1.016e-08
 99.20781    -10.8 1.264e+04 1.375e-08
 99.22787    -12.1 1.347e+04 1.930e-08
 99.24793    -13.1 1.420e+04 2.694e-08
 99.26511    -14.2 1.482e+04 3.644e-08
 99.27514    -13.6 1.526e+04 3.676e-08
 99.28501    -14.5 1.601e+04 4.943e-08
 99.29504    -15.6 1.643e+04 6.238e-08
 99.30811    -16.8 1.692e+04 7.402e-08
 99.32817    -17.9 1.724e+04 8.469e-08
 99.34824    -19.1 1.737e+04 8.842e-08
 99.36101    -20.5 1.729e+04 8.167e-08
 99.37104    -20.5 1.861e+04 1.489e-07
 99.38836    -22.3 1.836e+04 1.423e-07
 99.40335    -23.1 1.715e+04 8.774e-08
 99.40885    -23.1 1.679e+04 7.712e-08
 99.41130    -23.5 1.760e+04 1.211e-07
 99.41578    -24.2 1.761e+04 1.220e-07
 99.42336    -24.9 1.717e+04 1.017e-07
 99.43339    -25.5 1.699e+04 8.800e-08
 99.44342    -26.1 1.676e+04 7.708e-08
 99.45179    -26.4 1.655e+04 6.923e-08
 99.45680    -27.0 1.767e+04 1.012e-07
 99.46855    -27.9 1.771e+04 9.902e-08
 99.48866    -28.7 1.709e+04 6.808e-08
 99.50872    -29.6 1.667e+04 5.191e-08
 99.52668    -30.3 1.586e+04 3.926e-08
 99.53671    -31.5 1.525e+04 3.366e-08
 99.54276    -31.7 1.483e+04 2.955e-08
 99.55279    -33.6 1.452e+04 2.677e-08
 99.56890    -33.5 1.413e+04 2.367e-08
 99.58896    -33.1 1.396e+04 2.240e-08
 99.60902    -32.8 1.397e+04 2.226e-08
 99.62862    -32.7 1.413e+04 2.259e-08
 99.63865    -34.0 1.288e+04 1.651e-08
 99.64914    -34.3 1.311e+04 1.783e-08
 99.66920    -35.7 1.389e+04 2.226e-08
 99.68926    -37.5 1.485e+04 3.095e-08
 99.70932    -38.9 1.563e+04 4.195e-08
 99.72452    -40.2 1.601e+04 4.794e-08
 99.73455    -41.5 1.470e+04 3.117e-08
 99.74944    -42.9 1.467e+04 3.166e-08
 99.76836    -44.0 1.422e+04 2.814e-08
 99.77839    -45.1 1.373e+04 2.434e-08
 99.78956    -46.7 1.323e+04 1.938e-08
 99.80962    -48.3 1.283e+04 1.734e-08
 99.82041    -49.2 1.268e+04 1.696e-08
 99.83044    -49.1 1.268e+04 1.694e-08
 99.84975    -49.3 1.255e+04 1.755e-08
 99.86981    -49.3 1.265e+04 1.859e-08
 99.88987    -49.5 1.271e+04 1.880e-08
 99.90627    -50.2 1.270e+04 1.809e-08
 99.91630    -50.1 1.268e+04 1.726e-08
 99.92999    -51.0 1.245e+04 1.535e-08
 99.95005    -52.7 1.234e+04 1.421e-08
 99.97011    -54.4 1.227e+04 1.347e-08
 99.99017    -55.2 1.228e+04 1.338e-08
