# Columns:
#   distance along LOS (in CHIMPs)
#   peculiar velocity  (in km/s)
#   temperature (K)
#   HI number density
# pos=(131.26,36.5545,81.317), angles=(0.0713627,2.42799)
  0.01439     -1.0 1.320e+04 2.901e-10
  0.04850      2.1 1.355e+04 2.317e-10
  0.08780      4.2 1.358e+04 2.890e-10
  0.12696      6.4 1.345e+04 4.379e-10
  0.16612      9.3 1.308e+04 6.883e-10
  0.20528     12.0 1.335e+04 7.535e-10
  0.24445     14.2 1.351e+04 8.071e-10
  0.28361     16.2 1.358e+04 9.265e-10
  0.32277     18.2 1.363e+04 1.124e-09
  0.36193     20.1 1.358e+04 1.390e-09
  0.40110     21.9 1.362e+04 1.519e-09
  0.44026     23.7 1.364e+04 1.447e-09
  0.47942     25.6 1.370e+04 1.204e-09
  0.51858     27.5 1.376e+04 9.938e-10
  0.55774     29.7 1.367e+04 9.050e-10
  0.59691     32.3 1.356e+04 8.399e-10
  0.63566     35.1 1.356e+04 7.154e-10
  0.65525     35.3 1.359e+04 4.915e-10
  0.67523     38.1 1.369e+04 3.789e-10
  0.71439     40.8 1.376e+04 2.979e-10
  0.74371     43.6 1.372e+04 2.633e-10
  0.76329     43.8 1.372e+04 2.711e-10
  0.79272     46.7 1.371e+04 2.728e-10
  0.83188     49.7 1.372e+04 2.831e-10
  0.87104     52.7 1.373e+04 3.073e-10
  0.91020     55.6 1.374e+04 3.410e-10
  0.94937     58.5 1.375e+04 3.820e-10
  0.98853     61.3 1.377e+04 4.323e-10
  1.02769     64.1 1.379e+04 4.945e-10
  1.06685     66.8 1.385e+04 5.633e-10
  1.10601     69.4 1.399e+04 6.182e-10
  1.14518     71.8 1.406e+04 6.832e-10
  1.18434     74.2 1.401e+04 7.562e-10
  1.22350     76.5 1.388e+04 8.481e-10
  1.26266     78.9 1.370e+04 9.711e-10
  1.30183     81.3 1.357e+04 1.111e-09
  1.34099     83.6 1.350e+04 1.250e-09
  1.38015     85.8 1.349e+04 1.331e-09
  1.41931     88.0 1.347e+04 1.365e-09
  1.45847     90.1 1.346e+04 1.348e-09
  1.48493     92.6 1.349e+04 1.090e-09
  1.50451     92.5 1.344e+04 7.693e-10
  1.53680     94.9 1.328e+04 8.739e-10
  1.57596     97.4 1.313e+04 9.821e-10
  1.61512     99.8 1.305e+04 1.069e-09
  1.65429    102.3 1.301e+04 1.106e-09
  1.69345    104.7 1.299e+04 1.095e-09
  1.73261    107.1 1.293e+04 1.052e-09
  1.77177    109.6 1.287e+04 9.875e-10
  1.81093    112.3 1.280e+04 9.336e-10
  1.85010    115.0 1.274e+04 9.043e-10
  1.88926    117.7 1.273e+04 9.055e-10
  1.92842    120.4 1.269e+04 9.299e-10
  1.96758    123.0 1.266e+04 9.752e-10
  2.00674    125.5 1.262e+04 1.010e-09
  2.04591    127.8 1.261e+04 1.008e-09
  2.08507    130.2 1.256e+04 9.898e-10
  2.12423    132.6 1.248e+04 9.306e-10
  2.16339    135.1 1.244e+04 8.457e-10
  2.19286    137.7 1.237e+04 7.759e-10
  2.21244    138.0 1.241e+04 7.345e-10
  2.24172    140.6 1.233e+04 7.004e-10
  2.28088    143.3 1.228e+04 6.965e-10
  2.31461    146.1 1.226e+04 7.001e-10
  2.33419    146.3 1.222e+04 7.685e-10
  2.35920    149.1 1.222e+04 7.720e-10
  2.39837    151.9 1.219e+04 7.880e-10
  2.43753    154.8 1.213e+04 8.223e-10
  2.47669    157.6 1.207e+04 8.705e-10
  2.51585    160.5 1.202e+04 9.271e-10
  2.55502    163.3 1.201e+04 9.884e-10
  2.59418    166.0 1.200e+04 1.060e-09
  2.63334    168.8 1.198e+04 1.141e-09
  2.67250    171.4 1.195e+04 1.234e-09
  2.71166    174.1 1.191e+04 1.338e-09
  2.75083    176.6 1.187e+04 1.457e-09
  2.78999    179.0 1.185e+04 1.591e-09
  2.82915    181.3 1.184e+04 1.741e-09
  2.86831    183.5 1.185e+04 1.899e-09
  2.90747    185.5 1.187e+04 2.049e-09
  2.94664    186.8 1.212e+04 8.385e-10
  2.98580    188.6 1.213e+04 9.270e-10
  3.02496    190.1 1.212e+04 1.083e-09
  3.06412    191.5 1.208e+04 1.296e-09
  3.10329    192.8 1.204e+04 1.576e-09
  3.14245    193.8 1.201e+04 2.026e-09
  3.16388    194.7 1.202e+04 2.742e-09
  3.18346    193.2 1.207e+04 3.741e-09
  3.22077    193.8 1.215e+04 5.462e-09
  3.25993    193.8 1.237e+04 7.766e-09
  3.28453    193.5 1.252e+04 9.049e-09
  3.29422    193.4 1.252e+04 8.737e-09
  3.30869    193.2 1.265e+04 9.299e-09
  3.32827    192.8 1.281e+04 9.767e-09
  3.34785    192.2 1.295e+04 1.004e-08
  3.36744    191.3 1.304e+04 1.020e-08
  3.38702    190.3 1.308e+04 1.026e-08
  3.40660    188.9 1.310e+04 1.034e-08
  3.42618    187.3 1.317e+04 1.059e-08
  3.44576    185.3 1.329e+04 1.141e-08
  3.46534    182.8 1.351e+04 1.336e-08
  3.48492    179.7 1.385e+04 1.718e-08
  3.50450    176.2 1.423e+04 2.309e-08
  3.52408    172.8 1.449e+04 2.848e-08
  3.54366    169.5 1.452e+04 2.913e-08
  3.56325    166.8 1.439e+04 2.776e-08
  3.57852    164.7 1.394e+04 2.228e-08
  3.58831    164.1 1.434e+04 2.836e-08
  3.60241    162.7 1.361e+04 1.888e-08
  3.62199    162.0 1.291e+04 1.167e-08
  3.64157    161.8 1.245e+04 7.598e-09
  3.65161    161.8 1.228e+04 5.322e-09
  3.66141    162.2 1.214e+04 5.686e-09
  3.68073    162.3 1.206e+04 4.271e-09
  3.70031    162.4 1.199e+04 3.476e-09
  3.72978    163.7 1.160e+04 2.983e-09
  3.76904    165.7 1.148e+04 2.940e-09
  3.80820    168.0 1.150e+04 3.040e-09
  3.84737    169.6 1.156e+04 3.218e-09
  3.87664    170.8 1.169e+04 3.438e-09
  3.89612    171.6 1.178e+04 3.813e-09
  3.91571    172.4 1.186e+04 4.332e-09
  3.93529    173.1 1.193e+04 4.765e-09
  3.95487    173.5 1.195e+04 4.934e-09
  3.97445    173.8 1.193e+04 4.956e-09
  3.99337    174.1 1.190e+04 4.939e-09
  4.00316    174.1 1.196e+04 8.136e-09
  4.00901    174.4 1.192e+04 7.611e-09
  4.01880    174.2 1.179e+04 7.441e-09
  4.03319    174.6 1.174e+04 6.912e-09
  4.05277    174.9 1.177e+04 6.483e-09
  4.07235    175.2 1.184e+04 6.317e-09
  4.09194    175.6 1.185e+04 6.326e-09
  4.11152    175.9 1.191e+04 6.371e-09
  4.13110    176.1 1.198e+04 6.519e-09
  4.15068    176.4 1.206e+04 6.760e-09
  4.17026    176.7 1.215e+04 7.034e-09
  4.18984    176.8 1.225e+04 7.245e-09
  4.20942    176.8 1.236e+04 7.320e-09
  4.22900    176.7 1.245e+04 7.287e-09
  4.24858    176.4 1.248e+04 7.222e-09
  4.26817    176.0 1.254e+04 7.005e-09
  4.28775    175.6 1.256e+04 6.818e-09
  4.30733    175.0 1.255e+04 6.824e-09
  4.32691    174.5 1.256e+04 6.989e-09
  4.34649    174.0 1.263e+04 7.477e-09
  4.36607    173.6 1.277e+04 7.969e-09
  4.37619    173.1 1.288e+04 8.061e-09
  4.38598    173.0 1.279e+04 8.532e-09
  4.40523    172.6 1.282e+04 8.477e-09
  4.41800    172.4 1.285e+04 8.305e-09
  4.42779    172.4 1.295e+04 9.050e-09
  4.44439    172.2 1.299e+04 9.037e-09
  4.46398    172.1 1.311e+04 9.239e-09
  4.48356    172.0 1.329e+04 1.014e-08
  4.50314    171.8 1.351e+04 1.214e-08
  4.52272    171.6 1.378e+04 1.569e-08
  4.54230    171.5 1.412e+04 2.095e-08
  4.56188    171.2 1.447e+04 2.641e-08
  4.58146    170.3 1.471e+04 2.705e-08
  4.60104    169.0 1.469e+04 2.612e-08
  4.62062    168.0 1.447e+04 2.164e-08
  4.64021    167.2 1.414e+04 1.646e-08
  4.66968    166.3 1.376e+04 9.358e-09
  4.70893    165.4 1.313e+04 3.167e-09
  4.74810    165.0 1.240e+04 1.715e-09
  4.78726    165.4 1.227e+04 1.679e-09
  4.82325    166.7 1.224e+04 1.719e-09
  4.84283    166.7 1.208e+04 1.565e-09
  4.86558    168.1 1.206e+04 1.846e-09
  4.90475    169.0 1.214e+04 2.376e-09
  4.94391    169.5 1.220e+04 2.970e-09
  4.98307    169.7 1.219e+04 3.446e-09
  5.02223    170.0 1.211e+04 3.829e-09
  5.06139    170.2 1.202e+04 4.354e-09
  5.09117    170.2 1.198e+04 5.290e-09
  5.11076    171.4 1.203e+04 4.535e-09
  5.13972    171.5 1.206e+04 5.632e-09
  5.17888    171.4 1.213e+04 6.811e-09
  5.21804    171.2 1.215e+04 7.300e-09
  5.25721    171.0 1.212e+04 7.230e-09
  5.29637    171.2 1.205e+04 6.862e-09
  5.33553    171.6 1.203e+04 6.457e-09
  5.37469    172.1 1.205e+04 6.451e-09
  5.41385    172.4 1.212e+04 6.669e-09
  5.45302    172.4 1.228e+04 7.153e-09
  5.49218    172.3 1.246e+04 7.412e-09
  5.53134    172.0 1.249e+04 7.311e-09
  5.57050    171.7 1.247e+04 6.631e-09
  5.60966    171.7 1.232e+04 5.343e-09
  5.64883    171.8 1.213e+04 3.992e-09
  5.67251    172.0 1.200e+04 2.879e-09
  5.69209    173.1 1.199e+04 2.993e-09
  5.72715    173.4 1.195e+04 2.156e-09
  5.76631    173.9 1.196e+04 1.789e-09
  5.80548    174.7 1.194e+04 1.819e-09
  5.82554    175.7 1.192e+04 2.140e-09
  5.84512    177.1 1.196e+04 1.829e-09
  5.88380    178.3 1.197e+04 2.077e-09
  5.92296    179.4 1.207e+04 2.771e-09
  5.96212    180.5 1.218e+04 3.706e-09
  6.00129    181.4 1.231e+04 4.439e-09
  6.04045    182.2 1.236e+04 5.038e-09
  6.07961    182.9 1.229e+04 5.371e-09
  6.11877    183.4 1.228e+04 5.161e-09
  6.15794    183.7 1.227e+04 4.855e-09
  6.19710    183.9 1.225e+04 4.814e-09
  6.23626    183.9 1.227e+04 5.030e-09
  6.27542    183.7 1.238e+04 6.028e-09
  6.31458    183.4 1.262e+04 7.883e-09
  6.35375    182.6 1.299e+04 9.685e-09
  6.39291    181.2 1.324e+04 9.896e-09
  6.43207    179.6 1.331e+04 9.004e-09
  6.47123    178.4 1.328e+04 6.409e-09
  6.50219    178.1 1.311e+04 3.796e-09
  6.52177    177.8 1.302e+04 4.065e-09
  6.54033    177.8 1.263e+04 2.177e-09
  6.55991    177.0 1.223e+04 1.546e-09
  6.58872    177.7 1.186e+04 1.474e-09
  6.62788    179.5 1.182e+04 1.496e-09
  6.66704    181.6 1.171e+04 1.644e-09
  6.70621    183.5 1.161e+04 2.006e-09
  6.74537    185.3 1.151e+04 2.515e-09
  6.78453    187.0 1.136e+04 2.940e-09
  6.82369    188.6 1.130e+04 2.994e-09
  6.86285    190.3 1.125e+04 2.963e-09
  6.90202    192.2 1.114e+04 2.818e-09
  6.94118    194.1 1.106e+04 2.584e-09
  6.98034    196.0 1.111e+04 2.355e-09
  7.01950    197.8 1.124e+04 2.273e-09
  7.05867    199.5 1.133e+04 2.289e-09
  7.09783    201.3 1.143e+04 2.394e-09
  7.13699    202.6 1.143e+04 2.600e-09
  7.16626    203.3 1.132e+04 2.856e-09
  7.18575    204.4 1.122e+04 3.226e-09
  7.20533    205.4 1.127e+04 3.756e-09
  7.22491    206.3 1.141e+04 4.390e-09
  7.24449    206.7 1.159e+04 5.149e-09
  7.26407    206.8 1.176e+04 6.093e-09
  7.27450    206.7 1.193e+04 7.343e-09
  7.28429    206.7 1.163e+04 6.053e-09
  7.30323    206.6 1.177e+04 7.104e-09
  7.32281    206.2 1.195e+04 8.369e-09
  7.34147    205.6 1.216e+04 9.485e-09
  7.35126    204.6 1.219e+04 1.027e-08
  7.36198    203.6 1.222e+04 1.014e-08
  7.38156    202.8 1.224e+04 9.425e-09
  7.40114    202.0 1.219e+04 7.869e-09
  7.42072    201.2 1.210e+04 6.007e-09
  7.44030    200.3 1.200e+04 4.356e-09
  7.45988    199.3 1.185e+04 3.205e-09
  7.47946    198.3 1.165e+04 2.526e-09
  7.49904    197.5 1.142e+04 2.253e-09
  7.51863    196.9 1.117e+04 2.189e-09
  7.53821    196.8 1.117e+04 2.190e-09
  7.55779    196.7 1.126e+04 2.228e-09
  7.57737    196.7 1.139e+04 2.399e-09
  7.59695    196.6 1.152e+04 2.746e-09
  7.61653    196.6 1.168e+04 3.291e-09
  7.63190    196.5 1.192e+04 4.117e-09
  7.64169    197.3 1.161e+04 3.637e-09
  7.65569    197.0 1.194e+04 4.944e-09
  7.67527    196.2 1.263e+04 7.890e-09
  7.69486    194.8 1.377e+04 1.551e-08
  7.71444    192.7 1.496e+04 3.196e-08
  7.73402    190.1 1.583e+04 5.237e-08
  7.75360    186.9 1.615e+04 5.651e-08
  7.76611    183.3 1.607e+04 5.169e-08
  7.77590    181.7 1.538e+04 3.078e-08
  7.79276    178.1 1.499e+04 1.957e-08
  7.81234    174.4 1.429e+04 9.657e-09
  7.83192    172.0 1.383e+04 6.453e-09
  7.85150    168.1 1.319e+04 3.726e-09
  7.88097    164.3 1.275e+04 3.361e-09
  7.92023    160.2 1.240e+04 2.642e-09
  7.95940    157.1 1.228e+04 1.835e-09
  7.98949    154.5 1.216e+04 1.085e-09
  8.00907    153.4 1.227e+04 1.294e-09
  8.03772    151.4 1.191e+04 1.030e-09
  8.07688    150.1 1.189e+04 1.072e-09
  8.11604    149.2 1.187e+04 1.370e-09
  8.15521    148.2 1.193e+04 2.051e-09
  8.18114    147.1 1.200e+04 2.811e-09
  8.20072    147.1 1.207e+04 3.485e-09
  8.23353    145.8 1.208e+04 3.492e-09
  8.27269    144.5 1.200e+04 3.293e-09
  8.31186    143.4 1.182e+04 3.178e-09
  8.35102    142.7 1.177e+04 3.256e-09
  8.39018    142.2 1.173e+04 3.788e-09
  8.42934    141.6 1.187e+04 5.186e-09
  8.46850    140.9 1.210e+04 6.939e-09
  8.50767    139.8 1.222e+04 7.452e-09
  8.54683    138.6 1.219e+04 7.231e-09
  8.58599    137.7 1.200e+04 6.230e-09
  8.62515    137.5 1.168e+04 4.495e-09
  8.66431    137.6 1.137e+04 2.781e-09
  8.70348    138.0 1.114e+04 1.532e-09
  8.72385    138.5 1.106e+04 8.076e-10
  8.74344    138.4 1.113e+04 9.473e-10
  8.78180    139.4 1.092e+04 6.108e-10
  8.82096    140.8 1.080e+04 5.760e-10
  8.86013    142.7 1.080e+04 5.753e-10
  8.89929    144.6 1.084e+04 5.802e-10
  8.93845    146.3 1.092e+04 6.055e-10
  8.97761    147.8 1.101e+04 7.211e-10
  9.01083    149.4 1.108e+04 1.045e-09
  9.03041    149.1 1.120e+04 1.346e-09
  9.05594    150.4 1.143e+04 1.817e-09
  9.08115    150.8 1.157e+04 2.225e-09
  9.09084    150.9 1.157e+04 2.099e-09
  9.10469    151.4 1.172e+04 2.607e-09
  9.12428    151.7 1.196e+04 3.724e-09
  9.14386    151.7 1.229e+04 5.704e-09
  9.16344    151.6 1.272e+04 9.068e-09
  9.18302    151.2 1.324e+04 1.471e-08
  9.20260    150.7 1.377e+04 2.301e-08
  9.22218    149.9 1.420e+04 3.168e-08
  9.24176    148.6 1.443e+04 3.499e-08
  9.26134    147.0 1.436e+04 3.423e-08
  9.28092    145.6 1.390e+04 2.758e-08
  9.30050    144.5 1.302e+04 1.759e-08
  9.32997    143.8 1.185e+04 8.460e-09
  9.36923    143.9 1.081e+04 4.291e-09
  9.40840    144.2 1.023e+04 2.695e-09
  9.43864    144.9 9.956e+03 2.122e-09
  9.45822    145.5 9.996e+03 2.105e-09
  9.48672    146.6 9.735e+03 1.911e-09
  9.52588    147.9 9.550e+03 1.871e-09
  9.56504    149.0 9.468e+03 1.857e-09
  9.60421    150.1 9.395e+03 1.867e-09
  9.64337    151.1 9.262e+03 1.899e-09
  9.68253    152.0 9.197e+03 1.940e-09
  9.72169    153.0 9.106e+03 2.020e-09
  9.76086    153.9 9.037e+03 2.187e-09
  9.80002    154.6 9.099e+03 2.446e-09
  9.83918    154.7 9.191e+03 2.712e-09
  9.85999    154.6 9.212e+03 2.871e-09
  9.86969    156.2 9.300e+03 3.243e-09
  9.88794    156.1 9.236e+03 3.213e-09
  9.90752    156.1 9.168e+03 3.230e-09
  9.92710    156.2 9.124e+03 3.320e-09
  9.94668    156.2 9.123e+03 3.504e-09
  9.96626    156.3 9.214e+03 3.791e-09
  9.98584    156.2 9.379e+03 4.371e-09
 10.00542    155.9 9.686e+03 5.708e-09
 10.02501    155.4 1.027e+04 8.666e-09
 10.04459    154.8 1.122e+04 1.493e-08
 10.06417    154.3 1.246e+04 2.695e-08
 10.08375    153.9 1.376e+04 4.631e-08
 10.10333    153.2 1.496e+04 6.820e-08
 10.12291    151.5 1.576e+04 7.170e-08
 10.14249    148.8 1.593e+04 6.590e-08
 10.16207    145.3 1.598e+04 4.661e-08
 10.17282    141.0 1.507e+04 2.736e-08
 10.18261    140.5 1.393e+04 2.249e-08
 10.20123    136.1 1.272e+04 1.929e-08
 10.22082    132.8 1.255e+04 1.950e-08
 10.24040    130.2 1.262e+04 2.165e-08
 10.25998    127.6 1.329e+04 2.994e-08
 10.27474    124.9 1.442e+04 4.484e-08
 10.28453    127.9 1.388e+04 3.814e-08
 10.29914    125.0 1.518e+04 6.067e-08
 10.31872    121.8 1.593e+04 7.238e-08
 10.33830    118.0 1.589e+04 6.982e-08
 10.35788    114.0 1.543e+04 5.569e-08
 10.37746    109.3 1.453e+04 3.715e-08
 10.39705    104.4 1.350e+04 2.680e-08
 10.41663    100.5 1.277e+04 2.418e-08
 10.43621     98.1 1.249e+04 2.326e-08
 10.45579     96.7 1.226e+04 2.150e-08
 10.47537     95.7 1.195e+04 1.844e-08
 10.49495     94.8 1.159e+04 1.493e-08
 10.51453     93.9 1.123e+04 1.209e-08
 10.53021     93.3 1.094e+04 1.024e-08
 10.54000     92.8 1.102e+04 1.102e-08
 10.55369     92.6 1.080e+04 9.574e-09
 10.58316     93.4 1.059e+04 7.982e-09
 10.62242     94.4 1.037e+04 6.921e-09
 10.66159     96.1 1.020e+04 5.888e-09
 10.68977     97.7 1.009e+04 4.989e-09
 10.70936     96.4 1.027e+04 5.880e-09
 10.73991     98.4 9.941e+03 4.159e-09
 10.77907    100.5 9.769e+03 2.871e-09
 10.81823    102.6 9.740e+03 2.214e-09
 10.85740    105.1 9.756e+03 2.142e-09
 10.88780    107.6 9.789e+03 2.176e-09
 10.90738    107.5 9.779e+03 2.674e-09
 10.93572    110.0 9.960e+03 2.815e-09
 10.97488    112.3 1.018e+04 3.138e-09
 11.01405    114.6 1.042e+04 3.564e-09
 11.05321    116.8 1.068e+04 4.037e-09
 11.09237    118.8 1.098e+04 4.659e-09
 11.13153    120.7 1.133e+04 5.567e-09
 11.17069    122.5 1.170e+04 6.849e-09
 11.20986    124.2 1.200e+04 8.169e-09
 11.24902    126.0 1.219e+04 9.160e-09
 11.28818    127.8 1.230e+04 9.701e-09
 11.32734    129.5 1.230e+04 9.563e-09
 11.36650    131.2 1.231e+04 8.964e-09
 11.40567    132.7 1.228e+04 7.535e-09
 11.44483    134.2 1.216e+04 5.615e-09
 11.48399    135.9 1.204e+04 3.711e-09
 11.51946    137.8 1.192e+04 2.272e-09
 11.53904    138.3 1.197e+04 2.328e-09
 11.56232    140.3 1.195e+04 1.341e-09
 11.60148    142.3 1.205e+04 7.853e-10
 11.62217    144.1 1.159e+04 6.336e-10
 11.64175    144.3 1.158e+04 6.333e-10
 11.67980    146.5 1.140e+04 6.293e-10
 11.71896    148.8 1.139e+04 6.278e-10
 11.75813    151.1 1.138e+04 6.300e-10
 11.79729    153.3 1.138e+04 6.430e-10
 11.83645    155.3 1.138e+04 6.853e-10
 11.87561    157.3 1.134e+04 8.231e-10
 11.91478    159.2 1.133e+04 1.148e-09
 11.95394    160.9 1.143e+04 1.812e-09
 11.99310    162.1 1.167e+04 2.686e-09
 12.02237    162.5 1.176e+04 3.067e-09
 12.04186    163.2 1.175e+04 3.558e-09
 12.07133    163.1 1.165e+04 3.647e-09
 12.10070    163.7 1.161e+04 3.774e-09
 12.12018    164.1 1.156e+04 3.706e-09
 12.13976    164.1 1.146e+04 3.385e-09
 12.15934    163.8 1.135e+04 2.945e-09
 12.17892    163.6 1.126e+04 2.567e-09
 12.19851    163.4 1.119e+04 2.286e-09
 12.22798    162.9 1.110e+04 2.055e-09
 12.25735    163.4 1.104e+04 2.066e-09
 12.27683    164.0 1.094e+04 2.048e-09
 12.29641    164.7 1.085e+04 2.056e-09
 12.31599    164.7 1.093e+04 2.088e-09
 12.33557    164.4 1.135e+04 2.362e-09
 12.34655    163.3 1.219e+04 3.580e-09
 12.35634    163.6 1.222e+04 4.006e-09
 12.36853    162.2 1.307e+04 7.512e-09
 12.37832    166.1 1.203e+04 3.468e-09
 12.39432    164.6 1.298e+04 6.634e-09
 12.41390    163.2 1.371e+04 1.373e-08
 12.43348    162.0 1.449e+04 2.465e-08
 12.45306    160.5 1.520e+04 3.574e-08
 12.47264    158.6 1.555e+04 3.512e-08
 12.49222    156.0 1.571e+04 2.856e-08
 12.51180    152.5 1.548e+04 1.685e-08
 12.53138    148.4 1.455e+04 8.257e-09
 12.55097    144.3 1.288e+04 4.926e-09
 12.57055    141.5 1.176e+04 4.256e-09
 12.59013    140.0 1.159e+04 4.260e-09
 12.60971    139.1 1.154e+04 4.331e-09
 12.62929    138.2 1.150e+04 4.408e-09
 12.64887    137.2 1.145e+04 4.426e-09
 12.66845    136.1 1.133e+04 4.409e-09
 12.68803    135.2 1.117e+04 4.277e-09
 12.70394    134.3 1.102e+04 4.069e-09
 12.71373    135.0 1.106e+04 3.805e-09
 12.72720    134.2 1.090e+04 3.550e-09
 12.74678    133.7 1.075e+04 3.340e-09
 12.76636    133.4 1.057e+04 3.154e-09
 12.78337    133.3 1.052e+04 3.013e-09
 12.79316    133.8 1.054e+04 3.026e-09
 12.81541    133.8 1.044e+04 2.923e-09
 12.85467    134.3 1.041e+04 2.950e-09
 12.89383    134.9 1.035e+04 2.964e-09
 12.93299    135.9 1.024e+04 2.850e-09
 12.97215    137.3 9.952e+03 2.480e-09
 13.01132    138.8 9.641e+03 1.994e-09
 13.05048    140.6 9.381e+03 1.604e-09
 13.07132    142.5 9.271e+03 1.430e-09
 13.09090    143.2 9.422e+03 1.520e-09
 13.12880    145.2 9.345e+03 1.448e-09
 13.16797    147.5 9.343e+03 1.455e-09
 13.19841    149.8 9.363e+03 1.483e-09
 13.21799    150.6 9.673e+03 1.871e-09
 13.24629    152.8 9.713e+03 1.910e-09
 13.28545    155.1 9.763e+03 1.969e-09
 13.32461    157.3 9.810e+03 2.030e-09
 13.36378    159.6 9.847e+03 2.080e-09
 13.40294    161.9 9.855e+03 2.111e-09
 13.44210    164.4 9.851e+03 2.133e-09
 13.48126    167.2 9.881e+03 2.171e-09
 13.52042    170.2 1.003e+04 2.275e-09
 13.55959    173.1 1.033e+04 2.496e-09
 13.59875    174.9 1.050e+04 2.785e-09
 13.62294    176.8 1.073e+04 3.505e-09
 13.63263    177.3 1.070e+04 3.253e-09
 13.64751    178.6 1.094e+04 4.066e-09
 13.66709    179.8 1.121e+04 5.208e-09
 13.68667    180.9 1.145e+04 6.593e-09
 13.70625    181.9 1.164e+04 8.135e-09
 13.72583    183.0 1.191e+04 9.834e-09
 13.74541    184.0 1.221e+04 1.180e-08
 13.76499    184.2 1.263e+04 1.474e-08
 13.78457    184.0 1.345e+04 2.186e-08
 13.79570    183.4 1.472e+04 3.989e-08
 13.80550    184.6 1.438e+04 3.219e-08
 13.82374    184.0 1.595e+04 6.727e-08
 13.83511    183.6 1.652e+04 9.168e-08
 13.83996    183.6 1.672e+04 9.767e-08
 13.84811    183.2 1.739e+04 1.340e-07
 13.85791    182.7 1.810e+04 1.866e-07
 13.86770    181.9 1.874e+04 2.428e-07
 13.87749    179.9 1.876e+04 2.372e-07
 13.88728    178.3 1.860e+04 2.252e-07
 13.90201    176.4 1.855e+04 2.002e-07
 13.92164    173.5 1.786e+04 1.056e-07
 13.94122    169.5 1.660e+04 3.898e-08
 13.96080    163.6 1.525e+04 2.165e-08
 13.98038    158.4 1.523e+04 2.479e-08
 13.99997    154.9 1.549e+04 3.368e-08
 14.01955    152.8 1.566e+04 3.982e-08
 14.03769    151.1 1.551e+04 3.783e-08
 14.04748    151.9 1.538e+04 3.454e-08
 14.05871    150.4 1.511e+04 3.149e-08
 14.07829    149.2 1.456e+04 2.571e-08
 14.09787    148.3 1.401e+04 2.030e-08
 14.11745    147.8 1.356e+04 1.649e-08
 14.13703    147.6 1.320e+04 1.380e-08
 14.15310    147.6 1.286e+04 1.146e-08
 14.16289    149.4 1.309e+04 1.196e-08
 14.17620    149.4 1.284e+04 1.029e-08
 14.19578    149.4 1.255e+04 8.486e-09
 14.21536    149.5 1.226e+04 6.904e-09
 14.23494    149.6 1.200e+04 5.704e-09
 14.25452    149.9 1.180e+04 4.933e-09
 14.27410    150.3 1.167e+04 4.562e-09
 14.29368    150.8 1.161e+04 4.487e-09
 14.31326    151.4 1.161e+04 4.530e-09
 14.33284    152.0 1.165e+04 4.641e-09
 14.35243    152.6 1.167e+04 4.816e-09
 14.37201    153.2 1.169e+04 5.020e-09
 14.39159    153.9 1.174e+04 5.223e-09
 14.41117    154.6 1.180e+04 5.390e-09
 14.43075    155.3 1.189e+04 5.471e-09
 14.45033    155.9 1.195e+04 5.463e-09
 14.46232    156.4 1.196e+04 5.440e-09
 14.47211    156.3 1.196e+04 5.617e-09
 14.48949    156.9 1.197e+04 5.490e-09
 14.50907    157.5 1.198e+04 5.332e-09
 14.52028    158.2 1.200e+04 5.216e-09
 14.53007    159.0 1.208e+04 5.055e-09
 14.54824    159.6 1.208e+04 5.036e-09
 14.56782    160.3 1.210e+04 5.011e-09
 14.58740    161.0 1.214e+04 5.022e-09
 14.60698    161.6 1.221e+04 5.060e-09
 14.62656    162.3 1.227e+04 5.092e-09
 14.64614    162.9 1.235e+04 5.087e-09
 14.66572    163.6 1.235e+04 5.061e-09
 14.68530    164.3 1.238e+04 4.977e-09
 14.70489    165.0 1.244e+04 4.902e-09
 14.72447    165.6 1.251e+04 4.857e-09
 14.74405    166.2 1.261e+04 4.902e-09
 14.76363    166.6 1.273e+04 5.113e-09
 14.78321    167.0 1.289e+04 5.511e-09
 14.80279    167.3 1.299e+04 6.491e-09
 14.82237    167.6 1.301e+04 7.935e-09
 14.84195    167.9 1.305e+04 9.856e-09
 14.86153    168.3 1.308e+04 1.209e-08
 14.87716    168.6 1.321e+04 1.420e-08
 14.88351    168.5 1.332e+04 1.601e-08
 14.88747    169.8 1.337e+04 1.543e-08
 14.90070    170.0 1.351e+04 1.784e-08
 14.92028    170.1 1.364e+04 2.001e-08
 14.93986    170.2 1.367e+04 2.153e-08
 14.95944    169.9 1.380e+04 2.275e-08
 14.97902    169.1 1.408e+04 2.491e-08
 14.99860    167.8 1.449e+04 2.910e-08
 15.01818    166.0 1.492e+04 3.530e-08
 15.03776    164.0 1.528e+04 4.272e-08
 15.05734    161.9 1.552e+04 5.024e-08
 15.07693    159.7 1.564e+04 5.644e-08
 15.09651    157.5 1.565e+04 5.892e-08
 15.11609    155.6 1.559e+04 5.840e-08
 15.13567    154.0 1.534e+04 5.330e-08
 15.15525    152.6 1.514e+04 4.632e-08
 15.17483    151.2 1.523e+04 4.596e-08
 15.19441    149.1 1.565e+04 5.112e-08
 15.21399    145.8 1.677e+04 7.530e-08
 15.23357    142.0 1.786e+04 1.224e-07
 15.24486    138.8 1.841e+04 1.554e-07
 15.25465    137.4 1.783e+04 1.238e-07
 15.27274    134.1 1.735e+04 8.654e-08
 15.29200    130.9 1.618e+04 4.205e-08
 15.30179    130.6 1.608e+04 4.270e-08
 15.31190    126.9 1.416e+04 1.981e-08
 15.33148    122.9 1.207e+04 1.100e-08
 15.35106    121.2 1.159e+04 1.024e-08
 15.37064    121.2 1.168e+04 1.036e-08
 15.39022    121.3 1.190e+04 1.107e-08
 15.40980    121.2 1.233e+04 1.340e-08
 15.42939    120.8 1.302e+04 1.895e-08
 15.44897    120.2 1.398e+04 3.046e-08
 15.46855    119.9 1.507e+04 5.131e-08
 15.48813    119.6 1.607e+04 8.222e-08
 15.50771    119.1 1.683e+04 1.138e-07
 15.52729    117.9 1.727e+04 1.270e-07
 15.54687    115.9 1.738e+04 1.244e-07
 15.56645    112.9 1.742e+04 1.143e-07
 15.58603    108.7 1.731e+04 1.011e-07
 15.60225    104.0 1.675e+04 7.747e-08
 15.61204    101.9 1.621e+04 6.282e-08
 15.62520     96.7 1.489e+04 4.110e-08
 15.64478     92.3 1.352e+04 2.774e-08
 15.66436     88.6 1.274e+04 2.056e-08
 15.68394     84.4 1.396e+04 2.271e-08
 15.70352     78.7 1.668e+04 3.566e-08
 15.71659     74.5 1.814e+04 5.791e-08
 15.72638     75.7 1.744e+04 5.549e-08
 15.73774     71.7 1.876e+04 1.167e-07
 15.74748     69.7 1.921e+04 2.463e-07
 15.75727     68.8 1.920e+04 5.831e-07
 15.76706     68.0 1.921e+04 1.190e-06
 15.77685     64.7 1.974e+04 1.422e-06
 15.78575     61.1 1.983e+04 1.103e-06
 15.79064     62.2 1.964e+04 7.885e-07
 15.79643     61.2 1.959e+04 4.673e-07
 15.80622     60.0 1.953e+04 2.371e-07
 15.81601     58.3 1.907e+04 1.371e-07
 15.82580     55.7 1.851e+04 8.265e-08
 15.84054     52.1 1.776e+04 9.185e-08
 15.86017     48.2 1.779e+04 1.216e-07
 15.87975     45.8 1.795e+04 1.638e-07
 15.89933     45.7 1.743e+04 1.390e-07
 15.91891     46.2 1.627e+04 7.992e-08
 15.93849     45.0 1.520e+04 3.914e-08
 15.95807     41.2 1.378e+04 2.140e-08
 15.96944     38.4 1.297e+04 1.861e-08
 15.97923     39.3 1.272e+04 1.776e-08
 15.99724     37.1 1.319e+04 1.985e-08
 16.01682     35.2 1.396e+04 2.931e-08
 16.03640     34.5 1.396e+04 3.641e-08
 16.05598     35.1 1.348e+04 3.215e-08
 16.07556     35.3 1.276e+04 2.143e-08
 16.09514     34.3 1.215e+04 1.257e-08
 16.11472     32.4 1.150e+04 8.362e-09
 16.13148     31.4 1.101e+04 6.991e-09
 16.14127     30.7 1.130e+04 8.362e-09
 16.15389     30.6 1.144e+04 9.150e-09
 16.17347     30.4 1.177e+04 1.076e-08
 16.19305     29.8 1.223e+04 1.381e-08
 16.21263     28.8 1.278e+04 1.839e-08
 16.23221     27.6 1.323e+04 2.361e-08
 16.25179     26.3 1.348e+04 2.743e-08
 16.27137     24.8 1.387e+04 2.961e-08
 16.29095     22.7 1.428e+04 3.089e-08
 16.31053     20.6 1.458e+04 3.358e-08
 16.32683     18.3 1.491e+04 4.105e-08
 16.33662     19.0 1.469e+04 3.994e-08
 16.34970     18.0 1.504e+04 4.522e-08
 16.36928     17.2 1.575e+04 5.103e-08
 16.38886     16.5 1.607e+04 5.564e-08
 16.40844     16.0 1.629e+04 6.246e-08
 16.42802     16.0 1.617e+04 6.009e-08
 16.44760     16.3 1.581e+04 4.895e-08
 16.46718     16.6 1.526e+04 3.271e-08
 16.48676     16.7 1.445e+04 1.959e-08
 16.50635     16.9 1.330e+04 1.209e-08
 16.52593     17.2 1.241e+04 9.009e-09
 16.54551     18.1 1.197e+04 7.529e-09
 16.55611     19.2 1.186e+04 7.041e-09
 16.56590     18.8 1.161e+04 6.440e-09
 16.58467     19.6 1.157e+04 6.357e-09
 16.60425     21.6 1.171e+04 6.643e-09
 16.62383     22.2 1.174e+04 6.783e-09
 16.65330     24.1 1.176e+04 7.238e-09
 16.68442     26.4 1.159e+04 8.967e-09
 16.70400     27.4 1.146e+04 8.572e-09
 16.73172     29.9 1.127e+04 8.030e-09
 16.77089     32.1 1.103e+04 6.415e-09
 16.80016     33.3 1.092e+04 5.895e-09
 16.81964     34.3 1.092e+04 6.101e-09
 16.83922     35.4 1.093e+04 6.606e-09
 16.85881     36.7 1.094e+04 6.986e-09
 16.87839     37.9 1.102e+04 7.566e-09
 16.89797     38.8 1.110e+04 8.410e-09
 16.91755     39.8 1.116e+04 9.423e-09
 16.93713     40.7 1.126e+04 1.066e-08
 16.95671     41.6 1.133e+04 1.161e-08
 16.97095     42.5 1.131e+04 1.200e-08
 16.98074     42.3 1.132e+04 1.208e-08
 16.99587     43.0 1.115e+04 1.147e-08
 17.01545     43.3 1.102e+04 1.049e-08
 17.03503     43.6 1.090e+04 9.757e-09
 17.05141     43.8 1.083e+04 9.405e-09
 17.06120     45.1 1.088e+04 9.487e-09
 17.07420     45.5 1.081e+04 9.314e-09
 17.09378     45.8 1.083e+04 9.440e-09
 17.11336     46.0 1.089e+04 9.650e-09
 17.13294     46.1 1.102e+04 1.010e-08
 17.15252     45.9 1.123e+04 1.078e-08
 17.17210     45.3 1.148e+04 1.149e-08
 17.19168     43.9 1.191e+04 1.303e-08
 17.21126     41.8 1.246e+04 1.698e-08
 17.23085     40.2 1.274e+04 2.237e-08
 17.25043     39.3 1.255e+04 2.120e-08
 17.27001     38.6 1.212e+04 1.629e-08
 17.28959     35.3 1.271e+04 1.157e-08
 17.30917     27.0 1.391e+04 1.397e-08
 17.32875     21.9 1.321e+04 2.450e-08
 17.34833     22.6 1.329e+04 3.906e-08
 17.36791     22.7 1.376e+04 2.801e-08
 17.38579     19.0 1.369e+04 1.629e-08
 17.39558     16.3 1.317e+04 1.685e-08
 17.40708     12.9 1.149e+04 1.088e-08
 17.41859     11.9 1.093e+04 8.132e-09
 17.42838     11.3 1.095e+04 8.324e-09
 17.44624     10.9 1.073e+04 6.409e-09
 17.46582     10.4 1.055e+04 5.186e-09
 17.48540      9.8 1.041e+04 4.651e-09
 17.50498      9.6 1.045e+04 4.695e-09
 17.52456      9.1 1.064e+04 5.712e-09
 17.54414      9.0 1.099e+04 7.418e-09
 17.56372      9.1 1.140e+04 9.796e-09
 17.58331      9.2 1.175e+04 1.209e-08
 17.60289      9.3 1.197e+04 1.297e-08
 17.62247      9.0 1.193e+04 1.224e-08
 17.64205      8.8 1.168e+04 1.105e-08
 17.66163      8.9 1.139e+04 9.591e-09
 17.68121      9.3 1.113e+04 8.023e-09
 17.70079      9.8 1.086e+04 6.615e-09
 17.72037     10.5 1.059e+04 5.448e-09
 17.73995     11.3 1.041e+04 4.655e-09
 17.75954     12.3 1.035e+04 3.925e-09
 17.77599     13.2 1.027e+04 3.218e-09
 17.78578     13.2 1.025e+04 3.302e-09
 17.79870     14.2 1.005e+04 2.906e-09
 17.82817     15.9 1.013e+04 2.571e-09
 17.86743     18.1 1.025e+04 2.241e-09
 17.90659     21.0 9.937e+03 2.807e-09
 17.94575     24.0 1.008e+04 2.619e-09
 17.98491     26.9 1.016e+04 2.206e-09
 18.02408     29.3 1.011e+04 2.122e-09
 18.06324     32.2 1.025e+04 2.055e-09
 18.10240     34.1 1.053e+04 2.532e-09
 18.13167     35.3 1.061e+04 3.228e-09
 18.14317     36.4 1.082e+04 4.105e-09
 18.15296     36.7 1.084e+04 4.204e-09
 18.17074     37.7 1.112e+04 5.302e-09
 18.19032     38.5 1.137e+04 6.483e-09
 18.20990     39.2 1.160e+04 7.628e-09
 18.22527     39.9 1.178e+04 8.572e-09
 18.23506     39.9 1.146e+04 5.534e-09
 18.24906     40.6 1.156e+04 5.622e-09
 18.26864     41.1 1.159e+04 5.631e-09
 18.28822     41.7 1.155e+04 5.511e-09
 18.30781     42.3 1.148e+04 5.328e-09
 18.32739     42.9 1.143e+04 5.148e-09
 18.34697     43.7 1.142e+04 4.977e-09
 18.36655     44.4 1.145e+04 4.893e-09
 18.38613     45.2 1.154e+04 5.018e-09
 18.40571     46.0 1.168e+04 5.287e-09
 18.42529     46.8 1.176e+04 5.631e-09
 18.44487     47.6 1.181e+04 6.052e-09
 18.46445     48.4 1.185e+04 6.491e-09
 18.48404     49.3 1.190e+04 6.721e-09
 18.50057     50.1 1.193e+04 6.628e-09
 18.51036     50.4 1.202e+04 7.329e-09
 18.52320     51.2 1.204e+04 7.098e-09
 18.54278     51.9 1.205e+04 6.525e-09
 18.56236     52.6 1.201e+04 5.741e-09
 18.58194     53.3 1.187e+04 4.993e-09
 18.60152     53.9 1.169e+04 4.472e-09
 18.62110     54.4 1.146e+04 4.112e-09
 18.64011     54.9 1.132e+04 3.785e-09
 18.64990     55.3 1.143e+04 4.264e-09
 18.66027     55.7 1.136e+04 4.098e-09
 18.67985     56.2 1.134e+04 3.994e-09
 18.69943     56.9 1.129e+04 3.869e-09
 18.71901     57.6 1.125e+04 3.568e-09
 18.73859     58.2 1.126e+04 3.261e-09
 18.75817     59.0 1.125e+04 2.847e-09
 18.77775     59.4 1.128e+04 2.602e-09
 18.80722     60.3 1.137e+04 2.375e-09
 18.84648     61.8 1.157e+04 2.463e-09
 18.86785     62.8 1.162e+04 2.637e-09
 18.88743     64.2 1.139e+04 2.547e-09
 18.91492     64.2 1.182e+04 4.171e-09
 18.93440     64.5 1.213e+04 6.321e-09
 18.95398     64.7 1.251e+04 9.234e-09
 18.97356     64.9 1.290e+04 1.262e-08
 18.99314     64.9 1.323e+04 1.604e-08
 19.01272     64.7 1.334e+04 1.820e-08
 19.03231     64.5 1.330e+04 1.787e-08
 19.05189     64.6 1.290e+04 1.628e-08
 19.06474     64.9 1.235e+04 1.243e-08
 19.07453     65.4 1.256e+04 1.449e-08
 19.09105     65.6 1.209e+04 1.039e-08
 19.11063     65.4 1.180e+04 7.466e-09
 19.13021     64.9 1.154e+04 6.102e-09
 19.14979     64.6 1.140e+04 5.970e-09
 19.16937     64.5 1.141e+04 6.225e-09
 19.18895     64.0 1.149e+04 6.872e-09
 19.20854     63.1 1.167e+04 8.347e-09
 19.22514     62.2 1.191e+04 1.166e-08
 19.23493     62.2 1.215e+04 1.384e-08
 19.24770     61.7 1.226e+04 1.760e-08
 19.26728     61.4 1.217e+04 1.723e-08
 19.28686     61.1 1.186e+04 1.457e-08
 19.30644     60.3 1.146e+04 1.038e-08
 19.32602     58.7 1.108e+04 6.973e-09
 19.34560     56.7 1.055e+04 4.990e-09
 19.36518     55.0 1.034e+04 5.043e-09
 19.38477     53.9 1.029e+04 5.268e-09
 19.40435     53.2 1.024e+04 5.821e-09
 19.42393     52.8 1.022e+04 6.344e-09
 19.44351     52.5 1.021e+04 6.636e-09
 19.46309     52.2 1.017e+04 6.653e-09
 19.47958     52.0 1.007e+04 6.474e-09
 19.48937     52.7 1.003e+04 6.465e-09
 19.50225     52.7 9.890e+03 6.073e-09
 19.52183     52.7 9.743e+03 5.519e-09
 19.54141     52.6 9.617e+03 5.115e-09
 19.56100     52.5 9.636e+03 5.137e-09
 19.58058     52.2 9.749e+03 5.449e-09
 19.59233     51.8 9.995e+03 6.448e-09
 19.60212     52.1 1.028e+04 7.598e-09
 19.61974     51.5 1.077e+04 1.005e-08
 19.63932     51.0 1.134e+04 1.378e-08
 19.65890     51.2 1.179e+04 1.740e-08
 19.67848     51.2 1.191e+04 1.818e-08
 19.69806     51.1 1.179e+04 1.716e-08
 19.71764     50.5 1.160e+04 1.503e-08
 19.73723     49.1 1.139e+04 1.316e-08
 19.75681     47.6 1.115e+04 1.232e-08
 19.77639     46.7 1.094e+04 1.205e-08
 19.79597     45.9 1.091e+04 1.202e-08
 19.81555     44.6 1.114e+04 1.265e-08
 19.83513     42.1 1.168e+04 1.474e-08
 19.85471     39.1 1.238e+04 1.913e-08
 19.87429     37.1 1.257e+04 2.266e-08
 19.89387     35.9 1.228e+04 2.123e-08
 19.90421     34.6 1.181e+04 1.697e-08
 19.91401     36.3 1.270e+04 2.319e-08
 19.93304     33.0 1.250e+04 1.710e-08
 19.94972     28.4 1.168e+04 1.290e-08
 19.95951     26.5 1.169e+04 1.288e-08
 19.97220     21.3 1.157e+04 1.140e-08
 19.99178     16.6 1.157e+04 1.305e-08
 20.01136     12.1 1.232e+04 1.581e-08
 20.03094      6.7 1.371e+04 1.957e-08
 20.05052     -0.2 1.384e+04 2.192e-08
 20.07010     -4.9 1.336e+04 2.555e-08
 20.08968     -7.3 1.375e+04 2.742e-08
 20.10927    -10.3 1.366e+04 2.472e-08
 20.12885    -13.7 1.335e+04 2.278e-08
 20.14843    -16.4 1.323e+04 2.273e-08
 20.16801    -18.1 1.330e+04 2.478e-08
 20.18759    -18.9 1.333e+04 2.616e-08
 20.20717    -19.4 1.312e+04 2.436e-08
 20.22675    -19.8 1.258e+04 1.937e-08
 20.24633    -20.5 1.181e+04 1.380e-08
 20.26591    -21.5 1.117e+04 1.016e-08
 20.28550    -22.3 1.101e+04 8.810e-09
 20.30508    -22.7 1.102e+04 8.359e-09
 20.31691    -22.8 1.124e+04 8.434e-09
 20.33658    -21.0 1.058e+04 5.803e-09
 20.36392    -22.8 1.120e+04 8.158e-09
 20.38340    -23.2 1.154e+04 1.026e-08
 20.40298    -23.6 1.193e+04 1.264e-08
 20.42256    -23.7 1.221e+04 1.567e-08
 20.44214    -23.9 1.246e+04 1.884e-08
 20.46173    -24.0 1.262e+04 2.060e-08
 20.48131    -23.9 1.266e+04 2.126e-08
 20.50089    -23.9 1.258e+04 2.091e-08
 20.52047    -23.7 1.242e+04 1.924e-08
 20.54005    -23.5 1.219e+04 1.610e-08
 20.55963    -23.5 1.186e+04 1.292e-08
 20.57921    -23.7 1.151e+04 1.069e-08
 20.59879    -23.6 1.129e+04 9.098e-09
 20.61837    -23.2 1.117e+04 7.806e-09
 20.63796    -22.8 1.111e+04 6.807e-09
 20.65754    -22.2 1.113e+04 6.241e-09
 20.67430    -21.9 1.115e+04 6.155e-09
 20.68409    -21.9 1.146e+04 6.881e-09
 20.69670    -22.6 1.216e+04 8.231e-09
 20.71628    -24.0 1.310e+04 1.352e-08
 20.73390    -25.0 1.423e+04 2.761e-08
 20.74369    -24.4 1.374e+04 2.193e-08
 20.75544    -25.0 1.508e+04 4.592e-08
 20.77502    -25.2 1.641e+04 8.400e-08
 20.79460    -26.1 1.732e+04 1.238e-07
 20.80924    -27.3 1.781e+04 1.579e-07
 20.81898    -27.8 1.788e+04 1.647e-07
 20.82877    -29.0 1.785e+04 1.699e-07
 20.83856    -29.4 1.783e+04 1.689e-07
 20.85330    -30.4 1.757e+04 1.566e-07
 20.87293    -31.2 1.735e+04 1.268e-07
 20.89251    -32.2 1.695e+04 9.870e-08
 20.91209    -32.9 1.647e+04 7.349e-08
 20.93167    -33.3 1.598e+04 5.140e-08
 20.95125    -33.6 1.545e+04 3.473e-08
 20.97083    -33.8 1.489e+04 2.351e-08
 20.99041    -34.1 1.433e+04 1.622e-08
 21.01000    -34.9 1.382e+04 1.249e-08
 21.02958    -36.0 1.351e+04 1.176e-08
 21.04148    -37.4 1.357e+04 1.351e-08
 21.05127    -38.1 1.261e+04 1.139e-08
 21.06874    -39.2 1.328e+04 1.555e-08
 21.08832    -40.2 1.393e+04 2.062e-08
 21.10790    -41.6 1.414e+04 2.345e-08
 21.12748    -43.3 1.380e+04 2.363e-08
 21.14706    -44.7 1.339e+04 2.250e-08
 21.15853    -45.2 1.326e+04 2.201e-08
 21.16832    -45.4 1.389e+04 2.639e-08
 21.18623    -45.5 1.369e+04 2.479e-08
 21.20581    -45.3 1.365e+04 2.341e-08
 21.22539    -44.7 1.351e+04 2.213e-08
 21.24497    -44.0 1.345e+04 2.137e-08
 21.26455    -43.2 1.344e+04 2.122e-08
 21.28413    -42.4 1.353e+04 2.217e-08
 21.30371    -41.8 1.379e+04 2.544e-08
 21.32329    -41.3 1.421e+04 3.073e-08
 21.34287    -40.8 1.481e+04 3.893e-08
 21.36246    -40.7 1.548e+04 5.036e-08
 21.38204    -41.0 1.628e+04 6.579e-08
 21.39888    -42.3 1.717e+04 8.835e-08
 21.40867    -41.0 1.737e+04 9.019e-08
 21.42120    -43.0 1.825e+04 1.211e-07
 21.44078    -45.4 1.898e+04 1.628e-07
 21.45542    -47.4 1.886e+04 2.048e-07
 21.46516    -48.5 1.902e+04 2.464e-07
 21.47495    -50.2 1.918e+04 3.042e-07
 21.48474    -52.2 1.923e+04 3.323e-07
 21.49453    -54.1 1.906e+04 3.333e-07
 21.50432    -55.4 1.863e+04 2.827e-07
 21.51411    -56.6 1.821e+04 2.151e-07
 21.52390    -57.9 1.766e+04 1.547e-07
 21.53369    -59.1 1.698e+04 1.127e-07
 21.54348    -60.1 1.630e+04 8.416e-08
 21.55327    -61.0 1.569e+04 6.603e-08
 21.56306    -61.2 1.560e+04 6.280e-08
 21.57332    -62.3 1.480e+04 4.474e-08
 21.58316    -61.8 1.358e+04 2.735e-08
 21.59743    -62.4 1.231e+04 1.770e-08
 21.61701    -62.5 1.128e+04 1.298e-08
 21.63659    -62.3 1.077e+04 1.083e-08
 21.65617    -61.6 1.039e+04 9.410e-09
 21.67575    -60.9 1.011e+04 8.437e-09
 21.69533    -60.3 9.922e+03 7.795e-09
 21.71491    -59.6 9.806e+03 7.494e-09
 21.73450    -59.1 9.767e+03 7.491e-09
 21.75408    -58.7 9.790e+03 7.915e-09
 21.76606    -58.5 1.000e+04 9.072e-09
 21.77585    -58.3 1.002e+04 9.464e-09
 21.79324    -58.5 1.055e+04 1.189e-08
 21.81282    -59.1 1.157e+04 1.696e-08
 21.83240    -59.7 1.286e+04 2.636e-08
 21.85198    -61.1 1.461e+04 4.158e-08
 21.87156    -64.7 1.710e+04 6.603e-08
 21.89114    -71.0 1.967e+04 1.052e-07
 21.91073    -80.2 2.085e+04 1.527e-07
 21.93031    -90.1 2.041e+04 1.642e-07
 21.94989    -99.2 1.853e+04 1.037e-07
 21.96947   -109.2 1.541e+04 3.542e-08
 21.98821   -117.7 1.165e+04 1.002e-08
 21.99801   -113.3 1.401e+04 1.849e-08
 22.00863   -120.6 1.062e+04 7.041e-09
 22.02821   -123.1 9.204e+03 4.860e-09
 22.04779   -123.5 8.953e+03 4.401e-09
 22.06737   -123.7 8.873e+03 4.127e-09
 22.08696   -123.9 8.812e+03 3.894e-09
 22.10654   -124.1 8.799e+03 3.812e-09
 22.12346   -124.5 8.804e+03 3.805e-09
 22.13325   -124.8 8.865e+03 4.063e-09
 22.14570   -125.6 9.047e+03 4.256e-09
 22.16528   -126.8 9.433e+03 5.056e-09
 22.18486   -128.2 9.842e+03 6.274e-09
 22.20444   -129.7 1.017e+04 7.579e-09
 22.22402   -131.4 1.033e+04 8.369e-09
 22.24360   -133.0 1.036e+04 8.525e-09
 22.26319   -134.4 1.022e+04 8.021e-09
 22.28277   -135.6 9.938e+03 6.472e-09
 22.30235   -137.0 9.615e+03 4.996e-09
 22.32193   -138.3 9.343e+03 4.018e-09
 22.34151   -139.5 9.200e+03 3.486e-09
 22.36109   -140.4 9.202e+03 3.145e-09
 22.38067   -141.0 9.375e+03 2.862e-09
 22.40025   -141.4 9.534e+03 2.706e-09
 22.41285   -141.7 9.630e+03 2.665e-09
 22.42274   -140.7 9.453e+03 2.628e-09
 22.44940   -140.7 9.405e+03 2.503e-09
 22.48104   -140.8 9.548e+03 2.457e-09
 22.50063   -142.6 9.731e+03 2.395e-09
 22.52773   -142.7 1.041e+04 3.069e-09
 22.55700   -142.0 1.075e+04 4.231e-09
 22.57648   -142.6 1.094e+04 4.916e-09
 22.59606   -143.3 1.118e+04 6.490e-09
 22.61565   -143.9 1.131e+04 7.444e-09
 22.63523   -144.2 1.134e+04 7.815e-09
 22.65481   -144.3 1.135e+04 7.827e-09
 22.67439   -144.4 1.139e+04 7.578e-09
 22.69397   -144.4 1.142e+04 7.103e-09
 22.71355   -144.2 1.143e+04 6.617e-09
 22.73313   -144.1 1.144e+04 6.211e-09
 22.75271   -144.0 1.144e+04 5.890e-09
 22.77229   -143.8 1.141e+04 5.655e-09
 22.79187   -143.7 1.136e+04 5.576e-09
 22.81146   -143.6 1.135e+04 5.566e-09
 22.82769   -143.5 1.134e+04 5.553e-09
 22.83748   -143.5 1.126e+04 5.235e-09
 22.84803   -143.3 1.123e+04 5.064e-09
 22.85782   -144.0 1.119e+04 4.947e-09
 22.87020   -144.1 1.117e+04 4.630e-09
 22.88978   -144.2 1.110e+04 4.238e-09
 22.90936   -144.2 1.101e+04 3.843e-09
 22.92894   -144.1 1.083e+04 3.341e-09
 22.95841   -143.6 1.071e+04 2.897e-09
 22.99767   -142.8 1.047e+04 2.243e-09
 23.03683   -141.6 1.032e+04 1.882e-09
 23.07600   -140.1 1.030e+04 1.809e-09
 23.11516   -138.6 1.050e+04 1.837e-09
 23.15432   -137.0 1.098e+04 2.172e-09
 23.18359   -136.3 1.122e+04 2.722e-09
 23.20308   -136.8 1.131e+04 3.354e-09
 23.21522   -137.0 1.146e+04 4.487e-09
 23.22501   -137.8 1.155e+04 5.558e-09
 23.24224   -137.8 1.184e+04 6.943e-09
 23.25232   -137.9 1.215e+04 8.317e-09
 23.26211   -138.3 1.223e+04 8.550e-09
 23.28140   -138.9 1.247e+04 9.594e-09
 23.30098   -139.6 1.265e+04 1.032e-08
 23.32056   -140.3 1.280e+04 1.079e-08
 23.34015   -141.0 1.294e+04 1.114e-08
 23.35973   -141.6 1.309e+04 1.144e-08
 23.37931   -142.3 1.324e+04 1.182e-08
 23.39889   -142.9 1.337e+04 1.235e-08
 23.41847   -143.6 1.347e+04 1.294e-08
 23.43805   -144.3 1.355e+04 1.350e-08
 23.45763   -145.1 1.362e+04 1.387e-08
 23.47721   -145.8 1.368e+04 1.395e-08
 23.49679   -146.6 1.370e+04 1.387e-08
 23.51638   -147.2 1.373e+04 1.357e-08
 23.53596   -147.7 1.375e+04 1.337e-08
 23.55554   -148.1 1.382e+04 1.334e-08
 23.57261   -148.5 1.398e+04 1.383e-08
 23.58240   -149.1 1.415e+04 1.600e-08
 23.59470   -149.6 1.436e+04 1.800e-08
 23.61428   -150.2 1.462e+04 2.034e-08
 23.63386   -150.9 1.486e+04 2.245e-08
 23.65344   -151.9 1.508e+04 2.348e-08
 23.66716   -153.1 1.522e+04 2.360e-08
 23.67695   -154.2 1.503e+04 1.783e-08
 23.69260   -155.2 1.518e+04 1.734e-08
 23.71219   -156.1 1.519e+04 1.641e-08
 23.73177   -156.9 1.512e+04 1.508e-08
 23.75135   -157.4 1.491e+04 1.364e-08
 23.77093   -157.7 1.464e+04 1.223e-08
 23.79051   -157.8 1.442e+04 1.120e-08
 23.81009   -157.7 1.429e+04 1.064e-08
 23.82967   -157.5 1.419e+04 1.015e-08
 23.84925   -157.3 1.418e+04 1.002e-08
 23.86883   -157.1 1.423e+04 1.007e-08
 23.88842   -157.1 1.430e+04 1.029e-08
 23.90800   -157.4 1.433e+04 1.052e-08
 23.92758   -157.7 1.433e+04 1.061e-08
 23.93980   -158.0 1.420e+04 1.011e-08
 23.94959   -157.9 1.401e+04 8.533e-09
 23.96674   -158.0 1.394e+04 8.066e-09
 23.98632   -157.8 1.390e+04 7.633e-09
 24.00590   -157.6 1.391e+04 7.423e-09
 24.02548   -157.5 1.391e+04 7.385e-09
 24.04506   -157.6 1.408e+04 7.674e-09
 24.06465   -158.5 1.448e+04 1.071e-08
 24.08200   -160.0 1.517e+04 2.101e-08
 24.09180   -159.2 1.533e+04 2.652e-08
 24.10381   -160.5 1.617e+04 4.964e-08
 24.12339   -162.7 1.706e+04 8.226e-08
 24.14297   -166.2 1.775e+04 1.136e-07
 24.16255   -170.8 1.809e+04 1.273e-07
 24.18213   -176.1 1.818e+04 1.294e-07
 24.20171   -181.7 1.790e+04 1.214e-07
 24.22129   -187.4 1.729e+04 9.953e-08
 24.24088   -192.8 1.642e+04 7.344e-08
 24.26046   -197.4 1.546e+04 5.209e-08
 24.28004   -201.0 1.465e+04 3.717e-08
 24.29719   -203.9 1.390e+04 2.703e-08
 24.30698   -204.2 1.363e+04 2.430e-08
 24.31920   -206.4 1.308e+04 1.923e-08
 24.33878   -208.1 1.261e+04 1.482e-08
 24.35836   -209.5 1.226e+04 1.154e-08
 24.37794   -210.6 1.192e+04 9.259e-09
 24.39752   -211.3 1.162e+04 7.885e-09
 24.41711   -211.4 1.140e+04 7.085e-09
 24.43669   -211.4 1.118e+04 6.414e-09
 24.45627   -211.3 1.089e+04 5.514e-09
 24.47585   -210.3 1.054e+04 4.394e-09
 24.49543   -209.0 1.030e+04 3.557e-09
 24.52490   -208.2 1.022e+04 3.123e-09
 24.56416   -207.8 1.010e+04 2.719e-09
 24.60332   -206.7 9.896e+03 2.337e-09
 24.64248   -205.4 9.658e+03 2.122e-09
 24.66457   -204.2 9.432e+03 2.068e-09
 24.68415   -204.2 9.424e+03 2.118e-09
 24.72081   -203.1 9.293e+03 2.092e-09
 24.75997   -202.1 9.239e+03 2.087e-09
 24.79913   -201.0 9.177e+03 2.093e-09
 24.83829   -199.9 9.108e+03 2.069e-09
 24.87746   -198.8 9.021e+03 1.963e-09
 24.91188   -197.7 8.944e+03 1.732e-09
 24.93147   -197.7 8.968e+03 1.918e-09
 24.95578   -196.5 8.856e+03 1.617e-09
 24.99494   -195.2 8.754e+03 1.327e-09
 25.03410   -193.9 8.681e+03 1.113e-09
 25.07327   -192.5 8.663e+03 9.890e-10
 25.11243   -191.0 8.690e+03 9.445e-10
 25.15159   -189.6 8.706e+03 9.372e-10
 25.19075   -188.2 8.757e+03 9.519e-10
 25.22992   -186.7 8.804e+03 9.813e-10
 25.26908   -185.3 8.796e+03 1.006e-09
 25.30824   -183.7 8.777e+03 1.012e-09
 25.34740   -182.1 8.665e+03 9.658e-10
 25.37936   -180.3 8.551e+03 8.711e-10
 25.39894   -180.9 8.576e+03 9.338e-10
 25.42573   -179.2 8.482e+03 8.153e-10
 25.46489   -177.4 8.418e+03 7.126e-10
 25.50405   -175.6 8.377e+03 6.382e-10
 25.54321   -173.7 8.351e+03 5.945e-10
 25.58238   -171.9 8.347e+03 5.794e-10
 25.62154   -170.3 8.294e+03 6.156e-10
 25.66070   -168.7 8.340e+03 7.523e-10
 25.69986   -167.3 8.571e+03 1.045e-09
 25.73902   -166.0 8.976e+03 1.576e-09
 25.76115   -165.0 9.485e+03 2.394e-09
 25.78073   -165.2 9.418e+03 2.320e-09
 25.81735   -164.8 9.923e+03 3.356e-09
 25.85651   -164.8 1.024e+04 4.208e-09
 25.89567   -165.1 1.033e+04 4.472e-09
 25.93483   -165.6 1.028e+04 4.330e-09
 25.97400   -165.9 1.001e+04 3.351e-09
 26.01316   -166.0 9.746e+03 2.530e-09
 26.05232   -165.6 9.574e+03 2.222e-09
 26.09148   -164.8 9.540e+03 2.206e-09
 26.11372   -164.0 9.683e+03 2.523e-09
 26.13331   -164.1 1.007e+04 3.459e-09
 26.16981   -163.4 1.042e+04 4.419e-09
 26.20897   -162.9 1.066e+04 4.963e-09
 26.24813   -162.4 1.070e+04 4.989e-09
 26.27741   -161.6 1.050e+04 4.017e-09
 26.29689   -161.4 1.050e+04 3.860e-09
 26.31647   -160.7 1.048e+04 3.535e-09
 26.33605   -160.4 1.046e+04 3.374e-09
 26.35563   -159.4 1.044e+04 3.015e-09
 26.37521   -158.9 1.046e+04 2.934e-09
 26.39480   -158.0 1.048e+04 2.896e-09
 26.41438   -157.6 1.049e+04 2.900e-09
 26.43396   -157.1 1.069e+04 2.932e-09
 26.45354   -156.7 1.088e+04 3.281e-09
 26.47092   -156.5 1.102e+04 3.844e-09
 26.48071   -157.2 1.117e+04 4.881e-09
 26.49270   -157.1 1.134e+04 5.713e-09
 26.51228   -157.0 1.153e+04 6.667e-09
 26.53186   -157.2 1.176e+04 7.719e-09
 26.55144   -157.5 1.196e+04 8.793e-09
 26.57102   -157.8 1.218e+04 9.863e-09
 26.59061   -158.0 1.246e+04 1.118e-08
 26.61028   -158.1 1.250e+04 1.032e-08
 26.63975   -159.5 1.304e+04 1.198e-08
 26.67892   -161.5 1.323e+04 1.235e-08
 26.71808   -163.1 1.325e+04 1.131e-08
 26.75724   -163.6 1.315e+04 9.777e-09
 26.79640   -163.7 1.304e+04 8.471e-09
 26.82851   -163.2 1.310e+04 7.599e-09
 26.84800   -163.5 1.322e+04 7.545e-09
 26.86474   -163.6 1.327e+04 7.009e-09
 26.88432   -163.4 1.331e+04 6.786e-09
 26.90390   -163.1 1.337e+04 6.615e-09
 26.92348   -162.8 1.345e+04 6.484e-09
 26.94307   -162.6 1.354e+04 6.375e-09
 26.96265   -162.6 1.363e+04 6.328e-09
 26.98223   -163.6 1.403e+04 6.561e-09
 27.00181   -165.1 1.428e+04 8.597e-09
 27.01527   -166.9 1.450e+04 1.259e-08
 27.02506   -167.3 1.465e+04 1.556e-08
 27.04097   -169.0 1.488e+04 2.046e-08
 27.06055   -170.8 1.499e+04 2.347e-08
 27.08013   -172.7 1.498e+04 2.419e-08
 27.09971   -174.4 1.476e+04 2.169e-08
 27.11930   -175.8 1.439e+04 1.574e-08
 27.13888   -177.1 1.407e+04 9.996e-09
 27.15846   -178.2 1.387e+04 6.185e-09
 27.17804   -178.9 1.374e+04 4.136e-09
 27.19550   -179.1 1.362e+04 3.176e-09
 27.20529   -179.2 1.339e+04 3.001e-09
 27.21720   -178.8 1.322e+04 2.778e-09
 27.23678   -178.1 1.323e+04 2.576e-09
 27.26625   -177.4 1.321e+04 2.303e-09
 27.30551   -175.1 1.315e+04 1.902e-09
 27.34467   -172.9 1.317e+04 1.662e-09
 27.38384   -171.1 1.328e+04 1.499e-09
 27.42052   -169.4 1.337e+04 1.412e-09
 27.44010   -169.8 1.343e+04 1.653e-09
 27.46216   -168.0 1.345e+04 1.648e-09
 27.50132   -166.3 1.365e+04 1.703e-09
 27.54048   -164.8 1.385e+04 1.954e-09
 27.56288   -163.5 1.404e+04 2.201e-09
 27.57257   -163.9 1.404e+04 2.520e-09
 27.58924   -164.0 1.410e+04 2.539e-09
 27.60882   -164.1 1.422e+04 2.621e-09
 27.62840   -164.8 1.433e+04 2.913e-09
 27.64798   -166.1 1.443e+04 3.521e-09
 27.66757   -168.0 1.456e+04 5.196e-09
 27.68715   -170.4 1.477e+04 9.667e-09
 27.70673   -172.9 1.517e+04 1.916e-08
 27.72631   -175.5 1.560e+04 3.419e-08
 27.74589   -178.2 1.589e+04 5.068e-08
 27.76547   -180.6 1.595e+04 6.146e-08
 27.78505   -182.5 1.593e+04 6.437e-08
 27.80463   -183.7 1.550e+04 5.573e-08
 27.82421   -184.5 1.500e+04 4.051e-08
 27.84380   -184.8 1.453e+04 3.015e-08
 27.85474   -184.9 1.408e+04 2.231e-08
 27.86453   -186.3 1.372e+04 1.656e-08
 27.88296   -185.9 1.325e+04 1.211e-08
 27.90254   -185.3 1.290e+04 9.406e-09
 27.92008   -184.6 1.262e+04 7.682e-09
 27.92987   -184.5 1.276e+04 1.007e-08
 27.94170   -183.7 1.253e+04 8.695e-09
 27.96128   -182.7 1.232e+04 7.282e-09
 27.98086   -181.5 1.213e+04 5.769e-09
 28.00044   -180.3 1.201e+04 4.370e-09
 28.02003   -179.3 1.194e+04 3.489e-09
 28.04949   -178.4 1.188e+04 3.008e-09
 28.08875   -176.7 1.160e+04 2.300e-09
 28.12792   -174.2 1.124e+04 1.709e-09
 28.16708   -171.5 1.101e+04 1.336e-09
 28.20624   -169.0 1.094e+04 1.193e-09
 28.24540   -166.5 1.089e+04 1.152e-09
 28.26978   -164.2 1.088e+04 1.143e-09
 28.28246   -164.5 1.094e+04 1.228e-09
 28.29725   -164.4 1.094e+04 1.551e-09
 28.32373   -162.2 1.094e+04 1.931e-09
 28.36289   -160.1 1.097e+04 2.455e-09
 28.40205   -158.0 1.101e+04 2.911e-09
 28.44121   -156.2 1.103e+04 3.065e-09
 28.48038   -154.5 1.096e+04 3.054e-09
 28.51954   -152.9 1.082e+04 2.880e-09
 28.55870   -151.1 1.066e+04 2.601e-09
 28.59786   -149.0 1.050e+04 2.360e-09
 28.63703   -146.8 1.038e+04 2.239e-09
 28.66630   -144.9 1.029e+04 2.221e-09
 28.68443   -144.5 1.027e+04 2.209e-09
 28.69422   -145.1 1.037e+04 2.269e-09
 28.70536   -144.8 1.044e+04 2.414e-09
 28.72494   -144.9 1.055e+04 2.875e-09
 28.74453   -144.9 1.070e+04 3.904e-09
 28.76411   -144.7 1.092e+04 5.678e-09
 28.78369   -144.2 1.119e+04 8.334e-09
 28.80327   -143.5 1.150e+04 1.167e-08
 28.82285   -142.7 1.177e+04 1.489e-08
 28.84243   -142.0 1.194e+04 1.671e-08
 28.86201   -141.5 1.200e+04 1.712e-08
 28.88159   -141.4 1.180e+04 1.479e-08
 28.90117   -141.6 1.134e+04 1.124e-08
 28.92076   -141.9 1.072e+04 8.558e-09
 28.94034   -142.2 1.029e+04 7.378e-09
 28.95992   -141.7 1.009e+04 7.000e-09
 28.98939   -141.1 1.010e+04 7.032e-09
 29.01194   -140.4 9.670e+03 6.331e-09
 29.02163   -140.4 9.502e+03 6.150e-09
 29.03824   -140.0 9.461e+03 6.156e-09
 29.05782   -139.6 9.465e+03 6.226e-09
 29.07740   -139.3 9.476e+03 6.325e-09
 29.09699   -139.2 9.491e+03 6.498e-09
 29.10906   -139.2 9.530e+03 6.820e-09
 29.11885   -139.5 9.849e+03 7.894e-09
 29.13615   -139.9 1.007e+04 8.936e-09
 29.15573   -140.5 1.035e+04 1.041e-08
 29.17531   -141.2 1.062e+04 1.213e-08
 29.19489   -142.0 1.087e+04 1.380e-08
 29.21447   -142.9 1.113e+04 1.510e-08
 29.23405   -144.1 1.141e+04 1.603e-08
 29.25363   -145.6 1.162e+04 1.682e-08
 29.27322   -147.1 1.174e+04 1.748e-08
 29.29280   -148.3 1.176e+04 1.776e-08
 29.31238   -149.1 1.157e+04 1.779e-08
 29.33196   -149.4 1.132e+04 1.573e-08
 29.35154   -149.6 1.100e+04 1.295e-08
 29.36923   -149.5 1.065e+04 1.001e-08
 29.37902   -150.2 1.070e+04 1.004e-08
 29.39070   -149.8 1.030e+04 7.385e-09
 29.41028   -149.2 1.001e+04 5.661e-09
 29.42986   -148.4 9.851e+03 4.733e-09
 29.44944   -147.6 9.771e+03 4.309e-09
 29.46903   -146.5 9.723e+03 4.137e-09
 29.48861   -145.2 9.704e+03 4.058e-09
 29.50819   -143.9 9.709e+03 4.027e-09
 29.52390   -142.5 9.733e+03 4.025e-09
 29.53369   -142.5 9.875e+03 4.505e-09
 29.54735   -141.0 9.876e+03 4.483e-09
 29.56693   -139.9 9.892e+03 4.505e-09
 29.58651   -139.5 1.006e+04 4.596e-09
 29.60609   -139.9 1.057e+04 5.200e-09
 29.62567   -141.6 1.246e+04 1.075e-08
 29.64526   -142.8 1.457e+04 3.059e-08
 29.66484   -143.2 1.607e+04 7.075e-08
 29.68442   -143.8 1.700e+04 1.141e-07
 29.69905   -143.8 1.676e+04 1.042e-07
 29.70880   -144.7 1.701e+04 1.112e-07
 29.71859   -145.7 1.718e+04 1.157e-07
 29.72838   -146.8 1.727e+04 1.172e-07
 29.73612   -148.3 1.729e+04 1.162e-07
 29.73917   -150.0 1.841e+04 1.955e-07
 29.74122   -149.9 1.868e+04 2.370e-07
 29.74796   -151.1 1.858e+04 2.280e-07
 29.75775   -152.1 1.843e+04 2.143e-07
 29.76754   -153.0 1.823e+04 2.003e-07
 29.77733   -153.6 1.797e+04 1.840e-07
 29.78712   -153.8 1.766e+04 1.619e-07
 29.79691   -153.9 1.729e+04 1.374e-07
 29.80670   -153.8 1.693e+04 1.158e-07
 29.81649   -153.9 1.656e+04 9.881e-08
 29.82628   -153.9 1.615e+04 8.405e-08
 29.83607   -153.8 1.569e+04 7.125e-08
 29.84586   -153.4 1.527e+04 6.071e-08
 29.85565   -152.8 1.498e+04 5.360e-08
 29.86545   -152.3 1.478e+04 4.915e-08
 29.88018   -151.6 1.469e+04 4.630e-08
 29.89981   -150.5 1.421e+04 3.292e-08
 29.91939   -149.6 1.393e+04 2.367e-08
 29.93874   -148.9 1.353e+04 1.621e-08
 29.94853   -150.2 1.251e+04 7.653e-09
 29.95855   -149.8 1.198e+04 7.135e-09
 29.97813   -149.3 1.180e+04 7.111e-09
 29.99772   -148.7 1.176e+04 7.537e-09
 30.01730   -148.2 1.174e+04 7.869e-09
 30.03688   -147.7 1.165e+04 8.378e-09
 30.05646   -147.3 1.159e+04 8.958e-09
 30.07604   -146.9 1.156e+04 9.528e-09
 30.09381   -146.5 1.152e+04 9.988e-09
 30.10360   -146.4 1.178e+04 1.193e-08
 30.11520   -146.0 1.175e+04 1.212e-08
 30.13478   -145.5 1.162e+04 1.224e-08
 30.15436   -145.0 1.152e+04 1.180e-08
 30.17395   -144.4 1.138e+04 1.111e-08
 30.19353   -143.8 1.121e+04 1.015e-08
 30.21311   -143.1 1.106e+04 9.086e-09
 30.23269   -142.4 1.090e+04 8.071e-09
 30.25227   -141.6 1.074e+04 7.152e-09
 30.27185   -140.7 1.059e+04 6.365e-09
 30.29143   -139.9 1.044e+04 5.730e-09
 30.31101   -138.9 1.032e+04 5.257e-09
 30.33059   -137.9 1.022e+04 4.933e-09
 30.35018   -137.0 1.015e+04 4.723e-09
 30.36338   -135.9 1.013e+04 4.630e-09
 30.37317   -135.8 9.950e+03 4.126e-09
 30.38934   -134.8 9.983e+03 4.250e-09
 30.40892   -134.0 1.011e+04 4.582e-09
 30.42850   -133.4 1.023e+04 5.028e-09
 30.44808   -132.8 1.035e+04 5.520e-09
 30.46100   -132.3 1.044e+04 5.932e-09
 30.47079   -132.0 1.045e+04 6.070e-09
 30.48724   -131.6 1.052e+04 6.523e-09
 30.50682   -131.3 1.056e+04 6.839e-09
 30.52640   -131.0 1.058e+04 7.068e-09
 30.54599   -130.8 1.061e+04 7.236e-09
 30.56557   -130.6 1.064e+04 7.350e-09
 30.58515   -130.5 1.069e+04 7.424e-09
 30.60473   -130.6 1.079e+04 7.569e-09
 30.62431   -130.8 1.094e+04 7.991e-09
 30.64389   -131.2 1.120e+04 8.955e-09
 30.66347   -131.7 1.154e+04 1.081e-08
 30.68305   -132.2 1.194e+04 1.379e-08
 30.70263   -132.6 1.233e+04 1.781e-08
 30.72222   -132.9 1.267e+04 2.218e-08
 30.74180   -133.1 1.292e+04 2.579e-08
 30.76138   -133.3 1.303e+04 2.736e-08
 30.77822   -133.6 1.294e+04 2.522e-08
 30.78801   -133.6 1.296e+04 2.755e-08
 30.80054   -134.0 1.262e+04 2.196e-08
 30.81839   -134.3 1.221e+04 1.690e-08
 30.82818   -135.4 1.201e+04 1.447e-08
 30.83970   -135.7 1.164e+04 1.151e-08
 30.85928   -135.8 1.134e+04 9.586e-09
 30.87886   -135.7 1.111e+04 8.282e-09
 30.89845   -135.4 1.094e+04 7.304e-09
 30.91803   -135.0 1.081e+04 6.450e-09
 30.93761   -134.5 1.069e+04 5.620e-09
 30.95719   -134.0 1.056e+04 4.782e-09
 30.97677   -133.4 1.041e+04 3.937e-09
 30.99635   -132.6 1.027e+04 3.153e-09
 31.02582   -131.3 1.018e+04 2.536e-09
 31.06508   -130.3 1.017e+04 2.280e-09
 31.10424   -128.7 1.012e+04 2.110e-09
 31.14340   -126.9 1.008e+04 1.974e-09
 31.17598   -125.2 1.008e+04 1.840e-09
 31.19556   -125.9 1.007e+04 1.888e-09
 31.22173   -124.1 1.008e+04 1.720e-09
 31.26089   -122.3 1.012e+04 1.577e-09
 31.30005   -120.4 1.020e+04 1.478e-09
 31.33922   -118.4 1.025e+04 1.442e-09
 31.37838   -116.4 1.031e+04 1.466e-09
 31.41754   -114.3 1.040e+04 1.542e-09
 31.45670   -112.1 1.050e+04 1.650e-09
 31.49586   -109.8 1.060e+04 1.761e-09
 31.53503   -107.5 1.067e+04 1.816e-09
 31.57419   -105.1 1.081e+04 1.778e-09
 31.60810   -102.8 1.098e+04 1.645e-09
 31.62768   -103.1 1.099e+04 1.590e-09
 31.65251   -100.8 1.114e+04 1.453e-09
 31.69167    -98.5 1.121e+04 1.418e-09
 31.73084    -96.3 1.141e+04 1.413e-09
 31.77000    -94.3 1.167e+04 1.512e-09
 31.80916    -92.4 1.178e+04 1.648e-09
 31.84832    -90.6 1.181e+04 1.691e-09
 31.88749    -88.8 1.182e+04 1.599e-09
 31.91035    -87.1 1.176e+04 1.495e-09
 31.92993    -88.4 1.174e+04 1.214e-09
 31.96581    -86.8 1.164e+04 1.351e-09
 32.00497    -85.3 1.156e+04 1.573e-09
 32.04413    -84.0 1.147e+04 1.806e-09
 32.08330    -82.6 1.144e+04 1.919e-09
 32.12246    -81.3 1.138e+04 1.894e-09
 32.16162    -79.8 1.129e+04 1.813e-09
 32.20078    -78.4 1.125e+04 1.778e-09
 32.23995    -76.9 1.125e+04 1.834e-09
 32.27911    -75.6 1.138e+04 2.167e-09
 32.31827    -74.4 1.150e+04 2.592e-09
 32.35743    -73.5 1.160e+04 2.917e-09
 32.39659    -72.8 1.163e+04 3.014e-09
 32.43576    -72.3 1.160e+04 2.913e-09
 32.45736    -71.9 1.155e+04 2.534e-09
 32.46705    -72.4 1.149e+04 2.814e-09
 32.48451    -72.3 1.146e+04 2.508e-09
 32.50409    -72.3 1.138e+04 2.200e-09
 32.52368    -72.4 1.128e+04 2.073e-09
 32.54326    -72.4 1.120e+04 1.975e-09
 32.56284    -72.4 1.121e+04 1.962e-09
 32.58242    -72.7 1.127e+04 2.007e-09
 32.60200    -73.3 1.148e+04 2.252e-09
 32.62158    -74.1 1.174e+04 2.857e-09
 32.63473    -74.8 1.194e+04 4.200e-09
 32.64452    -76.5 1.236e+04 9.253e-09
 32.66074    -76.5 1.254e+04 1.349e-08
 32.68032    -76.1 1.271e+04 1.689e-08
 32.69991    -75.6 1.289e+04 1.793e-08
 32.71949    -75.3 1.304e+04 1.825e-08
 32.73907    -75.9 1.390e+04 1.926e-08
 32.75865    -80.6 1.861e+04 2.824e-08
 32.77823    -86.4 2.009e+04 1.115e-07
 32.79287    -88.8 2.001e+04 2.142e-07
 32.80261    -90.7 1.953e+04 5.246e-07
 32.81240    -92.4 1.892e+04 1.001e-06
 32.81822    -94.1 1.860e+04 1.188e-06
 32.82312    -95.6 1.850e+04 1.189e-06
 32.83198    -96.3 1.826e+04 8.765e-07
 32.84177    -96.8 1.815e+04 3.872e-07
 32.85156    -98.2 1.767e+04 1.425e-07
 32.86135    -99.9 1.680e+04 6.822e-08
 32.87196   -101.3 1.613e+04 4.207e-08
 32.88180   -101.4 1.607e+04 4.392e-08
 32.89572   -105.9 1.285e+04 1.034e-08
 32.91530   -108.9 1.048e+04 5.455e-09
 32.93488   -110.0 9.869e+03 4.683e-09
 32.95446   -110.1 9.823e+03 4.729e-09
 32.98393   -110.1 9.874e+03 5.096e-09
 33.02319   -109.9 9.937e+03 5.685e-09
 33.06235   -109.4 1.000e+04 6.125e-09
 33.10151   -108.8 1.006e+04 6.598e-09
 33.14068   -108.1 1.021e+04 7.330e-09
 33.17984   -107.6 1.065e+04 8.958e-09
 33.21900   -107.6 1.132e+04 1.205e-08
 33.24827   -107.6 1.156e+04 1.384e-08
 33.26776   -107.9 1.185e+04 1.579e-08
 33.28685   -108.2 1.210e+04 1.749e-08
 33.29664   -108.2 1.199e+04 1.666e-08
 33.30692   -108.7 1.226e+04 1.836e-08
 33.32650   -109.5 1.258e+04 2.032e-08
 33.34608   -110.5 1.299e+04 2.349e-08
 33.35931   -111.5 1.358e+04 2.939e-08
 33.36910   -111.8 1.420e+04 4.091e-08
 33.38524   -112.8 1.478e+04 5.195e-08
 33.40482   -113.7 1.520e+04 6.133e-08
 33.42441   -114.6 1.531e+04 6.452e-08
 33.44399   -115.2 1.520e+04 6.367e-08
 33.46357   -115.2 1.475e+04 5.362e-08
 33.48315   -114.9 1.421e+04 4.008e-08
 33.50273   -114.6 1.371e+04 2.832e-08
 33.52231   -114.0 1.329e+04 1.960e-08
 33.54189   -113.3 1.297e+04 1.383e-08
 33.56147   -112.4 1.276e+04 1.033e-08
 33.58105   -111.4 1.258e+04 8.073e-09
 33.60064   -110.4 1.241e+04 6.486e-09
 33.62022   -109.5 1.216e+04 5.274e-09
 33.64969   -108.6 1.169e+04 4.261e-09
 33.68895   -106.1 1.135e+04 3.943e-09
 33.71158   -104.3 1.119e+04 3.880e-09
 33.71985   -104.4 1.128e+04 3.813e-09
 33.72649   -104.6 1.128e+04 3.909e-09
 33.73770   -103.4 1.129e+04 3.969e-09
 33.75728   -102.3 1.130e+04 3.992e-09
 33.77687   -101.3 1.132e+04 3.988e-09
 33.79645   -100.2 1.132e+04 3.976e-09
 33.81603    -99.2 1.127e+04 3.833e-09
 33.84550    -98.0 1.125e+04 3.532e-09
 33.88476    -95.7 1.128e+04 3.412e-09
 33.92392    -93.9 1.133e+04 3.248e-09
 33.96308    -92.0 1.137e+04 3.023e-09
 34.00224    -90.1 1.141e+04 2.719e-09
 34.04141    -88.1 1.143e+04 2.364e-09
 34.07429    -85.9 1.139e+04 2.007e-09
 34.09387    -86.6 1.140e+04 2.016e-09
 34.11673    -84.5 1.128e+04 1.691e-09
 34.13631    -84.6 1.143e+04 2.074e-09
 34.15889    -82.6 1.126e+04 1.739e-09
 34.19805    -80.5 1.108e+04 1.642e-09
 34.23722    -78.7 1.097e+04 1.628e-09
 34.27638    -76.9 1.085e+04 1.638e-09
 34.31554    -75.3 1.070e+04 1.659e-09
 34.35470    -73.8 1.058e+04 1.670e-09
 34.39387    -72.5 1.049e+04 1.704e-09
 34.43303    -71.4 1.039e+04 1.835e-09
 34.47219    -70.6 1.029e+04 2.034e-09
 34.51135    -69.7 1.015e+04 2.233e-09
 34.55051    -68.7 1.008e+04 2.296e-09
 34.58968    -67.4 9.744e+03 2.279e-09
 34.62884    -66.1 9.557e+03 1.945e-09
 34.66800    -64.8 9.451e+03 1.646e-09
 34.70716    -63.8 9.366e+03 1.506e-09
 34.74632    -62.9 9.336e+03 1.456e-09
 34.78549    -62.1 9.323e+03 1.443e-09
 34.80866    -61.4 9.314e+03 1.443e-09
 34.82824    -62.9 9.265e+03 1.502e-09
 34.86381    -62.2 9.225e+03 1.503e-09
 34.90297    -61.3 9.057e+03 1.366e-09
 34.94214    -60.4 8.919e+03 1.112e-09
 34.96599    -59.6 8.769e+03 9.366e-10
 34.98557    -60.7 8.849e+03 1.354e-09
 35.02046    -60.3 8.774e+03 1.343e-09
 35.05962    -60.7 9.763e+03 1.830e-09
 35.08890    -60.2 9.628e+03 1.540e-09
 35.10838    -64.2 1.152e+04 3.086e-09
 35.12796    -67.8 1.411e+04 5.387e-09
 35.14754    -73.6 1.605e+04 3.383e-08
 35.16586    -75.7 1.663e+04 1.038e-07
 35.17565    -76.8 1.636e+04 1.040e-07
 35.18670    -76.8 1.675e+04 1.778e-07
 35.20628    -77.0 1.675e+04 1.884e-07
 35.22587    -77.5 1.623e+04 1.179e-07
 35.24545    -79.1 1.548e+04 4.240e-08
 35.26503    -82.4 1.432e+04 1.418e-08
 35.28461    -85.2 1.308e+04 8.765e-09
 35.30419    -86.4 1.243e+04 7.417e-09
 35.32377    -87.0 1.224e+04 7.088e-09
 35.34335    -88.0 1.222e+04 7.032e-09
 35.36293    -89.5 1.225e+04 7.029e-09
 35.38064    -91.7 1.247e+04 7.348e-09
 35.39043    -92.7 1.210e+04 4.673e-09
 35.40210    -94.9 1.220e+04 7.314e-09
 35.42168    -97.0 1.250e+04 1.145e-08
 35.44126    -99.3 1.290e+04 1.624e-08
 35.46084   -102.1 1.317e+04 1.943e-08
 35.48042   -105.3 1.322e+04 2.013e-08
 35.50000   -108.7 1.316e+04 1.975e-08
 35.51958   -112.3 1.313e+04 1.813e-08
 35.53304   -116.0 1.319e+04 1.720e-08
 35.54283   -115.6 1.332e+04 1.639e-08
 35.55874   -119.2 1.337e+04 1.614e-08
 35.57833   -122.7 1.339e+04 1.595e-08
 35.59791   -125.9 1.317e+04 1.479e-08
 35.61749   -128.4 1.277e+04 1.243e-08
 35.63707   -130.3 1.235e+04 9.808e-09
 35.65665   -131.8 1.197e+04 7.560e-09
 35.67623   -133.0 1.162e+04 5.844e-09
 35.69581   -134.0 1.131e+04 4.586e-09
 35.71539   -134.9 1.111e+04 3.701e-09
 35.73497   -135.5 1.126e+04 3.302e-09
 35.76444   -136.1 1.135e+04 3.159e-09
 35.79568   -136.9 1.155e+04 3.140e-09
 35.81526   -134.8 1.132e+04 1.992e-09
 35.84287   -135.2 1.166e+04 2.226e-09
 35.88203   -135.6 1.181e+04 3.252e-09
 35.92119   -135.8 1.184e+04 4.652e-09
 35.96035   -135.8 1.179e+04 5.940e-09
 35.99951   -135.6 1.170e+04 6.434e-09
 36.03868   -135.3 1.164e+04 6.443e-09
 36.07784   -134.6 1.156e+04 6.300e-09
 36.11700   -133.9 1.153e+04 6.268e-09
 36.15616   -133.2 1.148e+04 6.698e-09
 36.19533   -132.6 1.159e+04 7.540e-09
 36.23449   -132.0 1.175e+04 8.365e-09
 36.25781   -131.6 1.186e+04 8.732e-09
 36.27740   -130.5 1.193e+04 8.554e-09
 36.31281   -130.4 1.196e+04 8.586e-09
 36.35197   -129.9 1.193e+04 7.585e-09
 36.39114   -128.6 1.174e+04 5.801e-09
 36.43030   -126.8 1.160e+04 4.443e-09
 36.45957   -125.5 1.166e+04 4.229e-09
 36.47906   -124.5 1.170e+04 4.079e-09
 36.49864   -123.5 1.173e+04 4.048e-09
 36.51822   -122.7 1.181e+04 4.022e-09
 36.53780   -121.9 1.187e+04 4.007e-09
 36.55738   -121.2 1.191e+04 3.998e-09
 36.57696   -120.5 1.193e+04 3.987e-09
 36.59654   -119.9 1.195e+04 3.955e-09
 36.61501   -119.3 1.197e+04 3.936e-09
 36.62480   -118.9 1.210e+04 4.714e-09
 36.63496   -118.3 1.211e+04 4.734e-09
 36.64475   -118.3 1.227e+04 6.044e-09
 36.65529   -117.7 1.230e+04 5.937e-09
 36.67487   -117.1 1.236e+04 5.806e-09
 36.69445   -116.6 1.244e+04 5.605e-09
 36.71403   -116.1 1.257e+04 5.311e-09
 36.73361   -115.7 1.269e+04 4.966e-09
 36.75319   -115.2 1.274e+04 4.610e-09
 36.77277   -114.6 1.276e+04 4.222e-09
 36.79235   -114.1 1.276e+04 3.746e-09
 36.81193   -113.6 1.274e+04 3.253e-09
 36.83152   -113.3 1.272e+04 2.900e-09
 36.86098   -113.0 1.267e+04 2.540e-09
 36.90024   -111.9 1.256e+04 1.900e-09
 36.93941   -110.3 1.252e+04 1.384e-09
 36.97260   -108.9 1.255e+04 1.127e-09
 36.99218   -107.9 1.262e+04 1.282e-09
 37.01773   -106.3 1.262e+04 1.191e-09
 37.05689   -104.6 1.263e+04 1.182e-09
 37.09606   -103.5 1.277e+04 1.204e-09
 37.13522   -103.3 1.324e+04 1.700e-09
 37.17438   -103.3 1.314e+04 4.152e-09
 37.21354   -103.5 1.356e+04 1.106e-08
 37.24282   -103.8 1.409e+04 2.123e-08
 37.26230   -104.5 1.471e+04 3.325e-08
 37.28188   -105.6 1.518e+04 4.485e-08
 37.30146   -106.9 1.533e+04 4.918e-08
 37.32104   -108.1 1.529e+04 4.955e-08
 37.33959   -109.1 1.497e+04 4.168e-08
 37.34938   -109.4 1.545e+04 4.992e-08
 37.36020   -110.3 1.517e+04 4.180e-08
 37.37979   -111.2 1.482e+04 3.056e-08
 37.39937   -111.9 1.449e+04 2.071e-08
 37.41895   -112.3 1.427e+04 1.393e-08
 37.43853   -112.6 1.416e+04 1.022e-08
 37.45811   -112.7 1.406e+04 8.823e-09
 37.47443   -112.2 1.400e+04 8.577e-09
 37.48422   -112.4 1.406e+04 8.391e-09
 37.49727   -111.6 1.410e+04 8.488e-09
 37.51685   -111.0 1.429e+04 9.557e-09
 37.53643   -110.4 1.446e+04 1.144e-08
 37.55602   -109.8 1.467e+04 1.351e-08
 37.57560   -109.3 1.489e+04 1.524e-08
 37.59518   -109.1 1.505e+04 1.658e-08
 37.61476   -108.9 1.513e+04 1.747e-08
 37.63434   -108.7 1.517e+04 1.772e-08
 37.65392   -108.5 1.522e+04 1.703e-08
 37.67350   -108.4 1.518e+04 1.562e-08
 37.69308   -108.2 1.516e+04 1.386e-08
 37.70678   -107.9 1.513e+04 1.204e-08
 37.71657   -108.0 1.517e+04 8.114e-09
 37.73225   -107.6 1.520e+04 7.023e-09
 37.75183   -107.2 1.523e+04 6.057e-09
 37.77141   -106.7 1.525e+04 5.246e-09
 37.79099   -106.2 1.526e+04 4.590e-09
 37.81057   -105.6 1.524e+04 4.094e-09
 37.83015   -104.9 1.521e+04 3.767e-09
 37.84973   -104.2 1.520e+04 3.534e-09
 37.87920   -103.2 1.518e+04 3.271e-09
 37.91846   -101.1 1.513e+04 2.853e-09
 37.95762    -99.3 1.515e+04 2.737e-09
 37.99679    -97.3 1.515e+04 2.636e-09
 38.03595    -95.1 1.511e+04 2.489e-09
 38.07511    -92.9 1.504e+04 2.268e-09
 38.11427    -90.5 1.496e+04 2.023e-09
 38.15343    -88.0 1.494e+04 1.833e-09
 38.19260    -85.4 1.492e+04 1.746e-09
 38.23176    -82.9 1.491e+04 1.716e-09
 38.27092    -80.4 1.487e+04 1.726e-09
 38.30431    -78.1 1.477e+04 1.823e-09
 38.32389    -78.3 1.475e+04 1.912e-09
 38.34924    -76.0 1.473e+04 2.051e-09
 38.38841    -73.7 1.459e+04 2.222e-09
 38.42176    -71.4 1.443e+04 2.296e-09
 38.44134    -70.8 1.449e+04 2.237e-09
 38.46673    -68.6 1.432e+04 2.366e-09
 38.50589    -66.3 1.412e+04 2.442e-09
 38.54506    -64.1 1.391e+04 2.438e-09
 38.58422    -61.8 1.379e+04 2.420e-09
 38.62338    -59.7 1.368e+04 2.418e-09
 38.66254    -57.6 1.355e+04 2.387e-09
 38.70170    -55.4 1.335e+04 2.240e-09
 38.74087    -53.0 1.323e+04 1.852e-09
 38.78003    -50.3 1.320e+04 1.350e-09
 38.81919    -47.6 1.326e+04 9.246e-10
 38.85835    -45.0 1.332e+04 6.673e-10
 38.89752    -42.6 1.334e+04 5.556e-10
 38.93668    -40.3 1.333e+04 5.327e-10
 38.97584    -37.9 1.327e+04 5.447e-10
 39.01500    -35.5 1.312e+04 5.769e-10
 39.05416    -32.9 1.301e+04 5.876e-10
 39.09333    -30.1 1.293e+04 5.443e-10
 39.13249    -27.3 1.291e+04 4.826e-10
 39.15357    -24.5 1.292e+04 4.587e-10
 39.15763    -24.5 1.279e+04 6.004e-10
 39.17571    -24.1 1.275e+04 5.928e-10
 39.21081    -21.3 1.268e+04 6.293e-10
 39.24998    -18.5 1.263e+04 7.039e-10
 39.28914    -15.7 1.261e+04 8.371e-10
 39.32830    -13.1 1.253e+04 1.099e-09
 39.36746    -10.6 1.238e+04 1.690e-09
 39.40662     -7.9 1.229e+04 2.830e-09
 39.44579     -5.2 1.231e+04 4.172e-09
 39.48495     -2.7 1.236e+04 4.826e-09
 39.52411     -0.4 1.241e+04 4.796e-09
 39.56327      1.5 1.250e+04 4.992e-09
 39.60243      2.9 1.247e+04 5.928e-09
 39.64160      4.3 1.245e+04 7.841e-09
 39.68076      5.8 1.234e+04 8.693e-09
 39.71992      6.9 1.224e+04 7.586e-09
 39.75908      7.8 1.199e+04 6.190e-09
 39.79825      8.5 1.188e+04 4.545e-09
 39.82752      8.5 1.166e+04 4.874e-09
 39.84700      8.7 1.173e+04 4.983e-09
 39.87082      8.6 1.165e+04 6.173e-09
 39.89049      9.6 1.149e+04 6.398e-09
 39.91573     10.3 1.150e+04 6.275e-09
 39.95489     10.4 1.159e+04 6.290e-09
 39.98326     10.9 1.144e+04 6.313e-09
 40.00284     10.8 1.132e+04 2.861e-09
 40.03322     11.1 1.107e+04 2.121e-09
 40.07238     12.3 1.075e+04 2.118e-09
 40.11154     14.3 1.049e+04 1.978e-09
 40.15071     17.1 1.029e+04 1.501e-09
 40.18987     19.7 1.026e+04 9.622e-10
 40.22903     22.0 1.025e+04 6.962e-10
 40.26819     24.6 1.010e+04 6.582e-10
 40.30735     27.3 1.008e+04 6.884e-10
 40.34652     30.1 1.004e+04 7.905e-10
 40.38568     33.0 1.002e+04 9.478e-10
 40.42484     35.9 1.000e+04 1.104e-09
 40.46400     38.6 1.002e+04 1.163e-09
 40.50316     41.2 1.001e+04 1.141e-09
 40.54233     43.7 9.986e+03 1.065e-09
 40.58149     46.3 9.959e+03 9.770e-10
 40.60528     49.0 9.935e+03 9.097e-10
 40.62486     49.1 9.889e+03 8.625e-10
 40.65981     51.8 9.865e+03 8.451e-10
 40.69898     54.6 9.855e+03 8.486e-10
 40.73814     57.4 9.851e+03 8.450e-10
 40.77730     60.2 9.848e+03 8.295e-10
 40.81294     63.1 9.853e+03 8.104e-10
 40.83252     63.4 9.819e+03 8.087e-10
 40.85562     66.2 9.820e+03 8.023e-10
 40.89479     69.1 9.849e+03 7.958e-10
 40.93395     72.0 9.909e+03 7.796e-10
 40.97311     74.8 9.947e+03 7.721e-10
 41.01227     77.7 9.990e+03 7.778e-10
 41.05144     80.4 1.007e+04 8.182e-10
 41.09060     83.0 1.012e+04 9.197e-10
 41.12976     85.6 1.017e+04 1.098e-09
 41.16892     88.3 1.032e+04 1.396e-09
 41.20808     90.7 1.063e+04 1.846e-09
 41.24725     92.1 1.082e+04 2.213e-09
 41.27652     93.2 1.091e+04 2.966e-09
 41.29600     94.5 1.105e+04 3.766e-09
 41.31558     95.5 1.129e+04 4.607e-09
 41.32966     96.5 1.156e+04 5.527e-09
 41.33946     96.5 1.153e+04 5.785e-09
 41.35475     97.1 1.181e+04 6.752e-09
 41.37433     97.1 1.213e+04 7.826e-09
 41.39391     96.5 1.265e+04 1.019e-08
 41.41349     95.1 1.358e+04 1.929e-08
 41.43307     93.8 1.466e+04 4.458e-08
 41.45265     93.0 1.586e+04 9.295e-08
 41.47223     91.9 1.692e+04 1.322e-07
 41.49181     89.8 1.714e+04 1.292e-07
 41.51140     87.7 1.688e+04 9.367e-08
 41.53098     85.3 1.590e+04 6.108e-08
 41.55056     83.5 1.486e+04 5.012e-08
 41.57014     83.2 1.451e+04 4.874e-08
 41.58972     83.2 1.450e+04 4.795e-08
 41.60930     83.3 1.454e+04 4.783e-08
 41.62888     83.2 1.462e+04 4.829e-08
 41.64846     82.9 1.476e+04 5.068e-08
 41.66201     82.5 1.484e+04 5.299e-08
 41.67180     82.2 1.451e+04 4.665e-08
 41.68706     81.7 1.465e+04 4.852e-08
 41.69685     81.8 1.496e+04 5.112e-08
 41.70721     81.3 1.475e+04 4.588e-08
 41.72679     81.0 1.461e+04 4.083e-08
 41.74637     80.8 1.456e+04 3.613e-08
 41.76595     80.5 1.462e+04 3.225e-08
 41.78553     79.9 1.470e+04 2.943e-08
 41.80511     79.4 1.474e+04 2.785e-08
 41.82469     79.0 1.463e+04 2.706e-08
 41.84427     78.7 1.434e+04 2.488e-08
 41.86386     78.8 1.393e+04 2.043e-08
 41.88344     78.8 1.355e+04 1.544e-08
 41.90302     78.5 1.331e+04 1.128e-08
 41.92260     78.1 1.322e+04 8.963e-09
 41.95207     77.8 1.303e+04 6.821e-09
 41.99133     78.3 1.263e+04 4.702e-09
 42.03049     79.6 1.226e+04 3.047e-09
 42.05444     81.5 1.208e+04 1.971e-09
 42.07402     81.1 1.206e+04 2.024e-09
 42.10881     83.4 1.208e+04 1.407e-09
 42.14798     85.8 1.222e+04 1.109e-09
 42.18714     88.3 1.235e+04 9.711e-10
 42.22630     91.0 1.246e+04 8.949e-10
 42.26546     93.7 1.255e+04 8.416e-10
 42.30462     96.6 1.259e+04 8.306e-10
 42.34379     99.4 1.262e+04 8.358e-10
 42.38295    102.1 1.271e+04 8.651e-10
 42.42211    104.7 1.280e+04 9.796e-10
 42.46127    107.2 1.284e+04 1.223e-09
 42.49189    109.5 1.291e+04 1.576e-09
 42.51147    108.7 1.304e+04 1.805e-09
 42.53960    110.7 1.330e+04 1.953e-09
 42.57876    112.3 1.338e+04 1.949e-09
 42.61792    113.9 1.344e+04 1.878e-09
 42.65708    115.5 1.357e+04 1.670e-09
 42.69625    117.1 1.369e+04 1.469e-09
 42.73541    119.0 1.371e+04 1.431e-09
 42.76923    121.0 1.373e+04 1.450e-09
 42.78881    120.3 1.384e+04 1.551e-09
 42.81373    122.4 1.389e+04 1.599e-09
 42.85290    124.6 1.392e+04 1.793e-09
 42.89206    126.7 1.396e+04 2.184e-09
 42.93122    128.6 1.402e+04 2.785e-09
 42.97038    130.3 1.410e+04 3.567e-09
 43.00954    131.8 1.403e+04 4.394e-09
 43.04871    132.9 1.388e+04 5.120e-09
 43.08787    133.7 1.366e+04 5.434e-09
 43.12703    134.2 1.359e+04 5.416e-09
 43.16619    134.6 1.339e+04 5.176e-09
 43.20535    135.2 1.319e+04 4.334e-09
 43.24452    136.2 1.299e+04 3.174e-09
 43.28368    137.5 1.284e+04 2.135e-09
 43.32157    138.9 1.279e+04 1.450e-09
 43.34116    138.2 1.286e+04 1.248e-09
 43.36200    139.8 1.275e+04 9.794e-10
 43.40117    141.5 1.255e+04 9.696e-10
 43.44033    143.4 1.249e+04 9.738e-10
 43.47949    145.3 1.246e+04 9.756e-10
 43.50359    147.1 1.244e+04 9.716e-10
 43.52317    146.6 1.244e+04 7.656e-10
 43.55781    148.6 1.241e+04 7.690e-10
 43.59698    150.6 1.239e+04 7.811e-10
 43.63614    152.6 1.233e+04 8.209e-10
 43.67530    154.8 1.228e+04 8.926e-10
 43.71446    156.9 1.226e+04 9.875e-10
 43.75363    159.0 1.225e+04 1.095e-09
 43.79279    161.1 1.227e+04 1.203e-09
 43.83195    163.1 1.231e+04 1.312e-09
 43.87111    165.0 1.235e+04 1.425e-09
 43.91027    166.8 1.239e+04 1.547e-09
 43.94944    168.5 1.244e+04 1.693e-09
 43.98860    170.1 1.251e+04 1.886e-09
 44.02776    171.5 1.261e+04 2.164e-09
 44.06692    172.5 1.273e+04 2.548e-09
 44.10609    172.8 1.287e+04 3.233e-09
 44.13536    172.8 1.295e+04 3.523e-09
 44.15484    172.8 1.301e+04 3.792e-09
 44.17064    172.7 1.310e+04 4.165e-09
 44.18043    172.8 1.312e+04 4.106e-09
 44.19400    172.5 1.323e+04 4.505e-09
 44.21359    172.1 1.334e+04 4.947e-09
 44.22798    171.6 1.342e+04 5.422e-09
 44.23777    172.2 1.329e+04 5.076e-09
 44.25275    171.7 1.334e+04 5.529e-09
 44.27233    171.2 1.338e+04 5.965e-09
 44.29191    170.6 1.342e+04 6.371e-09
 44.31149    170.1 1.347e+04 6.736e-09
 44.33107    169.6 1.352e+04 7.038e-09
 44.35065    169.1 1.357e+04 7.210e-09
 44.37023    168.6 1.359e+04 7.229e-09
 44.38982    168.1 1.359e+04 7.215e-09
 44.40940    167.6 1.359e+04 7.071e-09
 44.42898    167.1 1.359e+04 6.658e-09
 44.44856    166.6 1.359e+04 6.022e-09
 44.46814    166.2 1.359e+04 5.298e-09
 44.48772    165.9 1.358e+04 4.653e-09
 44.50730    165.6 1.359e+04 4.168e-09
 44.52688    165.4 1.362e+04 3.805e-09
 44.54646    165.2 1.363e+04 3.646e-09
 44.57593    166.0 1.363e+04 3.200e-09
 44.61519    166.2 1.373e+04 2.826e-09
 44.65436    166.5 1.387e+04 2.426e-09
 44.69352    166.8 1.392e+04 2.182e-09
 44.73268    167.3 1.390e+04 2.164e-09
 44.77184    167.8 1.387e+04 2.278e-09
 44.81100    168.0 1.370e+04 2.857e-09
 44.85017    168.0 1.353e+04 4.057e-09
 44.88933    167.6 1.357e+04 5.219e-09
 44.92849    166.1 1.365e+04 5.247e-09
 44.95275    164.4 1.359e+04 4.639e-09
 44.97233    163.9 1.379e+04 7.083e-09
 45.00052    162.8 1.356e+04 4.622e-09
 45.02010    162.0 1.348e+04 4.606e-09
 45.04598    161.7 1.338e+04 2.115e-09
 45.08514    161.7 1.320e+04 1.353e-09
 45.12430    162.3 1.312e+04 1.330e-09
 45.16346    163.7 1.309e+04 1.362e-09
 45.20263    165.2 1.304e+04 1.529e-09
 45.24179    166.6 1.301e+04 1.890e-09
 45.28095    167.8 1.302e+04 2.480e-09
 45.32011    168.8 1.311e+04 3.294e-09
 45.35927    169.6 1.321e+04 4.135e-09
 45.39844    169.9 1.320e+04 4.650e-09
 45.43760    170.1 1.313e+04 4.738e-09
 45.47676    170.4 1.309e+04 4.744e-09
 45.51592    170.8 1.306e+04 4.808e-09
 45.55509    171.2 1.300e+04 5.212e-09
 45.59425    171.4 1.301e+04 6.460e-09
 45.63341    171.6 1.312e+04 8.652e-09
 45.66754    171.7 1.331e+04 1.109e-08
 45.68712    171.2 1.344e+04 1.096e-08
 45.71173    170.9 1.343e+04 1.111e-08
 45.75090    170.7 1.330e+04 1.048e-08
 45.79006    170.7 1.302e+04 8.367e-09
 45.82922    170.8 1.272e+04 5.770e-09
 45.84979    171.1 1.252e+04 3.671e-09
 45.86937    169.9 1.254e+04 4.348e-09
 45.90755    169.9 1.235e+04 3.338e-09
 45.94671    170.2 1.212e+04 3.021e-09
 45.98587    170.7 1.198e+04 2.946e-09
 46.02503    171.3 1.192e+04 2.854e-09
 46.06419    172.1 1.185e+04 2.645e-09
 46.10336    173.0 1.179e+04 2.233e-09
 46.14252    173.9 1.169e+04 1.679e-09
 46.18168    174.9 1.159e+04 1.228e-09
 46.22084    176.2 1.142e+04 9.854e-10
 46.26000    178.0 1.131e+04 9.546e-10
 46.29917    180.0 1.129e+04 9.657e-10
 46.33833    182.1 1.127e+04 1.020e-09
 46.37749    184.1 1.130e+04 1.131e-09
 46.40191    185.9 1.138e+04 1.295e-09
 46.42149    186.2 1.149e+04 1.578e-09
 46.45582    187.9 1.170e+04 1.964e-09
 46.49498    188.9 1.187e+04 2.344e-09
 46.52425    189.1 1.194e+04 2.487e-09
 46.54374    189.4 1.203e+04 2.750e-09
 46.56332    189.7 1.220e+04 3.436e-09
 46.58290    189.8 1.231e+04 4.023e-09
 46.60248    189.9 1.244e+04 4.700e-09
 46.62206    189.8 1.249e+04 5.041e-09
 46.65153    190.0 1.271e+04 5.970e-09
 46.67947    189.9 1.266e+04 5.976e-09
 46.69905    189.4 1.263e+04 7.245e-09
 46.72995    189.2 1.247e+04 6.371e-09
 46.76911    189.2 1.226e+04 5.299e-09
 46.80828    189.5 1.203e+04 4.426e-09
 46.84744    190.3 1.181e+04 3.765e-09
 46.88660    191.3 1.163e+04 3.233e-09
 46.92576    192.4 1.148e+04 2.770e-09
 46.96492    193.4 1.137e+04 2.329e-09
 47.00409    194.4 1.127e+04 1.884e-09
 47.04325    195.3 1.117e+04 1.454e-09
 47.08241    196.1 1.108e+04 1.092e-09
 47.11669    197.1 1.099e+04 8.333e-10
 47.13627    196.9 1.100e+04 9.093e-10
 47.16073    197.8 1.090e+04 7.418e-10
 47.19990    198.9 1.077e+04 6.502e-10
 47.23906    200.2 1.058e+04 6.216e-10
 47.27822    201.6 1.049e+04 6.224e-10
 47.31738    203.1 1.047e+04 6.279e-10
 47.35655    204.5 1.044e+04 6.502e-10
 47.39571    205.8 1.042e+04 6.893e-10
 47.43487    207.1 1.040e+04 7.448e-10
 47.47403    208.2 1.037e+04 8.137e-10
 47.50915    209.3 1.036e+04 8.898e-10
 47.52874    209.0 1.037e+04 8.842e-10
 47.55236    209.9 1.035e+04 9.671e-10
 47.59152    210.8 1.033e+04 1.082e-09
 47.63068    211.5 1.029e+04 1.234e-09
 47.66984    212.2 1.028e+04 1.435e-09
 47.70901    212.6 1.034e+04 1.725e-09
 47.74817    212.5 1.045e+04 2.126e-09
 47.77744    212.2 1.054e+04 2.392e-09
 47.79692    211.9 1.063e+04 2.760e-09
 47.81651    211.5 1.077e+04 3.556e-09
 47.83609    210.9 1.098e+04 4.838e-09
 47.85087    210.2 1.123e+04 6.486e-09
 47.86066    209.7 1.116e+04 6.117e-09
 47.87525    208.5 1.137e+04 7.461e-09
 47.89483    206.5 1.171e+04 9.743e-09
 47.91441    203.2 1.253e+04 1.572e-08
 47.93359    198.8 1.382e+04 2.964e-08
 47.94338    198.9 1.358e+04 2.560e-08
 47.95357    193.8 1.483e+04 4.229e-08
 47.97315    188.0 1.568e+04 4.701e-08
 47.99274    181.7 1.572e+04 4.385e-08
 48.01232    176.2 1.538e+04 2.926e-08
 48.03190    171.4 1.443e+04 1.331e-08
 48.06137    165.4 1.301e+04 3.270e-09
 48.10063    157.9 1.107e+04 1.037e-09
 48.13979    155.4 1.077e+04 9.941e-10
 48.17895    155.0 1.076e+04 1.013e-09
 48.21811    154.8 1.079e+04 1.131e-09
 48.25728    154.7 1.094e+04 1.460e-09
 48.29644    154.8 1.114e+04 1.917e-09
 48.32571    154.6 1.124e+04 2.256e-09
 48.34520    154.7 1.138e+04 2.826e-09
 48.35822    154.7 1.165e+04 4.000e-09
 48.36801    155.1 1.169e+04 4.413e-09
 48.38436    155.0 1.211e+04 6.850e-09
 48.40394    154.8 1.266e+04 1.087e-08
 48.42352    154.3 1.325e+04 1.686e-08
 48.44310    153.5 1.377e+04 2.405e-08
 48.46268    152.5 1.417e+04 2.944e-08
 48.48226    151.3 1.429e+04 3.009e-08
 48.50184    150.0 1.427e+04 2.943e-08
 48.52143    148.9 1.417e+04 2.687e-08
 48.54101    147.9 1.387e+04 2.295e-08
 48.56059    147.3 1.355e+04 1.889e-08
 48.57544    147.1 1.329e+04 1.509e-08
 48.58523    147.8 1.325e+04 1.548e-08
 48.59975    147.8 1.311e+04 1.350e-08
 48.61933    147.9 1.301e+04 1.213e-08
 48.63891    148.1 1.287e+04 1.113e-08
 48.65849    148.5 1.270e+04 1.103e-08
 48.67807    149.0 1.268e+04 1.120e-08
 48.69765    149.5 1.265e+04 1.201e-08
 48.71724    150.0 1.261e+04 1.215e-08
 48.73682    150.6 1.258e+04 1.187e-08
 48.75640    151.0 1.252e+04 1.111e-08
 48.77307    151.3 1.243e+04 1.001e-08
 48.78286    151.4 1.277e+04 1.202e-08
 48.79556    151.4 1.262e+04 1.051e-08
 48.81514    151.4 1.253e+04 9.333e-09
 48.83472    151.4 1.235e+04 9.155e-09
 48.85430    151.4 1.236e+04 9.424e-09
 48.87388    151.4 1.240e+04 1.015e-08
 48.89347    151.4 1.245e+04 1.125e-08
 48.91305    151.4 1.251e+04 1.281e-08
 48.93263    151.4 1.264e+04 1.481e-08
 48.94263    151.3 1.281e+04 1.761e-08
 48.95242    151.1 1.270e+04 1.604e-08
 48.97179    151.1 1.285e+04 1.816e-08
 48.99137    151.0 1.302e+04 2.031e-08
 49.01095    150.7 1.311e+04 2.110e-08
 49.03053    150.3 1.306e+04 2.077e-08
 49.05011    150.0 1.282e+04 1.902e-08
 49.06970    149.6 1.243e+04 1.523e-08
 49.08928    149.2 1.204e+04 1.229e-08
 49.11875    149.1 1.166e+04 8.948e-09
 49.15801    149.2 1.111e+04 6.060e-09
 49.18810    149.7 1.102e+04 5.411e-09
 49.20768    150.3 1.077e+04 4.762e-09
 49.23633    151.7 1.080e+04 4.831e-09
 49.27549    153.0 1.105e+04 5.408e-09
 49.30012    153.3 1.127e+04 6.053e-09
 49.31970    154.8 1.150e+04 7.409e-09
 49.34393    154.6 1.165e+04 7.617e-09
 49.36341    154.5 1.167e+04 7.581e-09
 49.38299    154.5 1.171e+04 7.273e-09
 49.40257    154.5 1.172e+04 6.702e-09
 49.42216    154.5 1.175e+04 6.019e-09
 49.44174    154.3 1.182e+04 5.441e-09
 49.46132    154.2 1.192e+04 5.218e-09
 49.48090    154.1 1.195e+04 5.228e-09
 49.50048    154.0 1.206e+04 5.342e-09
 49.52006    154.0 1.219e+04 5.720e-09
 49.53964    154.0 1.228e+04 6.468e-09
 49.55922    154.1 1.235e+04 7.568e-09
 49.57880    154.3 1.241e+04 8.854e-09
 49.59839    154.5 1.247e+04 1.008e-08
 49.61254    154.7 1.250e+04 1.115e-08
 49.62233    154.6 1.231e+04 1.059e-08
 49.63755    155.0 1.229e+04 1.101e-08
 49.65713    155.4 1.236e+04 1.129e-08
 49.66721    155.6 1.241e+04 1.143e-08
 49.67700    155.9 1.237e+04 1.143e-08
 49.69629    156.2 1.238e+04 1.139e-08
 49.71587    156.5 1.237e+04 1.123e-08
 49.74534    157.3 1.246e+04 1.150e-08
 49.77471    158.0 1.235e+04 1.076e-08
 49.79420    158.7 1.226e+04 1.003e-08
 49.81378    159.5 1.218e+04 9.353e-09
 49.83336    160.3 1.221e+04 9.222e-09
 49.85294    161.1 1.222e+04 9.317e-09
 49.87252    162.0 1.231e+04 9.671e-09
 49.89210    162.7 1.252e+04 1.084e-08
 49.91168    163.3 1.283e+04 1.324e-08
 49.93126    163.7 1.319e+04 1.710e-08
 49.95084    164.0 1.354e+04 2.245e-08
 49.97043    164.0 1.390e+04 2.800e-08
 49.99001    163.9 1.424e+04 3.112e-08
 50.00959    163.3 1.430e+04 3.115e-08
 50.02460    162.6 1.428e+04 2.964e-08
 50.03260    162.6 1.422e+04 2.884e-08
 50.03717    162.5 1.379e+04 2.108e-08
 50.04875    162.0 1.360e+04 1.821e-08
 50.06833    162.0 1.332e+04 1.511e-08
 50.09780    162.0 1.298e+04 1.093e-08
 50.13706    161.9 1.287e+04 8.230e-09
 50.17622    161.8 1.278e+04 6.042e-09
 50.21538    162.0 1.277e+04 4.572e-09
 50.25455    162.6 1.293e+04 4.028e-09
 50.29371    163.9 1.296e+04 4.045e-09
 50.33287    165.4 1.317e+04 4.276e-09
 50.37203    167.0 1.347e+04 5.179e-09
 50.41120    168.2 1.367e+04 6.668e-09
 50.45036    168.8 1.372e+04 8.011e-09
 50.48952    168.8 1.368e+04 8.177e-09
 50.52868    168.7 1.364e+04 7.952e-09
 50.56784    168.5 1.349e+04 6.912e-09
 50.60701    168.6 1.332e+04 5.085e-09
 50.64617    168.9 1.323e+04 3.236e-09
 50.68533    169.5 1.311e+04 2.055e-09
 50.72449    170.6 1.295e+04 1.771e-09
 50.74937    171.9 1.293e+04 1.793e-09
 50.76895    171.4 1.281e+04 1.748e-09
 50.80282    172.8 1.281e+04 1.789e-09
 50.84198    173.9 1.280e+04 2.020e-09
 50.86705    174.8 1.281e+04 2.580e-09
 50.88663    174.0 1.293e+04 2.796e-09
 50.92030    174.6 1.309e+04 3.210e-09
 50.95947    174.9 1.319e+04 3.244e-09
 50.99863    174.9 1.321e+04 3.119e-09
 51.03779    175.1 1.322e+04 2.670e-09
 51.07695    175.3 1.316e+04 2.108e-09
 51.11611    175.8 1.303e+04 1.749e-09
 51.15528    176.7 1.295e+04 1.717e-09
 51.19444    177.8 1.295e+04 1.787e-09
 51.23360    178.9 1.296e+04 2.020e-09
 51.27276    179.8 1.301e+04 2.328e-09
 51.31193    180.7 1.307e+04 2.628e-09
 51.35109    181.7 1.315e+04 2.822e-09
 51.39025    182.9 1.317e+04 2.818e-09
 51.42941    184.4 1.325e+04 2.720e-09
 51.46416    186.0 1.329e+04 2.732e-09
 51.48364    185.9 1.347e+04 2.860e-09
 51.49775    186.9 1.349e+04 2.866e-09
 51.51733    187.9 1.355e+04 2.932e-09
 51.53691    188.9 1.364e+04 3.114e-09
 51.55649    189.8 1.370e+04 3.456e-09
 51.57607    190.6 1.374e+04 4.026e-09
 51.59566    191.3 1.379e+04 4.961e-09
 51.61524    192.0 1.388e+04 6.346e-09
 51.63482    192.5 1.400e+04 8.262e-09
 51.65440    192.8 1.418e+04 1.045e-08
 51.67398    192.9 1.433e+04 1.206e-08
 51.69356    192.9 1.449e+04 1.299e-08
 51.70633    192.8 1.455e+04 1.307e-08
 51.71622    193.1 1.441e+04 1.152e-08
 51.74271    193.0 1.439e+04 1.146e-08
 51.78187    193.2 1.423e+04 1.077e-08
 51.82103    193.5 1.404e+04 9.597e-09
 51.86020    193.5 1.386e+04 8.526e-09
 51.89936    193.1 1.373e+04 7.668e-09
 51.93852    192.8 1.351e+04 6.725e-09
 51.97768    192.7 1.323e+04 5.501e-09
 52.01684    192.8 1.297e+04 4.188e-09
 52.05601    193.1 1.274e+04 3.089e-09
 52.09517    193.6 1.259e+04 2.308e-09
 52.13433    194.6 1.247e+04 1.805e-09
 52.17349    195.9 1.229e+04 1.525e-09
 52.19853    197.4 1.209e+04 1.490e-09
 52.21811    198.3 1.210e+04 1.559e-09
 52.25182    200.2 1.209e+04 1.557e-09
 52.29098    202.1 1.207e+04 1.590e-09
 52.33014    204.0 1.207e+04 1.722e-09
 52.36930    205.7 1.213e+04 1.959e-09
 52.40847    207.2 1.223e+04 2.237e-09
 52.44763    208.3 1.226e+04 2.484e-09
 52.47690    209.6 1.230e+04 2.705e-09
 52.49639    210.4 1.235e+04 3.209e-09
 52.51597    211.3 1.237e+04 3.907e-09
 52.53555    212.0 1.239e+04 4.635e-09
 52.54581    212.7 1.242e+04 5.308e-09
 52.55560    213.1 1.238e+04 4.328e-09
 52.56552    213.8 1.240e+04 4.752e-09
 52.57531    214.6 1.244e+04 4.364e-09
 52.59429    215.3 1.246e+04 4.676e-09
 52.61387    215.9 1.247e+04 4.973e-09
 52.63345    216.7 1.247e+04 5.325e-09
 52.65303    217.5 1.248e+04 5.772e-09
 52.67262    218.4 1.252e+04 6.327e-09
 52.69220    219.3 1.257e+04 7.027e-09
 52.71178    220.2 1.264e+04 7.882e-09
 52.73136    221.1 1.274e+04 8.924e-09
 52.75094    221.9 1.287e+04 1.027e-08
 52.77052    222.7 1.305e+04 1.195e-08
 52.79010    223.2 1.325e+04 1.374e-08
 52.80968    223.5 1.336e+04 1.402e-08
 52.82926    223.6 1.336e+04 1.346e-08
 52.84885    223.7 1.331e+04 1.208e-08
 52.86843    223.7 1.317e+04 1.035e-08
 52.88801    223.7 1.286e+04 8.315e-09
 52.91322    224.3 1.275e+04 7.241e-09
 52.93280    224.1 1.286e+04 7.554e-09
 52.94675    224.2 1.265e+04 6.549e-09
 52.96065    224.3 1.248e+04 5.922e-09
 52.97044    224.5 1.265e+04 6.274e-09
 52.99580    224.9 1.267e+04 6.462e-09
 53.03506    225.1 1.250e+04 5.667e-09
 53.07422    225.4 1.236e+04 4.564e-09
 53.11339    225.6 1.229e+04 3.463e-09
 53.15255    225.8 1.235e+04 2.774e-09
 53.19171    226.2 1.240e+04 2.723e-09
 53.23087    226.7 1.243e+04 2.805e-09
 53.27003    227.3 1.248e+04 3.089e-09
 53.30920    227.8 1.260e+04 3.389e-09
 53.34836    228.1 1.272e+04 3.439e-09
 53.37568    228.1 1.274e+04 3.380e-09
 53.39527    229.0 1.290e+04 4.970e-09
 53.42668    228.9 1.292e+04 4.512e-09
 53.46585    228.7 1.282e+04 3.958e-09
 53.50501    228.2 1.254e+04 3.457e-09
 53.54417    227.8 1.216e+04 3.073e-09
 53.58333    227.8 1.179e+04 2.769e-09
 53.62249    228.0 1.149e+04 2.508e-09
 53.64768    228.7 1.127e+04 2.293e-09
 53.66727    228.5 1.131e+04 2.267e-09
 53.70082    229.7 1.112e+04 2.199e-09
 53.73998    230.8 1.096e+04 2.150e-09
 53.77914    232.0 1.081e+04 2.059e-09
 53.81830    233.0 1.066e+04 1.899e-09
 53.85747    234.0 1.049e+04 1.683e-09
 53.89663    235.1 1.033e+04 1.451e-09
 53.93579    236.2 1.018e+04 1.251e-09
 53.97495    237.4 1.001e+04 1.110e-09
 54.01412    238.8 9.764e+03 1.054e-09
 54.05328    240.3 9.561e+03 1.065e-09
 54.09244    241.9 9.535e+03 1.078e-09
 54.13160    243.6 9.433e+03 1.156e-09
 54.17076    245.2 9.305e+03 1.366e-09
 54.20537    247.0 9.254e+03 1.757e-09
 54.22495    247.8 9.368e+03 2.622e-09
 54.24909    249.0 9.395e+03 3.140e-09
 54.27836    249.3 9.365e+03 3.349e-09
 54.29785    250.0 9.308e+03 3.447e-09
 54.31743    250.5 9.290e+03 3.472e-09
 54.33701    250.8 9.280e+03 3.468e-09
 54.36237    251.1 9.243e+03 3.400e-09
 54.38195    251.5 9.217e+03 3.513e-09
 54.39575    251.8 9.105e+03 3.371e-09
 54.41533    252.1 9.012e+03 3.250e-09
 54.44480    253.4 8.896e+03 3.108e-09
 54.48406    254.5 8.703e+03 2.850e-09
 54.52322    255.6 8.545e+03 2.656e-09
 54.56239    256.4 8.398e+03 2.519e-09
 54.60155    257.3 8.241e+03 2.422e-09
 54.64071    258.1 8.082e+03 2.354e-09
 54.67987    259.1 7.932e+03 2.305e-09
 54.71903    260.2 7.786e+03 2.244e-09
 54.75820    261.3 7.670e+03 2.141e-09
 54.79736    262.2 7.574e+03 2.034e-09
 54.83652    263.1 7.469e+03 1.934e-09
 54.87568    263.9 7.346e+03 1.841e-09
 54.91485    264.7 7.221e+03 1.756e-09
 54.95401    265.5 7.111e+03 1.684e-09
 54.99317    266.4 7.025e+03 1.630e-09
 55.03233    267.4 6.953e+03 1.596e-09
 55.05463    268.4 6.892e+03 1.570e-09
 55.07421    268.0 6.929e+03 1.569e-09
 55.09684    269.0 6.883e+03 1.546e-09
 55.11642    269.4 7.013e+03 1.676e-09
 55.14982    270.4 6.955e+03 1.630e-09
 55.18898    271.6 6.894e+03 1.572e-09
 55.22814    272.6 6.820e+03 1.510e-09
 55.26731    273.6 6.752e+03 1.465e-09
 55.30647    274.6 6.745e+03 1.459e-09
 55.34563    275.3 6.758e+03 1.472e-09
 55.38479    275.4 6.818e+03 1.542e-09
 55.42395    275.2 6.992e+03 1.744e-09
 55.46312    274.5 7.217e+03 2.027e-09
 55.50228    273.9 7.357e+03 2.250e-09
 55.53155    273.4 7.488e+03 2.615e-09
 55.55104    272.1 7.924e+03 3.707e-09
 55.57062    269.9 9.089e+03 6.658e-09
 55.59020    266.5 1.110e+04 1.398e-08
 55.60978    261.6 1.363e+04 2.991e-08
 55.62936    255.0 1.609e+04 5.535e-08
 55.64894    247.2 1.789e+04 7.338e-08
 55.66852    238.6 1.815e+04 7.184e-08
 55.68810    230.7 1.790e+04 5.652e-08
 55.70768    224.0 1.648e+04 3.124e-08
 55.72727    218.1 1.397e+04 1.373e-08
 55.74685    212.8 1.091e+04 6.474e-09
 55.76643    208.8 9.975e+03 4.686e-09
 55.78601    206.7 9.790e+03 4.337e-09
 55.80559    205.6 9.745e+03 4.106e-09
 55.82122    204.6 9.721e+03 3.765e-09
 55.83101    205.8 9.717e+03 3.826e-09
 55.84475    204.6 9.653e+03 3.346e-09
 55.86433    203.3 9.484e+03 2.890e-09
 55.88391    201.9 9.240e+03 2.627e-09
 55.89391    200.7 9.127e+03 2.613e-09
 55.90370    201.7 9.362e+03 3.126e-09
 55.92308    200.4 9.360e+03 3.157e-09
 55.94266    199.2 9.395e+03 3.365e-09
 55.96224    198.1 9.549e+03 3.938e-09
 55.98182    197.0 9.776e+03 4.875e-09
 56.00140    196.1 1.002e+04 6.132e-09
 56.02098    195.3 1.024e+04 7.595e-09
 56.04056    194.5 1.045e+04 9.102e-09
 56.06014    193.8 1.064e+04 1.048e-08
 56.07973    193.1 1.083e+04 1.155e-08
 56.09931    192.3 1.103e+04 1.224e-08
 56.11889    191.2 1.123e+04 1.261e-08
 56.13847    189.6 1.143e+04 1.300e-08
 56.15805    187.4 1.174e+04 1.403e-08
 56.17763    184.3 1.241e+04 1.709e-08
 56.18841    180.2 1.356e+04 2.498e-08
 56.19820    180.8 1.323e+04 2.250e-08
 56.21679    176.5 1.417e+04 3.182e-08
 56.23637    172.1 1.477e+04 3.890e-08
 56.25596    167.7 1.479e+04 3.855e-08
 56.27554    164.1 1.441e+04 3.273e-08
 56.29512    161.7 1.335e+04 2.082e-08
 56.32459    159.2 1.168e+04 8.965e-09
 56.36385    155.2 8.822e+03 2.695e-09
 56.40301    153.2 8.498e+03 1.906e-09
 56.44217    152.8 8.501e+03 1.923e-09
 56.48133    153.0 8.641e+03 2.077e-09
 56.51061    153.0 8.758e+03 2.242e-09
 56.53009    153.0 8.944e+03 2.469e-09
 56.54580    152.8 9.197e+03 2.938e-09
 56.55559    153.0 9.095e+03 2.728e-09
 56.56925    152.7 9.386e+03 3.394e-09
 56.58883    152.3 9.678e+03 4.411e-09
 56.60841    151.7 1.006e+04 5.806e-09
 56.62800    150.9 1.063e+04 7.813e-09
 56.64758    149.9 1.133e+04 1.064e-08
 56.66716    148.8 1.196e+04 1.409e-08
 56.68674    147.8 1.246e+04 1.727e-08
 56.70632    146.5 1.283e+04 1.929e-08
 56.72360    144.9 1.309e+04 2.014e-08
 56.73339    147.5 1.277e+04 1.850e-08
 56.74548    145.9 1.300e+04 1.922e-08
 56.76506    144.0 1.315e+04 1.972e-08
 56.78464    142.2 1.327e+04 2.067e-08
 56.80423    140.6 1.338e+04 2.212e-08
 56.82381    139.1 1.340e+04 2.326e-08
 56.84339    138.1 1.331e+04 2.295e-08
 56.86297    137.3 1.313e+04 2.148e-08
 56.88255    136.5 1.288e+04 1.872e-08
 56.90213    135.5 1.255e+04 1.531e-08
 56.91298    134.5 1.222e+04 1.296e-08
 56.92277    135.5 1.238e+04 1.519e-08
 56.94129    134.7 1.232e+04 1.462e-08
 56.96087    133.9 1.237e+04 1.482e-08
 56.98046    133.2 1.257e+04 1.544e-08
 57.00004    132.5 1.282e+04 1.590e-08
 57.01962    131.8 1.290e+04 1.560e-08
 57.03920    131.1 1.295e+04 1.465e-08
 57.05878    130.4 1.289e+04 1.311e-08
 57.07836    129.7 1.275e+04 1.154e-08
 57.09794    129.2 1.267e+04 1.096e-08
 57.11752    128.7 1.269e+04 1.105e-08
 57.13710    128.2 1.281e+04 1.173e-08
 57.14823    127.6 1.320e+04 1.352e-08
 57.15802    129.0 1.288e+04 1.259e-08
 57.17627    128.2 1.339e+04 1.527e-08
 57.19585    127.0 1.402e+04 1.922e-08
 57.21543    125.5 1.466e+04 2.489e-08
 57.23501    123.6 1.523e+04 3.204e-08
 57.25459    121.4 1.570e+04 3.969e-08
 57.27038    118.8 1.597e+04 4.409e-08
 57.28017    120.4 1.572e+04 3.880e-08
 57.29375    117.4 1.587e+04 4.191e-08
 57.31333    114.2 1.571e+04 4.030e-08
 57.33291    111.7 1.509e+04 3.354e-08
 57.35250    109.7 1.417e+04 2.248e-08
 57.37208    107.6 1.350e+04 1.293e-08
 57.39166    104.7 1.367e+04 7.031e-09
 57.41124    102.7 1.364e+04 7.320e-09
 57.43082    101.4 1.350e+04 7.634e-09
 57.46029    100.6 1.325e+04 9.430e-09
 57.49955    100.8 1.236e+04 7.669e-09
 57.53871    102.1 1.172e+04 6.069e-09
 57.56326    103.9 1.140e+04 5.205e-09
 57.58285    105.3 1.134e+04 4.967e-09
 57.61704    106.9 1.127e+04 5.020e-09
 57.63766    107.3 1.119e+04 4.563e-09
 57.64735    108.0 1.114e+04 4.506e-09
 57.66579    108.9 1.098e+04 3.959e-09
 57.68537    109.5 1.088e+04 3.386e-09
 57.70496    109.7 1.083e+04 3.119e-09
 57.73442    111.0 1.067e+04 2.832e-09
 57.77368    112.4 1.046e+04 2.434e-09
 57.81285    113.7 1.025e+04 2.080e-09
 57.85201    115.1 1.006e+04 1.723e-09
 57.89117    116.4 9.876e+03 1.409e-09
 57.93033    117.9 9.816e+03 1.318e-09
 57.96950    119.3 9.955e+03 1.380e-09
 57.99515    120.2 1.030e+04 1.715e-09
 58.01473    121.3 9.966e+03 1.584e-09
 58.04782    121.9 1.029e+04 2.069e-09
 58.08698    122.4 1.050e+04 2.540e-09
 58.11626    122.2 1.064e+04 3.101e-09
 58.13574    122.2 1.073e+04 3.533e-09
 58.15532    122.2 1.084e+04 3.952e-09
 58.17490    122.2 1.094e+04 4.236e-09
 58.19448    122.1 1.103e+04 4.257e-09
 58.21406    122.2 1.105e+04 4.134e-09
 58.24353    122.4 1.101e+04 3.616e-09
 58.28279    122.0 1.104e+04 3.414e-09
 58.32196    122.0 1.111e+04 3.162e-09
 58.36112    122.3 1.114e+04 2.776e-09
 58.39295    123.0 1.111e+04 2.463e-09
 58.41253    123.5 1.120e+04 2.682e-09
 58.43944    124.1 1.127e+04 2.695e-09
 58.46872    124.5 1.130e+04 2.677e-09
 58.48820    124.6 1.133e+04 2.682e-09
 58.50778    125.0 1.135e+04 2.781e-09
 58.52736    125.4 1.135e+04 2.992e-09
 58.54694    125.8 1.137e+04 3.287e-09
 58.56652    126.4 1.146e+04 3.665e-09
 58.58610    126.9 1.160e+04 4.146e-09
 58.60569    126.9 1.172e+04 4.671e-09
 58.62527    125.5 1.290e+04 6.195e-09
 58.64485    121.4 1.535e+04 1.778e-08
 58.66443    117.9 1.651e+04 4.990e-08
 58.67907    117.2 1.668e+04 6.217e-08
 58.68881    115.6 1.725e+04 8.680e-08
 58.69860    113.7 1.773e+04 1.189e-07
 58.70839    112.2 1.774e+04 1.283e-07
 58.71818    111.0 1.751e+04 1.090e-07
 58.72433    109.6 1.700e+04 6.978e-08
 58.72923    110.7 1.727e+04 9.228e-08
 58.73776    108.6 1.661e+04 5.072e-08
 58.74755    106.6 1.576e+04 3.280e-08
 58.76229    105.6 1.518e+04 2.371e-08
 58.78192    102.0 1.409e+04 1.464e-08
 58.80150     99.2 1.369e+04 1.463e-08
 58.81739     98.1 1.364e+04 1.674e-08
 58.82718     98.2 1.388e+04 1.950e-08
 58.84066     98.1 1.400e+04 2.231e-08
 58.86024     98.0 1.401e+04 2.258e-08
 58.87982     98.0 1.390e+04 2.166e-08
 58.89940     98.1 1.365e+04 1.945e-08
 58.91898     98.4 1.336e+04 1.706e-08
 58.93856     98.4 1.326e+04 1.590e-08
 58.95815     98.6 1.318e+04 1.527e-08
 58.98761     98.9 1.294e+04 1.412e-08
 59.02687     99.7 1.272e+04 1.251e-08
 59.06604    100.7 1.248e+04 1.063e-08
 59.10520    101.9 1.222e+04 8.937e-09
 59.14436    103.3 1.195e+04 7.426e-09
 59.18352    104.8 1.176e+04 6.379e-09
 59.22263    106.3 1.161e+04 5.652e-09
 59.26179    107.9 1.155e+04 5.583e-09
 59.30101    109.6 1.151e+04 5.586e-09
 59.34017    111.2 1.150e+04 5.847e-09
 59.37933    112.6 1.158e+04 6.861e-09
 59.41850    113.7 1.182e+04 8.604e-09
 59.44431    114.6 1.199e+04 1.030e-08
 59.46389    115.8 1.213e+04 1.053e-08
 59.49682    116.5 1.220e+04 1.148e-08
 59.52609    116.2 1.220e+04 1.185e-08
 59.54558    116.3 1.220e+04 1.199e-08
 59.56516    116.5 1.229e+04 1.245e-08
 59.58474    116.6 1.248e+04 1.333e-08
 59.60432    116.5 1.277e+04 1.523e-08
 59.62390    116.1 1.319e+04 1.885e-08
 59.64348    115.4 1.362e+04 2.336e-08
 59.65686    114.5 1.365e+04 2.430e-08
 59.66665    114.3 1.333e+04 2.069e-08
 59.68265    113.7 1.309e+04 1.959e-08
 59.70223    113.2 1.257e+04 1.615e-08
 59.72181    112.8 1.195e+04 1.213e-08
 59.74139    112.4 1.134e+04 8.817e-09
 59.76097    111.9 1.084e+04 6.548e-09
 59.78055    111.6 1.044e+04 4.996e-09
 59.80013    111.1 1.008e+04 3.782e-09
 59.81130    110.9 9.922e+03 3.431e-09
 59.82109    111.6 9.875e+03 3.317e-09
 59.84918    111.2 9.690e+03 3.017e-09
 59.88844    110.9 9.439e+03 2.757e-09
 59.92760    111.0 9.269e+03 2.623e-09
 59.96677    111.2 9.131e+03 2.521e-09
 60.00593    111.6 9.033e+03 2.377e-09
 60.04509    111.9 8.947e+03 2.203e-09
 60.07190    112.1 8.901e+03 2.056e-09
 60.09148    112.3 8.768e+03 1.734e-09
 60.12342    112.5 8.760e+03 1.656e-09
 60.15909    112.5 8.788e+03 1.666e-09
 60.17868    114.3 8.820e+03 1.758e-09
 60.20174    114.3 8.852e+03 1.779e-09
 60.24090    114.0 8.956e+03 1.894e-09
 60.28006    113.0 9.177e+03 2.148e-09
 60.31923    110.0 1.019e+04 2.543e-09
 60.35839    105.5 1.154e+04 3.122e-09
 60.38766     98.3 1.378e+04 8.925e-09
 60.40715     93.1 1.548e+04 2.875e-08
 60.42673     89.9 1.606e+04 5.592e-08
 60.44631     88.3 1.601e+04 6.198e-08
 60.46589     86.5 1.581e+04 4.594e-08
 60.48547     82.6 1.574e+04 3.083e-08
 60.49633     77.7 1.485e+04 2.180e-08
 60.50612     79.7 1.515e+04 2.517e-08
 60.52463     74.9 1.341e+04 1.770e-08
 60.53587     71.5 1.208e+04 1.470e-08
 60.54566     72.9 1.270e+04 1.765e-08
 60.56379     69.9 1.212e+04 1.480e-08
 60.58338     66.8 1.235e+04 1.486e-08
 60.60296     63.8 1.233e+04 1.511e-08
 60.62254     61.6 1.207e+04 1.425e-08
 60.64212     60.1 1.164e+04 1.193e-08
 60.66170     58.2 1.131e+04 9.166e-09
 60.68128     55.5 1.098e+04 6.963e-09
 60.70086     52.9 1.056e+04 5.964e-09
 60.72044     51.6 1.015e+04 5.546e-09
 60.74002     51.7 9.867e+03 5.080e-09
 60.75961     52.4 9.670e+03 4.438e-09
 60.77919     51.3 9.661e+03 2.965e-09
 60.79877     51.0 9.455e+03 2.571e-09
 60.82824     49.9 9.727e+03 2.272e-09
 60.86750     47.6 9.658e+03 2.200e-09
 60.89346     46.8 9.474e+03 2.060e-09
 60.90797     47.2 9.595e+03 2.319e-09
 60.92116     47.1 9.603e+03 2.372e-09
 60.94582     46.7 9.503e+03 2.214e-09
 60.98498     46.5 9.414e+03 2.187e-09
 61.02415     46.8 9.356e+03 2.129e-09
 61.06331     47.1 9.355e+03 2.017e-09
 61.10247     47.5 9.283e+03 1.859e-09
 61.14163     47.7 9.421e+03 1.930e-09
 61.18079     47.1 9.851e+03 2.276e-09
 61.21007     45.4 9.890e+03 2.304e-09
 61.22955     45.4 9.853e+03 2.305e-09
 61.24913     42.8 1.036e+04 3.042e-09
 61.26045     42.9 1.048e+04 3.777e-09
 61.27024     42.1 1.066e+04 4.091e-09
 61.28829     40.3 1.161e+04 6.744e-09
 61.30788     39.9 1.192e+04 8.917e-09
 61.32602     39.1 1.222e+04 1.049e-08
 61.33581     38.0 1.213e+04 1.041e-08
 61.34704     36.8 1.214e+04 1.059e-08
 61.36662     33.8 1.323e+04 1.207e-08
 61.38620     23.4 1.729e+04 2.440e-08
 61.40578     15.4 1.731e+04 6.656e-08
 61.42536     13.8 1.746e+04 1.107e-07
 61.44494     10.5 1.825e+04 9.425e-08
 61.46452     -0.8 1.823e+04 2.751e-08
 61.48411    -20.9 1.417e+04 1.832e-08
 61.50369    -30.8 1.677e+04 3.976e-08
 61.52327    -37.7 1.853e+04 7.820e-08
 61.54285    -45.6 1.891e+04 9.439e-08
 61.56243    -55.1 1.889e+04 8.211e-08
 61.58201    -65.9 1.788e+04 5.518e-08
 61.60159    -76.1 1.624e+04 4.069e-08
 61.61785    -84.2 1.535e+04 3.439e-08
 61.62764    -84.5 1.547e+04 3.411e-08
 61.64075    -93.3 1.495e+04 2.507e-08
 61.66034   -104.0 1.447e+04 1.834e-08
 61.67992   -115.6 1.376e+04 1.555e-08
 61.69950   -125.9 1.340e+04 1.492e-08
 61.71908   -134.4 1.312e+04 1.470e-08
 61.73866   -142.0 1.245e+04 1.279e-08
 61.75065   -149.0 1.143e+04 9.040e-09
 61.76044   -147.5 1.163e+04 9.584e-09
 61.77782   -153.9 1.055e+04 6.305e-09
 61.79740   -159.3 9.848e+03 4.424e-09
 61.81698   -163.8 9.530e+03 3.481e-09
 61.83657   -167.6 9.389e+03 2.970e-09
 61.85615   -170.9 9.329e+03 2.688e-09
 61.87573   -173.8 9.307e+03 2.601e-09
 61.89531   -176.7 9.321e+03 2.586e-09
 61.91489   -179.7 9.478e+03 2.647e-09
 61.93447   -182.9 9.613e+03 2.999e-09
 61.95405   -186.0 9.634e+03 3.603e-09
 61.97363   -188.9 9.742e+03 4.337e-09
 61.98503   -191.3 9.993e+03 5.139e-09
 61.99482   -192.6 1.062e+04 6.897e-09
 62.01280   -194.7 1.106e+04 8.095e-09
 62.03238   -196.8 1.143e+04 9.020e-09
 62.05196   -199.1 1.171e+04 9.587e-09
 62.07154   -201.5 1.189e+04 9.922e-09
 62.09112   -204.3 1.202e+04 1.016e-08
 62.11070   -207.6 1.220e+04 1.059e-08
 62.13028   -211.6 1.280e+04 1.208e-08
 62.14986   -216.3 1.399e+04 1.600e-08
 62.16549   -221.6 1.532e+04 2.305e-08
 62.17528   -219.5 1.539e+04 2.280e-08
 62.18902   -225.3 1.676e+04 3.479e-08
 62.20861   -231.7 1.760e+04 4.675e-08
 62.22819   -238.5 1.777e+04 5.320e-08
 62.24777   -245.7 1.768e+04 5.439e-08
 62.26735   -253.1 1.708e+04 4.695e-08
 62.28693   -260.7 1.623e+04 3.399e-08
 62.30651   -268.4 1.542e+04 2.377e-08
 62.32609   -276.0 1.491e+04 1.945e-08
 62.34242   -283.0 1.477e+04 1.879e-08
 62.35221   -285.2 1.425e+04 1.559e-08
 62.36525   -290.3 1.449e+04 2.064e-08
 62.38484   -294.5 1.470e+04 2.489e-08
 62.40442   -298.1 1.471e+04 2.602e-08
 62.42400   -301.1 1.453e+04 2.586e-08
 62.44358   -303.4 1.400e+04 2.151e-08
 62.46316   -305.4 1.337e+04 1.486e-08
 62.48274   -307.2 1.271e+04 9.734e-09
 62.50232   -308.6 1.214e+04 6.840e-09
 62.52190   -309.4 1.184e+04 5.715e-09
 62.54148   -309.7 1.176e+04 5.495e-09
 62.56107   -309.7 1.175e+04 5.492e-09
 62.58033   -309.6 1.179e+04 5.961e-09
 62.59012   -311.5 1.253e+04 7.545e-09
 62.60023   -311.9 1.355e+04 1.071e-08
 62.61981   -312.7 1.473e+04 1.578e-08
 62.63939   -313.8 1.589e+04 2.326e-08
 62.65897   -314.9 1.680e+04 3.298e-08
 62.67855   -315.8 1.735e+04 4.343e-08
 62.69813   -316.6 1.764e+04 5.466e-08
 62.70961   -317.1 1.773e+04 6.542e-08
 62.71940   -316.3 1.809e+04 7.645e-08
 62.73730   -316.8 1.817e+04 9.253e-08
 62.75688   -317.1 1.813e+04 9.843e-08
 62.77646   -317.3 1.795e+04 9.796e-08
 62.79604   -317.2 1.778e+04 8.910e-08
 62.81562   -316.8 1.756e+04 7.729e-08
 62.83026   -317.1 1.683e+04 5.760e-08
 62.84000   -317.2 1.658e+04 5.202e-08
 62.84979   -317.3 1.603e+04 4.289e-08
 62.85958   -317.3 1.576e+04 3.946e-08
 62.87431   -317.4 1.535e+04 3.499e-08
 62.89394   -317.9 1.481e+04 2.977e-08
 62.91353   -317.8 1.419e+04 2.425e-08
 62.93311   -317.5 1.350e+04 1.931e-08
 62.95269   -316.8 1.273e+04 1.509e-08
 62.97227   -315.8 1.208e+04 1.197e-08
 62.99185   -314.9 1.161e+04 9.772e-09
 63.00497   -313.9 1.126e+04 8.160e-09
 63.01476   -314.8 1.007e+04 3.639e-09
 63.03101   -313.7 9.855e+03 3.239e-09
 63.05059   -312.5 9.724e+03 2.997e-09
 63.06700   -311.2 9.620e+03 2.890e-09
 63.07679   -311.9 9.626e+03 3.088e-09
 63.08976   -310.6 9.582e+03 3.150e-09
 63.10934   -309.3 9.597e+03 3.338e-09
 63.12892   -308.0 9.625e+03 3.575e-09
 63.14850   -306.8 9.644e+03 3.832e-09
 63.16808   -305.6 9.653e+03 4.068e-09
 63.18766   -304.4 9.641e+03 4.265e-09
 63.20724   -303.2 9.613e+03 4.411e-09
 63.22682   -302.1 9.586e+03 4.520e-09
 63.24640   -300.9 9.561e+03 4.612e-09
 63.26598   -299.7 9.539e+03 4.692e-09
 63.28557   -298.6 9.519e+03 4.756e-09
 63.30515   -297.5 9.502e+03 4.792e-09
 63.32473   -296.3 9.480e+03 4.753e-09
 63.34431   -295.3 9.455e+03 4.683e-09
 63.36389   -294.2 9.420e+03 4.604e-09
 63.38347   -293.0 9.392e+03 4.532e-09
 63.40305   -291.9 9.386e+03 4.496e-09
 63.41981   -290.7 9.391e+03 4.487e-09
 63.42960   -291.2 9.412e+03 4.512e-09
 63.43419   -290.1 9.452e+03 4.657e-09
 63.44398   -291.0 9.516e+03 4.907e-09
 63.46180   -289.8 9.631e+03 5.331e-09
 63.48138   -288.7 9.780e+03 5.903e-09
 63.50096   -287.6 9.969e+03 6.603e-09
 63.52054   -286.5 1.019e+04 7.447e-09
 63.54012   -285.5 1.042e+04 8.396e-09
 63.55970   -284.5 1.065e+04 9.352e-09
 63.57928   -283.6 1.084e+04 1.016e-08
 63.59886   -282.8 1.094e+04 1.059e-08
 63.61844   -282.2 1.097e+04 1.070e-08
 63.63803   -281.6 1.097e+04 1.072e-08
 63.65761   -281.0 1.090e+04 1.062e-08
 63.67719   -280.3 1.075e+04 1.007e-08
 63.69677   -279.4 1.055e+04 9.164e-09
 63.71635   -278.5 1.035e+04 8.082e-09
 63.73593   -277.8 1.015e+04 6.883e-09
 63.75551   -277.2 9.953e+03 5.639e-09
 63.77509   -276.9 9.762e+03 4.582e-09
 63.79158   -276.6 9.593e+03 3.875e-09
 63.81126   -278.2 9.210e+03 3.072e-09
 63.84382   -275.4 8.917e+03 2.737e-09
 63.88298   -272.5 8.580e+03 2.459e-09
 63.92215   -270.0 8.469e+03 2.365e-09
 63.96131   -267.6 8.589e+03 2.385e-09
 64.00047   -265.4 8.765e+03 2.481e-09
 64.03963   -263.3 9.018e+03 2.726e-09
 64.07880   -261.4 9.335e+03 3.120e-09
 64.11796   -259.6 9.643e+03 3.522e-09
 64.14723   -257.1 9.794e+03 3.500e-09
 64.15876   -256.7 9.958e+03 3.586e-09
 64.16855   -258.4 9.992e+03 3.790e-09
 64.19618   -257.2 1.010e+04 3.672e-09
 64.23544   -257.1 1.004e+04 3.354e-09
 64.25948   -255.8 9.749e+03 2.768e-09
 64.27906   -255.2 9.561e+03 2.682e-09
 64.31377   -253.6 9.205e+03 2.054e-09
 64.35293   -251.8 8.934e+03 1.584e-09
 64.39209   -249.9 8.870e+03 1.375e-09
 64.43125   -247.9 8.882e+03 1.339e-09
 64.47042   -246.0 8.889e+03 1.339e-09
 64.50656   -244.2 9.000e+03 1.513e-09
 64.52614   -245.8 9.218e+03 1.876e-09
 64.54874   -244.0 9.481e+03 2.602e-09
 64.58790   -242.3 9.778e+03 3.537e-09
 64.62707   -240.7 1.003e+04 4.527e-09
 64.65634   -239.0 1.006e+04 5.056e-09
 64.67412   -239.2 1.001e+04 5.179e-09
 64.68391   -238.5 1.018e+04 5.642e-09
 64.69540   -238.2 1.016e+04 6.183e-09
 64.71499   -238.0 1.015e+04 6.232e-09
 64.73457   -237.6 1.004e+04 6.158e-09
 64.75415   -237.1 9.919e+03 5.845e-09
 64.77373   -236.6 9.765e+03 5.386e-09
 64.79331   -236.0 9.585e+03 4.861e-09
 64.81289   -235.5 9.398e+03 4.343e-09
 64.83247   -234.8 9.226e+03 3.859e-09
 64.85205   -234.1 9.094e+03 3.403e-09
 64.87163   -233.3 9.007e+03 3.036e-09
 64.90110   -232.9 8.931e+03 2.766e-09
 64.94036   -231.5 8.753e+03 2.516e-09
 64.97953   -230.4 8.510e+03 2.268e-09
 65.01869   -229.2 8.258e+03 2.065e-09
 65.05785   -227.9 8.060e+03 1.943e-09
 65.08916   -226.3 7.971e+03 1.914e-09
 65.10874   -224.2 8.313e+03 2.330e-09
 65.13617   -222.9 8.274e+03 2.328e-09
 65.17534   -221.6 8.210e+03 2.488e-09
 65.21450   -220.5 8.268e+03 2.827e-09
 65.24093   -219.4 8.422e+03 3.129e-09
 65.26051   -220.9 8.435e+03 3.147e-09
 65.29282   -219.7 8.599e+03 3.376e-09
 65.33198   -219.1 8.676e+03 3.479e-09
 65.36126   -217.9 8.639e+03 3.313e-09
 65.38074   -218.0 8.661e+03 3.343e-09
 65.40032   -218.2 8.665e+03 3.350e-09
 65.41990   -218.2 8.734e+03 3.497e-09
 65.43949   -218.2 8.822e+03 3.783e-09
 65.45907   -218.8 8.934e+03 4.300e-09
 65.47865   -219.2 9.056e+03 4.993e-09
 65.49823   -219.4 9.178e+03 5.642e-09
 65.51360   -219.3 9.267e+03 6.135e-09
 65.52339   -219.2 9.350e+03 6.466e-09
 65.53739   -219.2 9.430e+03 6.627e-09
 65.55697   -219.3 9.544e+03 6.896e-09
 65.57655   -219.9 9.821e+03 7.632e-09
 65.59613   -220.9 1.039e+04 9.516e-09
 65.60792   -221.9 1.128e+04 1.347e-08
 65.61771   -223.6 1.173e+04 1.633e-08
 65.63530   -224.5 1.269e+04 2.404e-08
 65.65488   -225.6 1.355e+04 3.328e-08
 65.67446   -227.1 1.419e+04 4.126e-08
 65.69404   -229.2 1.451e+04 4.531e-08
 65.71362   -231.5 1.457e+04 4.623e-08
 65.73320   -233.8 1.448e+04 4.478e-08
 65.75278   -236.0 1.421e+04 4.051e-08
 65.77236   -238.2 1.368e+04 3.276e-08
 65.79195   -240.0 1.295e+04 2.405e-08
 65.81153   -241.3 1.209e+04 1.631e-08
 65.83111   -242.1 1.126e+04 1.075e-08
 65.85069   -242.7 1.063e+04 7.278e-09
 65.87027   -243.1 1.020e+04 5.292e-09
 65.88985   -243.2 9.912e+03 4.119e-09
 65.90943   -243.2 9.732e+03 3.356e-09
 65.92844   -242.4 9.598e+03 2.882e-09
 65.93823   -243.1 9.653e+03 3.047e-09
 65.94859   -242.2 9.616e+03 2.823e-09
 65.96531   -241.4 9.639e+03 2.723e-09
 65.97520   -242.3 9.570e+03 2.759e-09
 65.99774   -240.2 9.584e+03 2.534e-09
 66.03690   -238.2 9.622e+03 2.429e-09
 66.07607   -236.4 9.641e+03 2.417e-09
 66.11523   -234.6 9.813e+03 2.434e-09
 66.15439   -232.9 1.000e+04 2.735e-09
 66.18366   -231.5 1.004e+04 3.032e-09
 66.20315   -231.2 1.007e+04 3.236e-09
 66.22273   -230.7 1.014e+04 3.703e-09
 66.24231   -230.6 1.022e+04 4.185e-09
 66.26189   -230.5 1.030e+04 4.773e-09
 66.28147   -230.5 1.037e+04 5.389e-09
 66.30105   -230.4 1.045e+04 6.076e-09
 66.32063   -230.3 1.052e+04 6.607e-09
 66.33250   -230.3 1.057e+04 7.132e-09
 66.34229   -230.9 1.069e+04 7.830e-09
 66.35307   -231.0 1.070e+04 8.221e-09
 66.36286   -231.1 1.061e+04 7.734e-09
 66.37938   -231.1 1.066e+04 8.062e-09
 66.39896   -231.2 1.075e+04 8.559e-09
 66.41854   -231.4 1.086e+04 9.247e-09
 66.43812   -231.5 1.095e+04 1.003e-08
 66.45770   -231.7 1.099e+04 1.078e-08
 66.47728   -231.8 1.098e+04 1.126e-08
 66.49686   -231.7 1.097e+04 1.140e-08
 66.51645   -231.5 1.071e+04 1.147e-08
 66.53603   -231.0 1.041e+04 1.024e-08
 66.55561   -230.3 1.009e+04 8.736e-09
 66.57519   -229.4 9.714e+03 6.999e-09
 66.59477   -228.2 9.341e+03 5.281e-09
 66.61435   -226.9 9.035e+03 3.915e-09
 66.63393   -225.7 8.874e+03 3.169e-09
 66.66340   -225.1 8.780e+03 2.778e-09
 66.69009   -224.2 8.558e+03 2.344e-09
 66.70967   -224.9 8.622e+03 2.433e-09
 66.74182   -223.8 8.583e+03 2.368e-09
 66.76811   -222.8 8.709e+03 2.543e-09
 66.78769   -222.7 8.856e+03 3.020e-09
 66.82015   -221.7 8.949e+03 3.249e-09
 66.84942   -220.5 8.943e+03 3.253e-09
 66.86891   -220.4 9.036e+03 3.509e-09
 66.88849   -220.2 9.161e+03 3.922e-09
 66.90807   -220.5 9.258e+03 4.274e-09
 66.92765   -221.1 9.359e+03 4.941e-09
 66.94723   -221.4 9.440e+03 5.369e-09
 66.97670   -221.9 9.511e+03 5.894e-09
 67.01596   -221.4 9.615e+03 6.400e-09
 67.05512   -220.6 9.658e+03 6.529e-09
 67.08439   -219.8 9.552e+03 5.868e-09
 67.10388   -219.6 9.523e+03 5.674e-09
 67.12346   -219.3 9.464e+03 5.352e-09
 67.14304   -219.1 9.396e+03 5.037e-09
 67.16262   -218.8 9.297e+03 4.656e-09
 67.18220   -218.5 9.218e+03 4.390e-09
 67.19255   -218.0 9.117e+03 4.086e-09
 67.20234   -218.8 9.112e+03 4.054e-09
 67.22136   -218.3 9.079e+03 3.922e-09
 67.24095   -217.8 9.067e+03 3.853e-09
 67.26053   -217.1 9.064e+03 3.829e-09
 67.28011   -216.5 9.128e+03 3.866e-09
 67.29969   -215.8 9.238e+03 4.022e-09
 67.31927   -215.1 9.373e+03 4.260e-09
 67.33885   -214.5 9.531e+03 4.507e-09
 67.35843   -214.1 9.644e+03 4.699e-09
 67.37801   -214.0 9.807e+03 5.374e-09
 67.39759   -215.0 1.134e+04 8.870e-09
 67.41447   -217.8 1.630e+04 2.625e-08
 67.42426   -217.3 1.655e+04 2.241e-08
 67.43676   -220.4 1.905e+04 7.273e-08
 67.45634   -223.6 1.968e+04 1.623e-07
 67.47097   -226.7 1.965e+04 2.106e-07
 67.48072   -228.2 1.972e+04 2.123e-07
 67.49051   -230.8 1.902e+04 2.085e-07
 67.50030   -232.7 1.854e+04 1.579e-07
 67.51009   -235.5 1.749e+04 1.039e-07
 67.51988   -238.6 1.606e+04 6.224e-08
 67.52967   -241.9 1.458e+04 3.807e-08
 67.53946   -244.7 1.343e+04 2.615e-08
 67.54925   -246.7 1.263e+04 2.086e-08
 67.55904   -247.7 1.230e+04 1.901e-08
 67.57378   -248.6 1.210e+04 1.797e-08
 67.59341   -249.6 1.168e+04 1.601e-08
 67.60739   -249.9 1.145e+04 1.513e-08
 67.61718   -249.9 1.126e+04 9.523e-09
 67.63257   -249.4 1.126e+04 9.497e-09
 67.65215   -249.2 1.130e+04 9.556e-09
 67.67173   -249.4 1.153e+04 9.713e-09
 67.69131   -250.4 1.291e+04 1.122e-08
 67.71089   -252.1 1.440e+04 1.914e-08
 67.73047   -253.4 1.551e+04 3.897e-08
 67.75005   -254.0 1.626e+04 7.222e-08
 67.76964   -254.6 1.678e+04 1.080e-07
 67.78165   -255.4 1.702e+04 1.266e-07
 67.78650   -254.9 1.739e+04 1.490e-07
 67.79401   -255.3 1.751e+04 1.573e-07
 67.80380   -256.1 1.756e+04 1.636e-07
 67.81359   -256.5 1.755e+04 1.641e-07
 67.81961   -256.9 1.747e+04 1.607e-07
 67.82450   -257.3 1.781e+04 2.029e-07
 67.83318   -258.0 1.777e+04 2.040e-07
 67.84297   -258.7 1.755e+04 1.955e-07
 67.85276   -259.4 1.735e+04 1.737e-07
 67.86255   -260.1 1.721e+04 1.490e-07
 67.87234   -260.8 1.713e+04 1.239e-07
 67.88213   -261.3 1.718e+04 1.003e-07
 67.89192   -261.7 1.727e+04 7.866e-08
 67.90171   -261.9 1.725e+04 5.950e-08
 67.91150   -262.0 1.707e+04 4.387e-08
 67.92129   -261.9 1.673e+04 3.260e-08
 67.93108   -261.9 1.630e+04 2.573e-08
 67.94087   -261.8 1.598e+04 2.225e-08
 67.95066   -261.7 1.589e+04 2.052e-08
 67.96540   -261.7 1.581e+04 1.815e-08
 67.98503   -261.3 1.579e+04 1.519e-08
 68.00461   -260.6 1.586e+04 1.383e-08
 68.02223   -259.9 1.592e+04 1.355e-08
 68.03197   -260.9 1.697e+04 6.027e-08
 68.03878   -260.7 1.718e+04 6.553e-08
 68.04857   -260.7 1.736e+04 7.193e-08
 68.05836   -260.6 1.748e+04 7.926e-08
 68.06815   -260.3 1.756e+04 8.749e-08
 68.07794   -259.8 1.765e+04 9.686e-08
 68.08773   -259.3 1.774e+04 1.073e-07
 68.09752   -259.0 1.775e+04 1.177e-07
 68.10731   -258.7 1.768e+04 1.274e-07
 68.11710   -258.4 1.759e+04 1.368e-07
 68.12689   -257.9 1.758e+04 1.462e-07
 68.13668   -257.5 1.763e+04 1.560e-07
 68.14384   -257.3 1.768e+04 1.640e-07
 68.14874   -257.2 1.788e+04 2.125e-07
 68.15626   -257.0 1.786e+04 2.136e-07
 68.16605   -256.8 1.776e+04 2.151e-07
 68.17585   -256.2 1.762e+04 2.193e-07
 68.18564   -255.6 1.753e+04 2.340e-07
 68.19543   -254.9 1.770e+04 2.546e-07
 68.20522   -254.5 1.788e+04 2.784e-07
 68.21501   -254.2 1.813e+04 2.944e-07
 68.22480   -254.0 1.841e+04 2.956e-07
 68.23445   -253.7 1.850e+04 2.949e-07
 68.23934   -254.4 2.030e+04 1.118e-07
 68.24438   -254.4 2.050e+04 9.740e-08
 68.25417   -254.6 2.045e+04 8.362e-08
 68.26396   -254.9 2.012e+04 7.157e-08
 68.27375   -255.2 1.946e+04 6.204e-08
 68.28354   -255.5 1.864e+04 5.465e-08
 68.29333   -255.8 1.770e+04 4.970e-08
 68.30312   -256.1 1.676e+04 4.658e-08
 68.31291   -256.4 1.592e+04 4.595e-08
 68.32254   -256.6 1.564e+04 4.619e-08
 68.32744   -257.2 1.575e+04 4.915e-08
 68.33249   -257.2 1.594e+04 5.195e-08
 68.34228   -257.0 1.598e+04 5.282e-08
 68.35702   -257.0 1.584e+04 5.186e-08
 68.37665   -257.0 1.508e+04 4.793e-08
 68.39623   -256.3 1.467e+04 4.351e-08
 68.41581   -255.2 1.427e+04 3.889e-08
 68.43539   -254.0 1.388e+04 3.507e-08
 68.44686   -252.8 1.353e+04 3.144e-08
 68.45665   -252.7 1.302e+04 2.143e-08
 68.47455   -251.7 1.271e+04 1.869e-08
 68.49414   -250.6 1.243e+04 1.671e-08
 68.50623   -249.5 1.218e+04 1.525e-08
 68.51602   -250.3 1.185e+04 1.180e-08
 68.53330   -249.3 1.163e+04 1.091e-08
 68.55288   -248.2 1.144e+04 1.014e-08
 68.57246   -247.2 1.131e+04 9.486e-09
 68.59204   -246.4 1.125e+04 9.045e-09
 68.61162   -245.7 1.124e+04 8.862e-09
 68.63120   -245.3 1.125e+04 8.759e-09
 68.65078   -245.1 1.125e+04 8.636e-09
 68.67037   -245.2 1.132e+04 8.891e-09
 68.68995   -245.4 1.148e+04 1.010e-08
 68.70953   -245.7 1.188e+04 1.283e-08
 68.72911   -246.1 1.244e+04 1.789e-08
 68.74869   -246.5 1.306e+04 2.534e-08
 68.76827   -247.1 1.361e+04 3.390e-08
 68.78785   -247.7 1.400e+04 4.083e-08
 68.80743   -248.5 1.414e+04 4.410e-08
 68.82701   -249.1 1.414e+04 4.466e-08
 68.84660   -249.6 1.403e+04 4.186e-08
 68.86170   -250.2 1.378e+04 3.531e-08
 68.86894   -251.7 1.301e+04 2.254e-08
 68.87341   -252.5 1.314e+04 2.313e-08
 68.88576   -253.3 1.264e+04 1.845e-08
 68.90534   -254.0 1.222e+04 1.512e-08
 68.92492   -254.5 1.189e+04 1.263e-08
 68.94450   -254.8 1.163e+04 1.076e-08
 68.96408   -255.1 1.140e+04 9.316e-09
 68.98366   -255.4 1.118e+04 8.181e-09
 69.00324   -255.6 1.104e+04 7.313e-09
 69.02282   -255.8 1.099e+04 6.761e-09
 69.04241   -256.0 1.098e+04 6.460e-09
 69.06199   -256.1 1.099e+04 6.344e-09
 69.08157   -256.2 1.101e+04 6.307e-09
 69.10115   -256.2 1.105e+04 6.286e-09
 69.12073   -256.2 1.109e+04 6.278e-09
 69.14031   -256.2 1.111e+04 6.253e-09
 69.15989   -256.2 1.113e+04 6.150e-09
 69.17947   -256.2 1.111e+04 6.033e-09
 69.19905   -255.9 1.110e+04 5.973e-09
 69.21864   -255.6 1.112e+04 5.983e-09
 69.23081   -255.2 1.117e+04 6.088e-09
 69.24060   -255.0 1.133e+04 6.783e-09
 69.25780   -254.5 1.143e+04 6.908e-09
 69.27655   -254.0 1.154e+04 7.031e-09
 69.28634   -253.9 1.157e+04 7.075e-09
 69.29696   -253.4 1.167e+04 7.202e-09
 69.31654   -252.9 1.173e+04 7.329e-09
 69.33612   -252.3 1.175e+04 7.416e-09
 69.35570   -251.6 1.174e+04 7.463e-09
 69.37528   -250.8 1.174e+04 7.473e-09
 69.39487   -249.9 1.172e+04 7.454e-09
 69.41445   -248.9 1.172e+04 7.450e-09
 69.43403   -247.8 1.172e+04 7.460e-09
 69.45361   -246.7 1.174e+04 7.489e-09
 69.47319   -245.8 1.184e+04 7.564e-09
 69.49277   -245.2 1.217e+04 7.904e-09
 69.51235   -245.0 1.261e+04 9.309e-09
 69.53193   -245.1 1.321e+04 1.256e-08
 69.55151   -245.2 1.399e+04 1.944e-08
 69.57110   -245.3 1.488e+04 3.210e-08
 69.58820   -245.3 1.572e+04 5.091e-08
 69.59799   -245.8 1.726e+04 1.246e-07
 69.61026   -246.1 1.781e+04 1.673e-07
 69.62984   -247.1 1.798e+04 1.847e-07
 69.64942   -248.0 1.791e+04 1.834e-07
 69.66900   -248.2 1.738e+04 1.462e-07
 69.68858   -248.3 1.680e+04 1.074e-07
 69.70118   -248.1 1.617e+04 7.916e-08
 69.71097   -248.2 1.687e+04 1.182e-07
 69.72774   -247.6 1.616e+04 8.496e-08
 69.74733   -246.5 1.558e+04 6.509e-08
 69.76691   -245.7 1.524e+04 5.470e-08
 69.78649   -245.0 1.500e+04 4.836e-08
 69.80607   -244.5 1.481e+04 4.372e-08
 69.82565   -244.0 1.463e+04 3.994e-08
 69.84523   -243.7 1.445e+04 3.657e-08
 69.86481   -243.3 1.430e+04 3.389e-08
 69.88439   -243.1 1.417e+04 3.171e-08
 69.90397   -242.9 1.405e+04 2.977e-08
 69.92355   -242.7 1.389e+04 2.765e-08
 69.94314   -242.4 1.369e+04 2.507e-08
 69.95539   -242.0 1.349e+04 2.242e-08
 69.96518   -242.6 1.316e+04 1.514e-08
 69.98230   -242.1 1.296e+04 1.336e-08
 70.00188   -241.5 1.278e+04 1.199e-08
 70.02146   -241.0 1.264e+04 1.095e-08
 70.04104   -240.3 1.253e+04 1.014e-08
 70.06062   -239.7 1.246e+04 9.430e-09
 70.08020   -239.1 1.242e+04 8.726e-09
 70.09978   -238.6 1.238e+04 7.965e-09
 70.11602   -238.2 1.234e+04 7.143e-09
 70.12581   -238.4 1.238e+04 6.007e-09
 70.13895   -238.0 1.234e+04 5.421e-09
 70.15853   -237.6 1.228e+04 4.821e-09
 70.17811   -237.1 1.218e+04 4.271e-09
 70.19769   -236.6 1.207e+04 3.819e-09
 70.21727   -236.0 1.196e+04 3.487e-09
 70.23685   -235.3 1.186e+04 3.271e-09
 70.25643   -234.7 1.177e+04 3.141e-09
 70.27601   -234.0 1.169e+04 3.053e-09
 70.29560   -233.3 1.162e+04 2.972e-09
 70.31278   -232.5 1.153e+04 2.866e-09
 70.32257   -232.8 1.163e+04 2.941e-09
 70.33476   -231.8 1.154e+04 2.822e-09
 70.35434   -230.5 1.145e+04 2.688e-09
 70.37392   -229.0 1.144e+04 2.636e-09
 70.39350   -228.0 1.147e+04 2.651e-09
 70.42297   -227.2 1.150e+04 2.659e-09
 70.46223   -225.5 1.144e+04 2.519e-09
 70.50139   -223.7 1.134e+04 2.347e-09
 70.54055   -221.8 1.122e+04 2.148e-09
 70.57972   -219.8 1.111e+04 1.922e-09
 70.61888   -217.6 1.101e+04 1.677e-09
 70.65804   -215.4 1.093e+04 1.443e-09
 70.69720   -213.2 1.088e+04 1.243e-09
 70.73637   -210.9 1.084e+04 1.085e-09
 70.77553   -208.7 1.081e+04 9.654e-10
 70.81469   -206.5 1.080e+04 8.770e-10
 70.85385   -204.3 1.079e+04 8.133e-10
 70.89301   -202.1 1.079e+04 7.665e-10
 70.93218   -199.9 1.079e+04 7.275e-10
 70.95569   -197.6 1.080e+04 6.880e-10
 70.97527   -197.2 1.086e+04 7.443e-10
 71.01050   -194.9 1.087e+04 6.908e-10
 71.03755   -192.5 1.088e+04 6.353e-10
 71.05713   -192.8 1.095e+04 7.121e-10
 71.08882   -190.4 1.097e+04 6.455e-10
 71.12799   -188.0 1.100e+04 5.911e-10
 71.16715   -185.7 1.104e+04 5.568e-10
 71.20631   -183.3 1.107e+04 5.462e-10
 71.24547   -180.9 1.108e+04 5.448e-10
 71.28464   -178.7 1.123e+04 5.476e-10
 71.32380   -176.6 1.137e+04 6.056e-10
 71.36296   -174.6 1.146e+04 7.152e-10
 71.40212   -172.6 1.156e+04 8.656e-10
 71.44128   -170.7 1.166e+04 1.063e-09
 71.48045   -168.9 1.176e+04 1.301e-09
 71.51961   -167.1 1.186e+04 1.566e-09
 71.55877   -165.2 1.196e+04 1.836e-09
 71.59793   -163.3 1.207e+04 2.111e-09
 71.63710   -161.4 1.223e+04 2.438e-09
 71.67626   -159.5 1.243e+04 2.915e-09
 71.71542   -157.9 1.264e+04 3.566e-09
 71.75234   -156.7 1.286e+04 4.224e-09
 71.77192   -157.2 1.293e+04 4.161e-09
 71.78537   -156.4 1.311e+04 4.501e-09
 71.80496   -155.2 1.313e+04 5.847e-09
 71.83291   -154.7 1.329e+04 6.233e-09
 71.87207   -154.5 1.332e+04 6.278e-09
 71.91123   -154.1 1.339e+04 5.824e-09
 71.95039   -153.3 1.340e+04 4.652e-09
 71.98956   -152.3 1.333e+04 3.518e-09
 72.02872   -150.9 1.327e+04 2.710e-09
 72.06788   -149.5 1.324e+04 2.234e-09
 72.10704   -148.0 1.322e+04 1.966e-09
 72.14620   -146.6 1.318e+04 1.772e-09
 72.18537   -145.1 1.312e+04 1.566e-09
 72.22453   -143.6 1.306e+04 1.332e-09
 72.26369   -141.9 1.304e+04 1.115e-09
 72.30285   -140.2 1.307e+04 9.577e-10
 72.34201   -138.3 1.314e+04 8.900e-10
 72.38118   -136.3 1.317e+04 8.843e-10
 72.42034   -134.3 1.326e+04 9.037e-10
 72.45950   -132.5 1.332e+04 1.017e-09
 72.48671   -130.7 1.330e+04 1.189e-09
 72.50629   -131.0 1.330e+04 1.238e-09
 72.53783   -129.2 1.334e+04 1.387e-09
 72.57699   -127.5 1.341e+04 1.568e-09
 72.61506   -125.9 1.350e+04 1.762e-09
 72.63464   -125.8 1.337e+04 1.538e-09
 72.65531   -124.5 1.348e+04 1.646e-09
 72.69447   -123.3 1.352e+04 1.683e-09
 72.73364   -122.1 1.357e+04 1.653e-09
 72.77280   -120.7 1.365e+04 1.403e-09
 72.81196   -119.1 1.378e+04 1.101e-09
 72.85112   -117.4 1.394e+04 8.783e-10
 72.89029   -115.6 1.409e+04 7.776e-10
 72.92945   -113.7 1.415e+04 7.649e-10
 72.96861   -111.9 1.436e+04 7.746e-10
 73.00777   -110.4 1.478e+04 1.013e-09
 73.04693   -109.0 1.462e+04 1.754e-09
 73.08610   -107.6 1.449e+04 3.046e-09
 73.12526   -106.2 1.442e+04 4.812e-09
 73.16442   -104.9 1.442e+04 6.579e-09
 73.20150   -103.8 1.455e+04 7.810e-09
 73.22108   -104.4 1.461e+04 8.659e-09
 73.24274   -103.5 1.479e+04 9.012e-09
 73.28191   -103.0 1.501e+04 8.778e-09
 73.32107   -102.9 1.532e+04 7.779e-09
 73.36023   -103.0 1.544e+04 7.311e-09
 73.38951   -103.2 1.543e+04 7.112e-09
 73.40899   -103.7 1.544e+04 7.203e-09
 73.42857   -104.2 1.530e+04 7.178e-09
 73.44815   -104.4 1.522e+04 6.337e-09
 73.46413   -104.3 1.525e+04 5.031e-09
 73.47392   -103.5 1.523e+04 5.816e-09
 73.48731   -103.6 1.530e+04 4.266e-09
 73.50689   -103.5 1.534e+04 3.115e-09
 73.52648   -103.5 1.535e+04 2.537e-09
 73.55594   -103.4 1.538e+04 2.193e-09
 73.59520   -102.9 1.526e+04 1.838e-09
 73.63437   -102.1 1.523e+04 1.770e-09
 73.67353   -101.4 1.530e+04 2.000e-09
 73.71269   -100.8 1.521e+04 3.590e-09
 73.75185   -100.1 1.524e+04 6.483e-09
 73.78113   -100.2 1.530e+04 8.073e-09
 73.80061   -100.2 1.533e+04 9.404e-09
 73.82019   -100.3 1.541e+04 1.090e-08
 73.83977   -100.4 1.539e+04 1.172e-08
 73.85935   -100.6 1.536e+04 1.259e-08
 73.87893   -100.6 1.529e+04 1.295e-08
 73.89852   -100.0 1.523e+04 1.474e-08
 73.91810   -100.1 1.522e+04 1.460e-08
 73.93567   -100.2 1.524e+04 1.447e-08
 73.94546    -99.9 1.520e+04 1.415e-08
 73.95726    -99.9 1.520e+04 1.410e-08
 73.97684    -99.8 1.525e+04 1.409e-08
 73.99642    -99.9 1.533e+04 1.423e-08
 74.01600   -100.6 1.575e+04 1.712e-08
 74.03558   -101.9 1.614e+04 3.152e-08
 74.05516   -103.2 1.664e+04 6.604e-08
 74.07475   -104.8 1.715e+04 1.192e-07
 74.09433   -106.7 1.747e+04 1.651e-07
 74.11391   -108.6 1.751e+04 1.774e-07
 74.13349   -109.8 1.709e+04 1.484e-07
 74.15307   -110.1 1.651e+04 8.621e-08
 74.17265   -110.2 1.600e+04 4.568e-08
 74.19223   -110.4 1.574e+04 2.547e-08
 74.21181   -110.5 1.558e+04 1.716e-08
 74.23139   -110.3 1.544e+04 1.425e-08
 74.25098   -109.8 1.533e+04 1.320e-08
 74.27056   -109.1 1.529e+04 1.270e-08
 74.29014   -108.7 1.530e+04 1.249e-08
 74.30285   -108.6 1.534e+04 1.262e-08
 74.30653   -109.1 1.565e+04 1.009e-08
 74.31339   -108.4 1.548e+04 7.590e-09
 74.32930   -108.6 1.569e+04 1.076e-08
 74.34888   -109.7 1.608e+04 1.846e-08
 74.36846   -111.4 1.645e+04 3.359e-08
 74.38804   -113.4 1.660e+04 5.253e-08
 74.40762   -115.3 1.647e+04 6.258e-08
 74.42721   -116.6 1.616e+04 6.266e-08
 74.44679   -116.9 1.538e+04 4.775e-08
 74.46637   -116.8 1.484e+04 2.948e-08
 74.48595   -116.7 1.439e+04 1.687e-08
 74.50553   -116.1 1.400e+04 9.787e-09
 74.52511   -115.1 1.375e+04 6.162e-09
 74.54469   -114.1 1.368e+04 4.283e-09
 74.56427   -113.0 1.369e+04 3.270e-09
 74.58385   -111.9 1.370e+04 2.756e-09
 74.60344   -110.9 1.368e+04 2.534e-09
 74.62302   -110.1 1.363e+04 2.433e-09
 74.64260   -109.0 1.356e+04 2.367e-09
 74.66025   -108.0 1.348e+04 2.355e-09
 74.67014   -108.4 1.355e+04 2.281e-09
 74.69175   -106.1 1.341e+04 2.507e-09
 74.73091   -104.1 1.336e+04 2.857e-09
 74.76018   -102.5 1.337e+04 3.627e-09
 74.77966   -101.6 1.333e+04 3.837e-09
 74.79925   -100.6 1.330e+04 4.027e-09
 74.81883    -99.8 1.328e+04 4.078e-09
 74.84830    -98.8 1.320e+04 3.946e-09
 74.88756    -96.6 1.312e+04 3.967e-09
 74.92672    -94.5 1.311e+04 3.581e-09
 74.96588    -92.4 1.316e+04 3.015e-09
 75.00504    -90.3 1.314e+04 2.385e-09
 75.04420    -88.1 1.312e+04 1.904e-09
 75.08337    -85.9 1.317e+04 1.717e-09
 75.12253    -84.0 1.319e+04 1.687e-09
 75.14327    -82.6 1.343e+04 1.757e-09
 75.16285    -82.5 1.360e+04 2.931e-09
 75.20085    -81.4 1.376e+04 3.960e-09
 75.24002    -80.6 1.394e+04 4.991e-09
 75.27918    -80.1 1.411e+04 5.622e-09
 75.31834    -79.7 1.418e+04 5.842e-09
 75.34761    -79.6 1.404e+04 5.235e-09
 75.36710    -79.5 1.405e+04 5.396e-09
 75.38483    -79.5 1.402e+04 5.745e-09
 75.39462    -79.7 1.392e+04 6.825e-09
 75.40626    -79.8 1.390e+04 7.163e-09
 75.42584    -79.9 1.388e+04 7.327e-09
 75.44542    -79.9 1.373e+04 7.278e-09
 75.46500    -79.9 1.369e+04 6.520e-09
 75.48458    -79.7 1.364e+04 5.422e-09
 75.51405    -79.5 1.353e+04 4.138e-09
 75.55331    -77.9 1.324e+04 2.598e-09
 75.59248    -76.2 1.314e+04 1.751e-09
 75.63164    -74.5 1.314e+04 1.353e-09
 75.67080    -72.6 1.312e+04 1.252e-09
 75.70996    -70.5 1.312e+04 1.231e-09
 75.74912    -68.5 1.317e+04 1.253e-09
 75.78829    -67.0 1.337e+04 1.551e-09
 75.82745    -65.7 1.361e+04 2.361e-09
 75.85672    -65.6 1.379e+04 3.574e-09
 75.87621    -65.4 1.380e+04 4.643e-09
 75.89579    -65.2 1.385e+04 5.779e-09
 75.91537    -65.2 1.388e+04 6.843e-09
 75.93495    -65.9 1.394e+04 8.342e-09
 75.95453    -67.4 1.399e+04 1.191e-08
 75.97276    -69.1 1.422e+04 1.969e-08
 75.98255    -69.6 1.425e+04 2.110e-08
 75.99369    -71.6 1.468e+04 3.249e-08
 76.01327    -74.2 1.501e+04 3.853e-08
 76.03285    -77.6 1.501e+04 3.813e-08
 76.05244    -81.1 1.440e+04 2.629e-08
 76.07202    -84.5 1.337e+04 1.490e-08
 76.09160    -87.3 1.254e+04 1.006e-08
 76.10940    -88.7 1.222e+04 8.640e-09
 76.11919    -89.2 1.212e+04 9.254e-09
 76.13076    -89.5 1.196e+04 8.506e-09
 76.15034    -89.5 1.185e+04 8.046e-09
 76.16992    -89.5 1.173e+04 7.643e-09
 76.18950    -89.2 1.162e+04 7.219e-09
 76.20908    -88.8 1.153e+04 6.786e-09
 76.22867    -88.6 1.148e+04 6.309e-09
 76.24825    -88.4 1.147e+04 5.857e-09
 76.26783    -88.4 1.145e+04 5.476e-09
 76.28741    -88.4 1.139e+04 5.064e-09
 76.30699    -88.5 1.140e+04 4.914e-09
 76.32657    -88.7 1.135e+04 4.740e-09
 76.34615    -88.7 1.132e+04 4.865e-09
 76.36573    -88.7 1.129e+04 5.117e-09
 76.38531    -88.6 1.134e+04 5.564e-09
 76.41478    -88.3 1.140e+04 6.036e-09
 76.45404    -87.6 1.138e+04 5.888e-09
 76.49321    -86.8 1.138e+04 5.554e-09
 76.52248    -85.8 1.126e+04 4.983e-09
 76.54196    -85.6 1.130e+04 4.934e-09
 76.56154    -85.5 1.144e+04 5.045e-09
 76.58113    -85.5 1.153e+04 5.434e-09
 76.60071    -85.4 1.160e+04 5.969e-09
 76.62029    -85.4 1.173e+04 6.751e-09
 76.63987    -85.6 1.191e+04 7.458e-09
 76.65945    -86.1 1.204e+04 7.940e-09
 76.68892    -87.1 1.206e+04 8.057e-09
 76.72818    -88.6 1.193e+04 8.414e-09
 76.76734    -90.0 1.163e+04 8.149e-09
 76.79661    -90.7 1.128e+04 7.548e-09
 76.81223    -91.4 1.106e+04 6.754e-09
 76.82202    -91.3 1.084e+04 6.146e-09
 76.83398    -91.8 1.063e+04 5.598e-09
 76.84377    -91.3 1.088e+04 7.435e-09
 76.85526    -91.6 1.068e+04 6.697e-09
 76.87484    -91.8 1.049e+04 6.071e-09
 76.89442    -91.9 1.035e+04 5.597e-09
 76.91400    -92.1 1.023e+04 5.219e-09
 76.93358    -92.2 1.014e+04 4.874e-09
 76.95317    -92.4 1.005e+04 4.522e-09
 76.97275    -92.6 9.951e+03 4.168e-09
 76.99233    -92.9 9.856e+03 3.856e-09
 77.01191    -93.1 9.800e+03 3.631e-09
 77.03149    -93.3 9.800e+03 3.547e-09
 77.05107    -93.4 9.851e+03 3.572e-09
 77.07065    -93.5 1.001e+04 3.896e-09
 77.09023    -93.6 1.022e+04 4.572e-09
 77.10981    -93.6 1.046e+04 5.602e-09
 77.12940    -93.4 1.070e+04 6.962e-09
 77.14898    -93.0 1.095e+04 8.420e-09
 77.16856    -92.7 1.118e+04 9.689e-09
 77.18814    -92.3 1.134e+04 1.060e-08
 77.20117    -92.0 1.147e+04 1.102e-08
 77.21096    -92.1 1.145e+04 1.152e-08
 77.22708    -91.8 1.157e+04 1.171e-08
 77.23687    -91.5 1.138e+04 1.088e-08
 77.24688    -91.1 1.152e+04 1.127e-08
 77.26646    -90.8 1.164e+04 1.137e-08
 77.28604    -90.4 1.172e+04 1.135e-08
 77.30563    -90.0 1.180e+04 1.131e-08
 77.32521    -89.5 1.187e+04 1.126e-08
 77.34479    -89.1 1.191e+04 1.118e-08
 77.36437    -88.6 1.201e+04 1.072e-08
 77.38395    -87.9 1.198e+04 9.933e-09
 77.40353    -87.2 1.186e+04 8.748e-09
 77.42311    -86.4 1.172e+04 7.319e-09
 77.44269    -85.5 1.160e+04 5.805e-09
 77.46227    -84.5 1.152e+04 4.392e-09
 77.48186    -83.5 1.149e+04 3.388e-09
 77.51132    -82.5 1.143e+04 2.732e-09
 77.54896    -80.6 1.119e+04 1.847e-09
 77.56854    -81.2 1.116e+04 1.578e-09
 77.58975    -78.3 1.093e+04 1.077e-09
 77.62891    -75.4 1.091e+04 8.090e-10
 77.65190    -72.7 1.095e+04 6.977e-10
 77.67148    -73.0 1.096e+04 8.682e-10
 77.70723    -70.2 1.097e+04 8.561e-10
 77.74640    -67.5 1.098e+04 8.936e-10
 77.78556    -64.8 1.101e+04 9.791e-10
 77.82472    -62.1 1.106e+04 1.121e-09
 77.86388    -59.5 1.112e+04 1.321e-09
 77.90304    -56.8 1.118e+04 1.583e-09
 77.94221    -54.2 1.122e+04 1.904e-09
 77.98137    -51.7 1.123e+04 2.225e-09
 78.02053    -49.3 1.125e+04 2.480e-09
 78.05969    -46.9 1.130e+04 2.643e-09
 78.09885    -44.8 1.143e+04 2.826e-09
 78.13802    -43.4 1.180e+04 3.354e-09
 78.17718    -42.9 1.224e+04 5.881e-09
 78.20645    -43.5 1.276e+04 1.176e-08
 78.22594    -43.5 1.316e+04 1.681e-08
 78.24552    -43.6 1.372e+04 2.450e-08
 78.26510    -44.3 1.441e+04 3.282e-08
 78.28314    -45.3 1.500e+04 3.890e-08
 78.29293    -46.2 1.483e+04 3.066e-08
 78.30426    -47.8 1.492e+04 3.073e-08
 78.32384    -49.2 1.473e+04 2.600e-08
 78.34342    -50.5 1.426e+04 1.881e-08
 78.36300    -51.5 1.372e+04 1.297e-08
 78.38259    -52.2 1.325e+04 9.279e-09
 78.40217    -52.5 1.283e+04 7.058e-09
 78.42175    -52.6 1.250e+04 5.696e-09
 78.44133    -52.3 1.224e+04 4.754e-09
 78.46091    -51.9 1.208e+04 4.096e-09
 78.48049    -51.5 1.199e+04 3.664e-09
 78.49118    -50.9 1.200e+04 3.450e-09
 78.50107    -52.9 1.193e+04 2.964e-09
 78.52964    -51.8 1.172e+04 2.375e-09
 78.56880    -50.7 1.155e+04 2.119e-09
 78.60796    -49.5 1.148e+04 1.937e-09
 78.64713    -48.1 1.143e+04 1.658e-09
 78.68629    -46.6 1.146e+04 1.339e-09
 78.72545    -45.1 1.160e+04 1.037e-09
 78.76461    -43.5 1.181e+04 8.035e-10
 78.80377    -42.0 1.191e+04 7.030e-10
 78.84294    -40.4 1.186e+04 7.037e-10
 78.88210    -38.7 1.186e+04 8.684e-10
 78.92126    -36.7 1.183e+04 1.135e-09
 78.96042    -34.4 1.188e+04 1.435e-09
 78.99812    -31.9 1.210e+04 1.641e-09
 79.01770    -32.0 1.219e+04 1.589e-09
 79.03875    -29.5 1.235e+04 1.535e-09
 79.07791    -26.9 1.256e+04 1.367e-09
 79.11707    -24.4 1.278e+04 1.255e-09
 79.15623    -22.3 1.311e+04 1.319e-09
 79.19540    -21.3 1.298e+04 2.384e-09
 79.23456    -19.6 1.286e+04 6.123e-09
 79.27372    -17.6 1.343e+04 1.090e-08
 79.30299    -16.7 1.407e+04 8.572e-09
 79.32087    -17.0 1.452e+04 6.652e-09
 79.33066    -16.6 1.503e+04 1.251e-08
 79.34206    -17.7 1.545e+04 1.221e-08
 79.36164    -18.8 1.532e+04 1.137e-08
 79.37490    -19.4 1.468e+04 1.054e-08
 79.38469    -18.2 1.660e+04 5.613e-08
 79.40080    -19.0 1.586e+04 3.084e-08
 79.42038    -19.3 1.505e+04 2.001e-08
 79.43996    -19.2 1.454e+04 1.553e-08
 79.45955    -18.7 1.428e+04 1.284e-08
 79.47913    -18.2 1.414e+04 1.034e-08
 79.49871    -17.8 1.397e+04 8.155e-09
 79.51829    -17.5 1.382e+04 6.838e-09
 79.53787    -17.2 1.370e+04 6.410e-09
 79.55745    -16.8 1.361e+04 6.423e-09
 79.57703    -16.3 1.344e+04 7.191e-09
 79.59661    -15.5 1.338e+04 8.128e-09
 79.62608    -14.9 1.331e+04 8.168e-09
 79.66534    -13.0 1.306e+04 7.077e-09
 79.70450    -11.0 1.294e+04 5.026e-09
 79.73249     -9.3 1.289e+04 3.675e-09
 79.75207     -8.9 1.269e+04 3.621e-09
 79.78283     -6.7 1.264e+04 3.043e-09
 79.82199     -4.5 1.270e+04 3.125e-09
 79.86115     -2.4 1.262e+04 3.888e-09
 79.90031      0.0 1.253e+04 5.174e-09
 79.93948      2.4 1.255e+04 5.761e-09
 79.97864      5.0 1.232e+04 4.856e-09
 80.01780      7.2 1.205e+04 3.863e-09
 80.05696      9.0 1.200e+04 3.323e-09
 80.09613     10.9 1.199e+04 3.707e-09
 80.13529     12.2 1.205e+04 5.509e-09
 80.16054     13.8 1.240e+04 1.010e-08
 80.18012     13.2 1.264e+04 8.119e-09
 80.21361     14.8 1.286e+04 1.450e-08
 80.25277     16.1 1.286e+04 1.566e-08
 80.29194     17.8 1.262e+04 1.348e-08
 80.33110     19.4 1.223e+04 1.075e-08
 80.37026     21.5 1.171e+04 8.385e-09
 80.40942     23.8 1.138e+04 6.430e-09
 80.44728     26.2 1.097e+04 5.514e-09
 80.46686     26.3 1.113e+04 5.232e-09
 80.48775     28.9 1.106e+04 5.365e-09
 80.52691     31.4 1.101e+04 6.284e-09
 80.56607     33.3 1.122e+04 8.788e-09
 80.60523     35.0 1.189e+04 1.545e-08
 80.63451     35.5 1.228e+04 2.301e-08
 80.65399     36.3 1.247e+04 2.838e-08
 80.67357     37.3 1.246e+04 2.832e-08
 80.69315     38.1 1.240e+04 2.693e-08
 80.72262     39.1 1.215e+04 2.093e-08
 80.76188     40.6 1.156e+04 1.525e-08
 80.80104     42.4 1.104e+04 1.038e-08
 80.82415     43.3 1.080e+04 8.372e-09
 80.83385     43.2 1.090e+04 9.097e-09
 80.84980     44.1 1.078e+04 8.172e-09
 80.86938     45.2 1.072e+04 7.416e-09
 80.88896     46.2 1.070e+04 6.873e-09
 80.90855     47.1 1.067e+04 6.519e-09
 80.92813     48.1 1.067e+04 6.321e-09
 80.94771     49.0 1.071e+04 6.174e-09
 80.96729     49.8 1.070e+04 6.009e-09
 80.98687     50.7 1.070e+04 6.078e-09
 80.99981     51.5 1.076e+04 6.331e-09
 81.00961     51.0 1.070e+04 4.814e-09
 81.02603     51.7 1.083e+04 5.145e-09
 81.04561     52.4 1.098e+04 5.967e-09
 81.06519     53.1 1.116e+04 7.278e-09
 81.08478     53.7 1.134e+04 8.685e-09
 81.10436     54.3 1.155e+04 9.979e-09
 81.12394     54.8 1.174e+04 1.116e-08
 81.14352     55.0 1.187e+04 1.234e-08
 81.16310     55.2 1.204e+04 1.374e-08
 81.18145     55.2 1.227e+04 1.570e-08
 81.19124     56.0 1.263e+04 1.517e-08
 81.20226     55.9 1.284e+04 1.534e-08
 81.22184     55.4 1.335e+04 1.753e-08
 81.24142     54.4 1.413e+04 2.578e-08
 81.26101     53.7 1.461e+04 4.150e-08
 81.28059     53.4 1.488e+04 5.600e-08
 81.30017     53.4 1.489e+04 5.595e-08
 81.31975     53.6 1.483e+04 4.858e-08
 81.33933     53.5 1.482e+04 3.512e-08
 81.35891     52.8 1.473e+04 2.407e-08
 81.37849     51.7 1.417e+04 2.025e-08
 81.39807     50.6 1.401e+04 2.148e-08
 81.41466     49.2 1.401e+04 2.912e-08
 81.42445     48.3 1.380e+04 2.733e-08
 81.43723     47.1 1.499e+04 5.847e-08
 81.45682     46.7 1.597e+04 1.102e-07
 81.47640     46.2 1.611e+04 1.239e-07
 81.49598     46.4 1.581e+04 1.118e-07
 81.51556     47.0 1.524e+04 7.623e-08
 81.53514     47.4 1.454e+04 4.529e-08
 81.54863     47.6 1.398e+04 2.838e-08
 81.55842     46.4 1.407e+04 2.223e-08
 81.57430     46.6 1.377e+04 1.534e-08
 81.59388     47.5 1.353e+04 1.255e-08
 81.61346     48.8 1.352e+04 1.168e-08
 81.63305     50.2 1.357e+04 1.150e-08
 81.65263     51.4 1.374e+04 1.147e-08
 81.67221     52.8 1.394e+04 1.187e-08
 81.69179     54.0 1.417e+04 1.267e-08
 81.71137     55.0 1.433e+04 1.404e-08
 81.73095     55.9 1.443e+04 1.626e-08
 81.75053     57.2 1.461e+04 2.051e-08
 81.77011     58.4 1.497e+04 2.763e-08
 81.78969     59.4 1.527e+04 3.730e-08
 81.80928     60.5 1.549e+04 5.007e-08
 81.82886     61.6 1.578e+04 6.726e-08
 81.83929     62.4 1.588e+04 8.688e-08
 81.84908     62.7 1.531e+04 1.145e-07
 81.86802     63.3 1.526e+04 1.095e-07
 81.88760     63.9 1.523e+04 9.115e-08
 81.90603     64.5 1.524e+04 6.689e-08
 81.91591     62.4 1.411e+04 5.345e-09
 81.93675     63.0 1.338e+04 3.921e-09
 81.97591     63.8 1.299e+04 4.492e-09
 82.01507     65.0 1.281e+04 7.583e-09
 82.05423     66.4 1.300e+04 1.201e-08
 82.09340     67.7 1.295e+04 1.261e-08
 82.13256     69.4 1.275e+04 1.123e-08
 82.17172     71.4 1.256e+04 8.017e-09
 82.21088     73.6 1.255e+04 4.672e-09
 82.25005     75.6 1.231e+04 3.800e-09
 82.28921     78.5 1.227e+04 3.892e-09
 82.31848     80.0 1.221e+04 3.702e-09
 82.33797     81.3 1.219e+04 3.715e-09
 82.35755     82.6 1.223e+04 3.889e-09
 82.37713     83.8 1.241e+04 4.292e-09
 82.39671     84.9 1.255e+04 4.969e-09
 82.41629     86.0 1.262e+04 5.903e-09
 82.43587     87.0 1.262e+04 7.057e-09
 82.45545     88.0 1.261e+04 8.352e-09
 82.47503     89.0 1.266e+04 9.795e-09
 82.49461     89.8 1.286e+04 1.141e-08
 82.51419     90.5 1.321e+04 1.329e-08
 82.53378     91.1 1.372e+04 1.548e-08
 82.55336     91.6 1.426e+04 1.828e-08
 82.57294     92.3 1.468e+04 2.242e-08
 82.59252     92.9 1.491e+04 2.836e-08
 82.61210     93.7 1.500e+04 3.669e-08
 82.63060     94.5 1.502e+04 4.714e-08
 82.64039     95.4 1.430e+04 2.352e-08
 82.65126     96.1 1.443e+04 2.792e-08
 82.66897     96.9 1.449e+04 3.263e-08
 82.67876     97.6 1.429e+04 2.942e-08
 82.69042     98.3 1.449e+04 3.555e-08
 82.71001     98.9 1.441e+04 3.739e-08
 82.72959     99.5 1.427e+04 3.590e-08
 82.74917    100.4 1.386e+04 3.011e-08
 82.76875    101.2 1.344e+04 2.191e-08
 82.78833    101.7 1.302e+04 1.501e-08
 82.80791    101.9 1.255e+04 1.166e-08
 82.82749    102.5 1.241e+04 1.141e-08
 82.84707    103.3 1.242e+04 1.150e-08
 82.86665    104.2 1.248e+04 1.202e-08
 82.88624    105.2 1.260e+04 1.306e-08
 82.90582    106.0 1.276e+04 1.439e-08
 82.92540    107.0 1.290e+04 1.584e-08
 82.94498    108.0 1.300e+04 1.746e-08
 82.96456    109.0 1.306e+04 1.911e-08
 82.98414    110.0 1.307e+04 2.052e-08
 82.99779    111.3 1.307e+04 2.177e-08
 83.00758    111.2 1.319e+04 2.310e-08
 83.02330    112.4 1.324e+04 2.484e-08
 83.04288    113.5 1.323e+04 2.612e-08
 83.06247    114.8 1.320e+04 2.687e-08
 83.08205    116.0 1.318e+04 2.716e-08
 83.09361    117.2 1.316e+04 2.689e-08
 83.10340    116.7 1.326e+04 2.668e-08
 83.12121    118.0 1.301e+04 2.434e-08
 83.14079    119.3 1.287e+04 2.285e-08
 83.16037    120.3 1.281e+04 2.213e-08
 83.17995    121.1 1.277e+04 2.186e-08
 83.19953    122.0 1.273e+04 2.188e-08
 83.21911    122.9 1.270e+04 2.186e-08
 83.23870    123.6 1.262e+04 2.127e-08
 83.25828    124.2 1.251e+04 1.951e-08
 83.27786    124.8 1.237e+04 1.699e-08
 83.29744    125.4 1.219e+04 1.420e-08
 83.31702    125.7 1.196e+04 1.172e-08
 83.33660    125.9 1.169e+04 1.046e-08
 83.35518    126.2 1.163e+04 1.048e-08
 83.36497    125.2 1.100e+04 6.688e-09
 83.37576    125.6 1.101e+04 8.169e-09
 83.39534    125.6 1.148e+04 1.174e-08
 83.41492    125.5 1.222e+04 1.887e-08
 83.43451    125.4 1.304e+04 3.037e-08
 83.45409    125.0 1.399e+04 4.937e-08
 83.47367    123.9 1.542e+04 1.007e-07
 83.48831    123.3 1.599e+04 1.479e-07
 83.49805    122.7 1.652e+04 2.144e-07
 83.50784    122.2 1.700e+04 3.226e-07
 83.51324    121.5 1.748e+04 4.307e-07
 83.51814    121.4 1.768e+04 4.108e-07
 83.52742    120.0 1.780e+04 4.097e-07
 83.53721    118.4 1.779e+04 3.679e-07
 83.55194    116.7 1.717e+04 1.368e-07
 83.57157    115.0 1.581e+04 5.028e-08
 83.59115    113.0 1.312e+04 1.400e-08
 83.62062    109.4 9.874e+03 4.305e-09
 83.65988    108.5 8.947e+03 1.568e-09
 83.69905    108.6 8.706e+03 1.402e-09
 83.73821    109.5 8.665e+03 1.398e-09
 83.77737    110.7 8.671e+03 1.436e-09
 83.81653    111.8 8.775e+03 1.520e-09
 83.85569    112.9 9.007e+03 1.661e-09
 83.89486    113.6 9.228e+03 1.810e-09
 83.92339    114.1 9.356e+03 1.953e-09
 83.93308    114.0 9.315e+03 1.920e-09
 83.94361    114.6 9.365e+03 2.008e-09
 83.96320    115.1 9.448e+03 2.159e-09
 83.98278    115.7 9.582e+03 2.434e-09
 84.00236    116.5 9.790e+03 2.889e-09
 84.02194    117.4 1.002e+04 3.589e-09
 84.04152    118.2 1.024e+04 4.525e-09
 84.06110    118.9 1.078e+04 5.784e-09
 84.07976    119.6 1.168e+04 8.109e-09
 84.08955    120.4 1.079e+04 7.283e-09
 84.10026    121.2 1.146e+04 9.065e-09
 84.11984    121.9 1.229e+04 1.174e-08
 84.13943    122.7 1.303e+04 1.554e-08
 84.15901    123.4 1.368e+04 2.020e-08
 84.17364    123.7 1.363e+04 2.249e-08
 84.18338    123.7 1.361e+04 2.550e-08
 84.19318    123.6 1.389e+04 3.117e-08
 84.20297    123.6 1.441e+04 4.093e-08
 84.21276    123.6 1.501e+04 5.636e-08
 84.22255    123.7 1.567e+04 7.986e-08
 84.23234    123.8 1.638e+04 1.136e-07
 84.24213    123.8 1.710e+04 1.617e-07
 84.25192    124.0 1.786e+04 2.282e-07
 84.26171    124.5 1.862e+04 3.124e-07
 84.26815    124.6 1.914e+04 4.228e-07
 84.27304    125.2 1.847e+04 3.386e-07
 84.28129    125.5 1.923e+04 4.732e-07
 84.29108    125.5 1.986e+04 5.995e-07
 84.30087    125.1 2.031e+04 5.989e-07
 84.31066    124.2 2.062e+04 5.358e-07
 84.32045    122.9 2.107e+04 3.959e-07
 84.33024    120.8 2.120e+04 2.592e-07
 84.34003    118.4 2.062e+04 1.619e-07
 84.34782    115.6 1.933e+04 1.051e-07
 84.35766    114.7 1.602e+04 5.377e-08
 84.37440    111.7 1.448e+04 3.737e-08
 84.39398    110.0 1.332e+04 2.966e-08
 84.41356    109.8 1.306e+04 2.654e-08
 84.43314    109.9 1.302e+04 2.478e-08
 84.44694    110.1 1.294e+04 2.273e-08
 84.45673    110.0 1.248e+04 1.762e-08
 84.47230    110.5 1.241e+04 1.666e-08
 84.49188    111.1 1.230e+04 1.559e-08
 84.51147    111.7 1.218e+04 1.448e-08
 84.53105    112.4 1.210e+04 1.367e-08
 84.56052    112.7 1.188e+04 1.206e-08
 84.59978    113.5 1.172e+04 1.023e-08
 84.62905    113.9 1.163e+04 9.427e-09
 84.64853    114.3 1.157e+04 8.735e-09
 84.66811    114.7 1.147e+04 7.839e-09
 84.68770    115.1 1.133e+04 6.837e-09
 84.70728    115.6 1.115e+04 5.849e-09
 84.72686    116.1 1.098e+04 4.923e-09
 84.74644    116.7 1.082e+04 4.166e-09
 84.76276    117.4 1.071e+04 3.512e-09
 84.77255    117.0 1.067e+04 4.111e-09
 84.79464    118.0 1.049e+04 2.823e-09
 84.81423    118.7 1.073e+04 4.252e-09
 84.82476    119.4 1.067e+04 3.820e-09
 84.84434    120.0 1.063e+04 3.541e-09
 84.86393    120.7 1.062e+04 3.335e-09
 84.88351    121.2 1.060e+04 3.161e-09
 84.90309    121.8 1.061e+04 3.001e-09
 84.92267    122.2 1.057e+04 2.834e-09
 84.95214    123.2 1.064e+04 2.793e-09
 84.99140    123.5 1.066e+04 2.390e-09
 85.03056    123.4 1.065e+04 1.951e-09
 85.06972    123.1 1.058e+04 1.511e-09
 85.10888    122.8 1.057e+04 1.344e-09
 85.14805    122.9 1.056e+04 1.354e-09
 85.17780    123.5 1.058e+04 1.366e-09
 85.19738    121.3 1.080e+04 1.594e-09
 85.22637    122.5 1.083e+04 1.582e-09
 85.26553    123.9 1.088e+04 1.626e-09
 85.30470    125.4 1.100e+04 1.880e-09
 85.34386    126.9 1.122e+04 2.547e-09
 85.38302    128.3 1.152e+04 3.535e-09
 85.42218    129.1 1.187e+04 4.575e-09
 85.46134    129.6 1.214e+04 4.639e-09
 85.49062    129.6 1.216e+04 4.708e-09
 85.51010    129.7 1.217e+04 4.615e-09
 85.52892    129.6 1.216e+04 4.349e-09
 85.53871    128.7 1.198e+04 3.811e-09
 85.54926    128.6 1.192e+04 3.531e-09
 85.56884    128.5 1.183e+04 3.323e-09
 85.58843    128.5 1.176e+04 3.285e-09
 85.60224    128.6 1.175e+04 3.332e-09
 85.61203    127.5 1.166e+04 3.298e-09
 85.62759    127.5 1.175e+04 3.716e-09
 85.64717    127.5 1.189e+04 4.453e-09
 85.66675    127.4 1.203e+04 5.606e-09
 85.68633    127.2 1.224e+04 7.198e-09
 85.70591    126.9 1.237e+04 9.244e-09
 85.72549    126.5 1.252e+04 1.093e-08
 85.74507    126.0 1.263e+04 1.107e-08
 85.76466    125.2 1.264e+04 1.047e-08
 85.78424    124.6 1.256e+04 9.572e-09
 85.80382    124.2 1.243e+04 8.182e-09
 85.82340    123.9 1.228e+04 7.070e-09
 85.84298    123.9 1.213e+04 5.602e-09
 85.86256    123.9 1.204e+04 4.840e-09
 85.88214    123.9 1.196e+04 3.732e-09
 85.89610    123.9 1.191e+04 3.062e-09
 85.90589    124.0 1.183e+04 3.451e-09
 85.93119    124.2 1.186e+04 2.751e-09
 85.97045    124.7 1.182e+04 2.390e-09
 86.00748    125.3 1.185e+04 2.539e-09
 86.02706    125.0 1.180e+04 2.512e-09
 86.04878    125.4 1.202e+04 3.326e-09
 86.08794    125.7 1.228e+04 4.241e-09
 86.12710    126.0 1.255e+04 4.830e-09
 86.16626    126.2 1.259e+04 4.774e-09
 86.20543    126.5 1.256e+04 4.344e-09
 86.24390    127.1 1.250e+04 3.446e-09
 86.26348    126.9 1.241e+04 3.248e-09
 86.28375    127.6 1.240e+04 2.639e-09
 86.32291    128.4 1.246e+04 2.142e-09
 86.36207    129.2 1.258e+04 1.779e-09
 86.40124    129.9 1.272e+04 1.504e-09
 86.44040    130.4 1.290e+04 1.267e-09
 86.47956    130.8 1.304e+04 1.080e-09
 86.51872    131.2 1.314e+04 1.016e-09
 86.55788    131.7 1.317e+04 1.010e-09
 86.59705    132.3 1.324e+04 1.008e-09
 86.63621    133.1 1.331e+04 1.028e-09
 86.67537    133.9 1.326e+04 1.111e-09
 86.71453    134.7 1.312e+04 1.279e-09
 86.75370    135.4 1.298e+04 1.514e-09
 86.79286    135.9 1.288e+04 1.753e-09
 86.83202    136.5 1.283e+04 1.942e-09
 86.85675    137.1 1.284e+04 2.013e-09
 86.87633    137.1 1.283e+04 1.837e-09
 86.91034    137.7 1.284e+04 1.843e-09
 86.94951    138.4 1.281e+04 1.816e-09
 86.97827    139.4 1.276e+04 1.692e-09
 86.99785    139.4 1.287e+04 1.802e-09
 87.02783    140.6 1.281e+04 1.607e-09
 87.06699    141.9 1.276e+04 1.389e-09
 87.10616    143.2 1.269e+04 1.174e-09
 87.14532    144.7 1.262e+04 9.771e-10
 87.18448    146.1 1.254e+04 8.077e-10
 87.22364    147.7 1.249e+04 6.707e-10
 87.26280    149.4 1.246e+04 5.711e-10
 87.30197    151.2 1.235e+04 5.204e-10
 87.34113    153.0 1.216e+04 5.228e-10
 87.38029    154.9 1.217e+04 5.267e-10
 87.41945    156.8 1.213e+04 5.513e-10
 87.45861    158.7 1.205e+04 6.093e-10
 87.49778    160.7 1.196e+04 6.960e-10
 87.53694    162.8 1.188e+04 8.048e-10
 87.57610    164.8 1.181e+04 9.302e-10
 87.61526    166.9 1.174e+04 1.071e-09
 87.65443    169.1 1.164e+04 1.243e-09
 87.68643    171.1 1.157e+04 1.449e-09
 87.70548    171.1 1.171e+04 1.327e-09
 87.71264    171.3 1.178e+04 9.113e-10
 87.73275    173.2 1.167e+04 9.727e-10
 87.77191    175.0 1.158e+04 1.022e-09
 87.81107    176.7 1.149e+04 1.069e-09
 87.85024    178.4 1.139e+04 1.125e-09
 87.88940    180.2 1.128e+04 1.192e-09
 87.92856    182.0 1.118e+04 1.327e-09
 87.96772    184.1 1.116e+04 1.605e-09
 88.00689    186.3 1.129e+04 2.077e-09
 88.04605    188.0 1.146e+04 2.659e-09
 88.06993    188.5 1.147e+04 2.960e-09
 88.07962    188.6 1.149e+04 2.982e-09
 88.09481    189.5 1.148e+04 3.418e-09
 88.11087    190.7 1.155e+04 4.160e-09
 88.12066    190.5 1.167e+04 4.239e-09
 88.13397    191.4 1.182e+04 5.111e-09
 88.15355    192.1 1.194e+04 5.794e-09
 88.17313    192.4 1.202e+04 6.168e-09
 88.19271    192.9 1.201e+04 6.471e-09
 88.21229    193.2 1.197e+04 6.540e-09
 88.24176    194.1 1.181e+04 5.894e-09
 88.28102    195.1 1.169e+04 5.764e-09
 88.32018    196.2 1.158e+04 5.563e-09
 88.34946    196.4 1.163e+04 5.823e-09
 88.36894    196.6 1.166e+04 6.074e-09
 88.38852    196.9 1.168e+04 6.343e-09
 88.40810    197.2 1.167e+04 6.385e-09
 88.42723    197.5 1.167e+04 6.333e-09
 88.44691    197.3 1.182e+04 6.620e-09
 88.47683    198.5 1.153e+04 5.075e-09
 88.50611    199.0 1.129e+04 4.236e-09
 88.52559    199.5 1.113e+04 3.751e-09
 88.53550    200.4 1.099e+04 3.436e-09
 88.55518    201.2 1.086e+04 3.016e-09
 88.58443    202.2 1.084e+04 3.090e-09
 88.60391    203.1 1.082e+04 3.176e-09
 88.62349    204.1 1.080e+04 3.319e-09
 88.64308    205.2 1.079e+04 3.566e-09
 88.66266    206.1 1.082e+04 3.926e-09
 88.68224    207.0 1.088e+04 4.409e-09
 88.70182    207.9 1.097e+04 5.029e-09
 88.72140    208.6 1.111e+04 5.807e-09
 88.74098    209.3 1.128e+04 6.800e-09
 88.76056    209.9 1.148e+04 8.085e-09
 88.78014    210.5 1.168e+04 9.670e-09
 88.79441    211.0 1.187e+04 1.146e-08
 88.80420    211.0 1.183e+04 1.107e-08
 88.81931    211.5 1.196e+04 1.263e-08
 88.83889    212.0 1.203e+04 1.381e-08
 88.85847    212.4 1.205e+04 1.448e-08
 88.87805    212.9 1.205e+04 1.479e-08
 88.89763    213.4 1.208e+04 1.500e-08
 88.91721    213.8 1.218e+04 1.534e-08
 88.93679    214.0 1.234e+04 1.600e-08
 88.95034    214.1 1.251e+04 1.715e-08
 88.96013    214.0 1.266e+04 1.744e-08
 88.97595    214.0 1.290e+04 1.987e-08
 88.99554    213.8 1.316e+04 2.299e-08
 89.01512    213.4 1.338e+04 2.639e-08
 89.03470    212.9 1.356e+04 2.965e-08
 89.05428    212.7 1.369e+04 3.230e-08
 89.07386    212.6 1.381e+04 3.408e-08
 89.08850    212.6 1.385e+04 3.451e-08
 89.09824    212.6 1.401e+04 3.551e-08
 89.10803    212.6 1.427e+04 3.733e-08
 89.11782    212.5 1.459e+04 4.010e-08
 89.12761    212.2 1.496e+04 4.437e-08
 89.13740    211.8 1.538e+04 5.088e-08
 89.14719    211.2 1.588e+04 6.053e-08
 89.15660    210.6 1.636e+04 7.414e-08
 89.16150    210.5 1.730e+04 1.085e-07
 89.16256    209.7 1.770e+04 1.335e-07
 89.16746    209.0 1.738e+04 1.263e-07
 89.17656    208.4 1.762e+04 1.466e-07
 89.18635    207.4 1.785e+04 1.641e-07
 89.19614    206.6 1.794e+04 1.705e-07
 89.20593    205.4 1.793e+04 1.695e-07
 89.21572    204.6 1.787e+04 1.664e-07
 89.23046    203.7 1.766e+04 1.571e-07
 89.25009    203.0 1.670e+04 1.001e-07
 89.26967    202.9 1.531e+04 5.239e-08
 89.28925    202.8 1.368e+04 2.632e-08
 89.30883    202.8 1.295e+04 1.786e-08
 89.32841    203.3 1.294e+04 1.756e-08
 89.34799    204.5 1.302e+04 1.836e-08
 89.36519    205.2 1.330e+04 1.997e-08
 89.37498    204.4 1.335e+04 2.056e-08
 89.38716    204.0 1.462e+04 3.395e-08
 89.40179    203.2 1.534e+04 4.361e-08
 89.41154    202.3 1.596e+04 5.753e-08
 89.42133    201.0 1.658e+04 8.068e-08
 89.43112    199.4 1.722e+04 1.162e-07
 89.44091    197.6 1.767e+04 1.565e-07
 89.45070    195.7 1.779e+04 1.792e-07
 89.46049    194.1 1.772e+04 1.862e-07
 89.47028    192.7 1.764e+04 1.765e-07
 89.48501    191.3 1.723e+04 1.308e-07
 89.50464    189.7 1.603e+04 5.842e-08
 89.51899    188.6 1.449e+04 2.045e-08
 89.52878    189.5 1.444e+04 2.980e-08
 89.54381    188.9 1.338e+04 1.343e-08
 89.57327    187.6 1.254e+04 4.904e-09
 89.61253    186.8 1.152e+04 3.004e-09
 89.65170    187.0 1.136e+04 3.023e-09
 89.69086    187.5 1.128e+04 3.251e-09
 89.73002    188.1 1.131e+04 3.897e-09
 89.76918    189.1 1.141e+04 4.779e-09
 89.78992    189.3 1.142e+04 4.961e-09
 89.79961    189.6 1.139e+04 4.761e-09
 89.81794    190.1 1.141e+04 4.759e-09
 89.83752    190.4 1.143e+04 4.789e-09
 89.85710    190.7 1.143e+04 4.786e-09
 89.87638    191.1 1.142e+04 4.746e-09
 89.88617    192.3 1.124e+04 3.756e-09
 89.89627    192.7 1.124e+04 3.687e-09
 89.91585    193.3 1.126e+04 3.636e-09
 89.93543    193.8 1.127e+04 3.620e-09
 89.95501    194.5 1.126e+04 3.611e-09
 89.97459    195.1 1.125e+04 3.616e-09
 89.99417    195.9 1.123e+04 3.653e-09
 90.01375    196.7 1.122e+04 3.730e-09
 90.03333    197.5 1.121e+04 3.863e-09
 90.05291    198.3 1.122e+04 4.030e-09
 90.07249    199.1 1.127e+04 4.218e-09
 90.09208    199.9 1.134e+04 4.474e-09
 90.11166    200.7 1.136e+04 4.739e-09
 90.13124    201.5 1.133e+04 5.008e-09
 90.15082    202.4 1.132e+04 4.985e-09
 90.17040    202.9 1.127e+04 4.886e-09
 90.18998    203.8 1.123e+04 4.720e-09
 90.20466    204.4 1.114e+04 4.496e-09
 90.21445    204.9 1.118e+04 4.201e-09
 90.23903    207.1 1.132e+04 4.783e-09
 90.27829    208.9 1.127e+04 4.912e-09
 90.31745    210.3 1.124e+04 4.835e-09
 90.35662    211.6 1.123e+04 4.665e-09
 90.39578    212.7 1.124e+04 4.463e-09
 90.43494    213.9 1.127e+04 4.258e-09
 90.47410    215.0 1.131e+04 4.111e-09
 90.51326    216.2 1.133e+04 3.995e-09
 90.55243    217.3 1.128e+04 3.967e-09
 90.59137    218.5 1.125e+04 4.076e-09
 90.61095    218.6 1.118e+04 3.245e-09
 90.63075    219.6 1.101e+04 3.169e-09
 90.66991    220.7 1.100e+04 3.222e-09
 90.70908    221.7 1.105e+04 3.455e-09
 90.74824    222.4 1.115e+04 3.861e-09
 90.78740    222.8 1.135e+04 4.539e-09
 90.81667    222.3 1.153e+04 5.206e-09
 90.83616    221.9 1.174e+04 6.030e-09
 90.85574    221.5 1.204e+04 7.620e-09
 90.87532    221.0 1.236e+04 9.839e-09
 90.89490    220.7 1.268e+04 1.261e-08
 90.91448    220.5 1.293e+04 1.538e-08
 90.93406    220.4 1.316e+04 1.665e-08
 90.95364    220.3 1.320e+04 1.639e-08
 90.96815    220.2 1.316e+04 1.567e-08
 90.97794    220.9 1.305e+04 1.515e-08
 90.99281    220.8 1.301e+04 1.475e-08
 91.01239    221.1 1.294e+04 1.482e-08
 91.03197    221.4 1.286e+04 1.425e-08
 91.04423    221.2 1.261e+04 1.201e-08
 91.06391    221.5 1.243e+04 1.054e-08
 91.10070    222.0 1.215e+04 8.276e-09
 91.13986    222.4 1.183e+04 6.123e-09
 91.17902    223.1 1.151e+04 4.708e-09
 91.21818    224.1 1.122e+04 4.125e-09
 91.25735    225.5 1.114e+04 4.092e-09
 91.29651    227.2 1.116e+04 4.154e-09
 91.32573    229.0 1.127e+04 4.344e-09
 91.34532    229.4 1.107e+04 3.625e-09
 91.37483    231.2 1.120e+04 3.893e-09
 91.40411    231.6 1.122e+04 3.920e-09
 91.42359    232.0 1.123e+04 3.950e-09
 91.44317    232.5 1.122e+04 3.950e-09
 91.45898    233.1 1.119e+04 3.901e-09
 91.46877    233.1 1.128e+04 4.200e-09
 91.48233    233.9 1.126e+04 4.101e-09
 91.50191    234.8 1.123e+04 3.998e-09
 91.52150    235.9 1.121e+04 3.920e-09
 91.54108    237.0 1.121e+04 3.906e-09
 91.56066    238.2 1.122e+04 3.931e-09
 91.58024    239.3 1.126e+04 3.990e-09
 91.59982    240.4 1.132e+04 4.093e-09
 91.61940    241.5 1.140e+04 4.247e-09
 91.63898    242.5 1.149e+04 4.448e-09
 91.65856    243.5 1.158e+04 4.689e-09
 91.67814    244.3 1.168e+04 4.960e-09
 91.69272    245.0 1.176e+04 5.252e-09
 91.70251    245.6 1.177e+04 5.763e-09
 91.71731    246.3 1.185e+04 6.053e-09
 91.73689    246.8 1.193e+04 6.323e-09
 91.75647    247.3 1.202e+04 6.589e-09
 91.77605    247.5 1.211e+04 6.835e-09
 91.79563    247.6 1.221e+04 7.023e-09
 91.81521    247.6 1.234e+04 7.127e-09
 91.83479    247.5 1.247e+04 7.132e-09
 91.85437    247.3 1.252e+04 7.113e-09
 91.87382    246.9 1.255e+04 7.037e-09
 91.88361    246.5 1.260e+04 7.034e-09
 91.89354    246.0 1.263e+04 6.660e-09
 91.91312    245.6 1.261e+04 6.134e-09
 91.93270    245.3 1.256e+04 5.563e-09
 91.95228    245.1 1.250e+04 5.073e-09
 91.97186    245.1 1.247e+04 4.745e-09
 91.99144    245.2 1.247e+04 4.704e-09
 92.01102    245.5 1.247e+04 4.750e-09
 92.03060    245.8 1.248e+04 4.991e-09
 92.05012    246.3 1.255e+04 5.571e-09
 92.06970    246.8 1.266e+04 6.459e-09
 92.08935    247.2 1.288e+04 7.698e-09
 92.10893    247.6 1.308e+04 9.028e-09
 92.12851    247.8 1.331e+04 9.965e-09
 92.14809    247.9 1.335e+04 9.905e-09
 92.16767    248.0 1.336e+04 9.407e-09
 92.18725    248.1 1.329e+04 8.349e-09
 92.20683    248.2 1.318e+04 7.054e-09
 92.22641    248.3 1.306e+04 5.848e-09
 92.24600    248.3 1.293e+04 4.928e-09
 92.26558    248.5 1.278e+04 4.433e-09
 92.28516    248.7 1.270e+04 4.383e-09
 92.29845    249.2 1.270e+04 4.404e-09
 92.30824    248.5 1.262e+04 3.439e-09
 92.32432    248.9 1.259e+04 3.701e-09
 92.34390    249.3 1.264e+04 4.243e-09
 92.36348    249.7 1.274e+04 5.042e-09
 92.38306    250.1 1.288e+04 6.027e-09
 92.40264    250.4 1.304e+04 6.947e-09
 92.41730    250.5 1.319e+04 7.252e-09
 92.42709    250.6 1.305e+04 6.487e-09
 92.44181    250.5 1.305e+04 6.482e-09
 92.46139    250.5 1.306e+04 6.367e-09
 92.48097    250.3 1.305e+04 5.794e-09
 92.51044    250.6 1.303e+04 5.353e-09
 92.54970    250.9 1.283e+04 4.221e-09
 92.58886    251.7 1.260e+04 3.389e-09
 92.62802    252.8 1.235e+04 2.736e-09
 92.66718    254.1 1.217e+04 2.226e-09
 92.70370    255.7 1.218e+04 2.111e-09
 92.72328    255.3 1.208e+04 1.834e-09
 92.74551    257.2 1.210e+04 1.936e-09
 92.77489    259.1 1.217e+04 2.158e-09
 92.79447    259.9 1.193e+04 1.907e-09
 92.82383    261.7 1.203e+04 2.149e-09
 92.86300    263.5 1.217e+04 2.439e-09
 92.90216    265.1 1.226e+04 2.703e-09
 92.93143    265.8 1.228e+04 2.962e-09
 92.95092    266.7 1.229e+04 3.261e-09
 92.97050    267.6 1.233e+04 3.573e-09
 92.99008    268.4 1.240e+04 3.859e-09
 93.00966    269.2 1.253e+04 4.369e-09
 93.02924    269.7 1.262e+04 4.813e-09
 93.05871    271.5 1.277e+04 5.502e-09
 93.08808    271.7 1.292e+04 6.539e-09
 93.10756    271.8 1.302e+04 7.419e-09
 93.12714    271.9 1.311e+04 8.244e-09
 93.13792    271.9 1.318e+04 8.849e-09
 93.14287    271.7 1.313e+04 8.377e-09
 93.15167    272.3 1.316e+04 8.955e-09
 93.16631    272.3 1.321e+04 9.546e-09
 93.18589    272.2 1.322e+04 9.677e-09
 93.20547    272.1 1.323e+04 9.648e-09
 93.22505    272.0 1.322e+04 9.545e-09
 93.24463    272.0 1.317e+04 9.306e-09
 93.26421    272.0 1.308e+04 8.916e-09
 93.28379    272.2 1.296e+04 8.376e-09
 93.30337    272.4 1.284e+04 7.633e-09
 93.32296    272.7 1.272e+04 6.754e-09
 93.34254    273.0 1.260e+04 5.844e-09
 93.36212    273.4 1.249e+04 5.034e-09
 93.38170    273.8 1.240e+04 4.404e-09
 93.40128    274.1 1.230e+04 3.969e-09
 93.42086    274.6 1.220e+04 3.692e-09
 93.44044    275.1 1.207e+04 3.570e-09
 93.46002    275.7 1.198e+04 3.531e-09
 93.47960    276.4 1.186e+04 3.558e-09
 93.49919    277.2 1.183e+04 3.588e-09
 93.51877    277.8 1.170e+04 3.601e-09
 93.53835    278.8 1.165e+04 3.676e-09
 93.55277    279.8 1.162e+04 3.832e-09
 93.56256    280.0 1.146e+04 3.260e-09
 93.57751    281.0 1.144e+04 3.437e-09
 93.59709    282.4 1.147e+04 3.655e-09
 93.61667    283.1 1.150e+04 3.831e-09
 93.63625    284.5 1.154e+04 4.120e-09
 93.65583    285.4 1.160e+04 4.421e-09
 93.68530    287.1 1.149e+04 4.373e-09
 93.72456    289.1 1.160e+04 5.065e-09
 93.75384    289.6 1.169e+04 5.674e-09
 93.77332    290.2 1.180e+04 6.257e-09
 93.79290    290.6 1.195e+04 7.035e-09
 93.81248    290.9 1.217e+04 8.164e-09
 93.83206    290.9 1.245e+04 9.788e-09
 93.85165    290.9 1.274e+04 1.184e-08
 93.86646    290.8 1.298e+04 1.405e-08
 93.87625    291.0 1.275e+04 1.228e-08
 93.89081    291.0 1.297e+04 1.424e-08
 93.91039    291.0 1.313e+04 1.586e-08
 93.92997    291.1 1.322e+04 1.691e-08
 93.94955    291.2 1.330e+04 1.746e-08
 93.96761    291.3 1.333e+04 1.740e-08
 93.97740    291.2 1.347e+04 2.058e-08
 93.98871    291.2 1.369e+04 2.214e-08
 94.00829    291.2 1.384e+04 2.230e-08
 94.02787    291.2 1.390e+04 2.119e-08
 94.04746    291.0 1.384e+04 1.816e-08
 94.06704    290.9 1.364e+04 1.486e-08
 94.08662    290.7 1.331e+04 1.249e-08
 94.10620    290.6 1.299e+04 1.153e-08
 94.12578    290.7 1.288e+04 1.152e-08
 94.14536    290.8 1.278e+04 1.227e-08
 94.16494    291.2 1.285e+04 1.441e-08
 94.18452    291.8 1.304e+04 1.749e-08
 94.20410    292.5 1.326e+04 2.097e-08
 94.22369    293.1 1.348e+04 2.458e-08
 94.23364    293.7 1.371e+04 2.803e-08
 94.24343    293.8 1.390e+04 3.143e-08
 94.26285    294.1 1.415e+04 3.422e-08
 94.28243    294.1 1.426e+04 3.439e-08
 94.30201    294.0 1.426e+04 3.379e-08
 94.32159    293.7 1.415e+04 3.102e-08
 94.34117    293.2 1.391e+04 2.621e-08
 94.36075    292.5 1.365e+04 2.229e-08
 94.38033    291.7 1.361e+04 2.180e-08
 94.39224    290.9 1.367e+04 2.257e-08
 94.40203    291.3 1.420e+04 2.858e-08
 94.41950    290.6 1.435e+04 3.137e-08
 94.43908    289.7 1.482e+04 3.954e-08
 94.45866    288.6 1.542e+04 5.010e-08
 94.47824    286.8 1.579e+04 5.307e-08
 94.49782    284.5 1.578e+04 5.042e-08
 94.51740    282.4 1.550e+04 3.697e-08
 94.53698    280.5 1.466e+04 1.801e-08
 94.55656    278.0 1.290e+04 6.159e-09
 94.57615    274.6 1.074e+04 3.102e-09
 94.59103    272.8 1.035e+04 2.969e-09
 94.60082    272.5 1.043e+04 3.361e-09
 94.61531    272.6 1.043e+04 3.359e-09
 94.63489    272.9 1.045e+04 3.375e-09
 94.65447    273.3 1.052e+04 3.518e-09
 94.67405    273.7 1.070e+04 3.999e-09
 94.69363    274.3 1.095e+04 4.851e-09
 94.71321    275.0 1.122e+04 6.070e-09
 94.73279    275.7 1.152e+04 7.647e-09
 94.75238    276.5 1.183e+04 9.517e-09
 94.77196    277.4 1.215e+04 1.157e-08
 94.79154    278.2 1.244e+04 1.371e-08
 94.80708    279.0 1.271e+04 1.579e-08
 94.81687    278.7 1.341e+04 2.242e-08
 94.83070    279.5 1.362e+04 2.444e-08
 94.85028    280.2 1.380e+04 2.617e-08
 94.86986    280.9 1.396e+04 2.771e-08
 94.88944    281.6 1.412e+04 2.927e-08
 94.90902    282.3 1.434e+04 3.157e-08
 94.92860    282.5 1.466e+04 3.576e-08
 94.94819    282.4 1.510e+04 4.389e-08
 94.95822    282.3 1.581e+04 6.039e-08
 94.96801    281.6 1.597e+04 6.276e-08
 94.98735    281.3 1.676e+04 9.037e-08
 95.00693    280.5 1.766e+04 1.271e-07
 95.02651    278.3 1.826e+04 1.432e-07
 95.04609    274.8 1.825e+04 1.375e-07
 95.06567    271.6 1.791e+04 1.083e-07
 95.08525    268.8 1.697e+04 6.324e-08
 95.10483    266.3 1.534e+04 2.834e-08
 95.12442    263.4 1.281e+04 1.159e-08
 95.14400    260.4 1.148e+04 7.345e-09
 95.16358    258.3 1.130e+04 7.158e-09
 95.18316    257.1 1.128e+04 7.146e-09
 95.20274    256.3 1.130e+04 7.188e-09
 95.22192    255.4 1.137e+04 7.432e-09
 95.23171    255.7 1.147e+04 7.936e-09
 95.24190    254.5 1.164e+04 8.627e-09
 95.26148    253.2 1.183e+04 9.627e-09
 95.28106    251.8 1.202e+04 1.054e-08
 95.30065    250.4 1.212e+04 1.070e-08
 95.31561    248.9 1.211e+04 1.055e-08
 95.32540    247.5 1.215e+04 1.039e-08
 95.33981    246.3 1.203e+04 9.236e-09
 95.35939    245.4 1.181e+04 7.801e-09
 95.37897    244.7 1.155e+04 6.579e-09
 95.39855    244.4 1.134e+04 5.823e-09
 95.41813    244.3 1.115e+04 5.564e-09
 95.43771    244.4 1.102e+04 5.493e-09
 95.45729    244.8 1.096e+04 5.427e-09
 95.47688    245.4 1.090e+04 5.341e-09
 95.49646    246.2 1.085e+04 5.285e-09
 95.51604    247.1 1.082e+04 5.281e-09
 95.53562    248.0 1.080e+04 5.373e-09
 95.55520    248.9 1.082e+04 5.530e-09
 95.57478    249.8 1.086e+04 5.711e-09
 95.59436    250.7 1.093e+04 5.995e-09
 95.61394    251.5 1.105e+04 6.511e-09
 95.63352    252.3 1.129e+04 7.462e-09
 95.64656    252.8 1.164e+04 9.122e-09
 95.65635    252.2 1.142e+04 7.361e-09
 95.67269    252.3 1.175e+04 9.233e-09
 95.68280    252.3 1.213e+04 1.197e-08
 95.69259    251.5 1.258e+04 1.612e-08
 95.71185    251.3 1.315e+04 2.169e-08
 95.73143    251.0 1.377e+04 2.804e-08
 95.75101    250.2 1.435e+04 3.253e-08
 95.77059    248.8 1.454e+04 3.284e-08
 95.79017    247.2 1.453e+04 3.127e-08
 95.80975    245.7 1.424e+04 2.621e-08
 95.82934    244.6 1.366e+04 1.959e-08
 95.84892    244.0 1.296e+04 1.401e-08
 95.87839    242.9 1.205e+04 7.215e-09
 95.91765    242.6 1.092e+04 3.298e-09
 95.95681    242.8 1.025e+04 1.924e-09
 95.99597    244.1 1.007e+04 1.687e-09
 96.03513    246.2 9.996e+03 1.653e-09
 96.06159    248.5 9.981e+03 1.649e-09
 96.08117    249.2 1.030e+04 2.284e-09
 96.11346    251.3 1.028e+04 2.218e-09
 96.15262    253.3 1.031e+04 2.192e-09
 96.19178    255.0 1.037e+04 2.218e-09
 96.23094    256.3 1.045e+04 2.321e-09
 96.27010    257.1 1.051e+04 2.473e-09
 96.29938    257.1 1.048e+04 2.596e-09
 96.31886    257.8 1.050e+04 2.815e-09
 96.33844    258.7 1.065e+04 3.203e-09
 96.35802    259.4 1.089e+04 3.682e-09
 96.37761    259.6 1.111e+04 4.119e-09
 96.39719    259.6 1.129e+04 4.604e-09
 96.40737    259.5 1.146e+04 5.154e-09
 96.42705    258.9 1.168e+04 5.808e-09
 96.46592    258.2 1.208e+04 7.847e-09
 96.50508    257.1 1.256e+04 1.060e-08
 96.54424    255.5 1.288e+04 1.175e-08
 96.58340    253.1 1.292e+04 1.093e-08
 96.62256    250.0 1.273e+04 7.810e-09
 96.66173    247.6 1.208e+04 4.827e-09
 96.70089    245.7 1.117e+04 3.435e-09
 96.74005    244.7 1.090e+04 3.307e-09
 96.77921    244.1 1.091e+04 3.343e-09
 96.81838    243.2 1.102e+04 3.614e-09
 96.85754    241.8 1.123e+04 4.245e-09
 96.89128    240.1 1.142e+04 4.942e-09
 96.91086    240.0 1.154e+04 5.073e-09
 96.92597    238.2 1.167e+04 5.434e-09
 96.94546    237.0 1.175e+04 5.662e-09
 96.96504    235.7 1.176e+04 5.733e-09
 96.98462    234.3 1.175e+04 5.723e-09
 97.00420    232.9 1.171e+04 5.655e-09
 97.02378    231.7 1.163e+04 5.450e-09
 97.04336    230.6 1.151e+04 5.108e-09
 97.06294    229.6 1.139e+04 4.686e-09
 97.08252    228.8 1.126e+04 4.241e-09
 97.10211    228.0 1.114e+04 3.837e-09
 97.12169    227.4 1.104e+04 3.515e-09
 97.13195    227.1 1.096e+04 3.289e-09
 97.14174    226.9 1.082e+04 3.034e-09
 97.16085    226.9 1.082e+04 3.033e-09
 97.18043    226.9 1.084e+04 3.050e-09
 97.20001    226.9 1.087e+04 3.093e-09
 97.21959    226.9 1.089e+04 3.145e-09
 97.23917    227.1 1.088e+04 3.216e-09
 97.25875    227.3 1.088e+04 3.320e-09
 97.27834    227.6 1.088e+04 3.472e-09
 97.29792    228.0 1.090e+04 3.703e-09
 97.31571    228.4 1.098e+04 4.055e-09
 97.32551    228.5 1.107e+04 4.742e-09
 97.33708    228.9 1.127e+04 5.604e-09
 97.35666    229.2 1.152e+04 6.723e-09
 97.37624    229.3 1.177e+04 8.021e-09
 97.39582    229.2 1.201e+04 9.302e-09
 97.41540    229.2 1.221e+04 1.015e-08
 97.43498    228.9 1.230e+04 1.024e-08
 97.45457    228.3 1.230e+04 1.018e-08
 97.47415    227.6 1.223e+04 9.778e-09
 97.48935    227.0 1.211e+04 9.036e-09
 97.49914    226.3 1.203e+04 8.904e-09
 97.51331    225.6 1.204e+04 8.823e-09
 97.53289    225.0 1.212e+04 8.970e-09
 97.55247    224.3 1.242e+04 9.676e-09
 97.57205    223.5 1.288e+04 1.131e-08
 97.59163    222.6 1.345e+04 1.453e-08
 97.61121    221.8 1.401e+04 1.987e-08
 97.63080    221.2 1.453e+04 2.833e-08
 97.65038    220.9 1.503e+04 3.750e-08
 97.66996    220.9 1.539e+04 4.692e-08
 97.68954    220.8 1.586e+04 5.273e-08
 97.70912    220.6 1.593e+04 5.014e-08
 97.72870    220.0 1.587e+04 4.059e-08
 97.74035    219.2 1.547e+04 2.754e-08
 97.75014    216.3 1.366e+04 9.432e-09
 97.76786    215.2 1.263e+04 5.958e-09
 97.78744    214.8 1.186e+04 4.478e-09
 97.80702    214.8 1.144e+04 3.806e-09
 97.82661    215.4 1.121e+04 3.391e-09
 97.84619    216.1 1.107e+04 3.053e-09
 97.85653    216.9 1.096e+04 2.747e-09
 97.86632    216.1 1.089e+04 2.932e-09
 97.88535    217.0 1.077e+04 2.713e-09
 97.90493    217.8 1.066e+04 2.555e-09
 97.92451    218.8 1.072e+04 2.503e-09
 97.95398    220.0 1.065e+04 2.600e-09
 97.99324    221.9 1.065e+04 2.561e-09
 98.03240    223.7 1.059e+04 2.476e-09
 98.07156    225.7 1.047e+04 2.352e-09
 98.11073    227.8 1.034e+04 2.212e-09
 98.14989    230.0 1.027e+04 2.106e-09
 98.18905    232.2 1.033e+04 2.045e-09
 98.22821    234.1 1.038e+04 2.042e-09
 98.26738    235.5 1.039e+04 2.055e-09
 98.30654    236.7 1.029e+04 2.067e-09
 98.34570    237.3 1.012e+04 2.079e-09
 98.37497    237.9 1.006e+04 2.121e-09
 98.39446    238.9 9.967e+03 2.193e-09
 98.41404    240.0 9.821e+03 2.339e-09
 98.43362    241.4 9.706e+03 2.661e-09
 98.45320    242.9 9.809e+03 3.268e-09
 98.47278    244.0 1.014e+04 4.097e-09
 98.49236    244.9 1.051e+04 5.102e-09
 98.51194    245.6 1.093e+04 6.361e-09
 98.53153    246.3 1.141e+04 8.109e-09
 98.55111    246.9 1.198e+04 1.066e-08
 98.57003    247.7 1.262e+04 1.436e-08
 98.57982    248.5 1.130e+04 7.272e-09
 98.58111    249.3 1.186e+04 9.497e-09
 98.59090    249.4 1.181e+04 9.846e-09
 98.60985    250.2 1.245e+04 1.288e-08
 98.62943    250.9 1.321e+04 1.766e-08
 98.64901    251.5 1.407e+04 2.500e-08
 98.66859    252.0 1.495e+04 3.563e-08
 98.68817    252.5 1.577e+04 4.843e-08
 98.70776    252.7 1.645e+04 5.935e-08
 98.72734    252.6 1.693e+04 6.250e-08
 98.74692    252.1 1.701e+04 6.185e-08
 98.76650    251.2 1.705e+04 5.700e-08
 98.78608    250.4 1.676e+04 4.787e-08
 98.80566    249.6 1.618e+04 4.015e-08
 98.82524    249.3 1.560e+04 3.841e-08
 98.84482    249.5 1.556e+04 3.873e-08
 98.86440    249.7 1.553e+04 4.113e-08
 98.88398    250.0 1.573e+04 4.655e-08
 98.90357    250.4 1.612e+04 5.333e-08
 98.92315    250.5 1.659e+04 5.720e-08
 98.93850    250.4 1.675e+04 5.688e-08
 98.94829    251.5 1.640e+04 4.697e-08
 98.96231    251.0 1.651e+04 4.673e-08
 98.98189    250.0 1.648e+04 4.414e-08
 98.99466    248.8 1.603e+04 3.861e-08
 99.00445    251.2 1.691e+04 5.099e-08
 99.02105    249.7 1.622e+04 4.020e-08
 99.04063    248.3 1.512e+04 2.996e-08
 99.06021    247.3 1.397e+04 2.225e-08
 99.07980    246.4 1.314e+04 1.676e-08
 99.09938    245.7 1.267e+04 1.265e-08
 99.11896    244.8 1.233e+04 9.453e-09
 99.13854    243.6 1.191e+04 7.107e-09
 99.15812    242.4 1.138e+04 5.707e-09
 99.17770    242.0 1.114e+04 5.470e-09
 99.19728    242.0 1.115e+04 5.492e-09
 99.21686    242.2 1.122e+04 5.592e-09
 99.23644    242.7 1.157e+04 5.883e-09
 99.25603    243.3 1.219e+04 6.569e-09
 99.27561    244.2 1.277e+04 7.733e-09
 99.29519    245.1 1.326e+04 9.418e-09
 99.30569    246.2 1.384e+04 1.200e-08
 99.31548    244.5 1.383e+04 1.293e-08
 99.33435    245.4 1.507e+04 1.803e-08
 99.35393    246.0 1.573e+04 2.255e-08
 99.36857    246.3 1.605e+04 2.497e-08
 99.37831    247.2 1.628e+04 2.725e-08
 99.38810    247.5 1.656e+04 2.964e-08
 99.39789    247.0 1.749e+04 3.395e-08
 99.40768    244.8 2.021e+04 4.982e-08
 99.41430    241.1 2.216e+04 1.382e-07
 99.41920    238.7 2.180e+04 1.623e-07
 99.42726    235.6 2.133e+04 4.700e-07
 99.43705    232.6 2.053e+04 1.012e-06
 99.44684    229.3 2.011e+04 1.250e-06
 99.45663    226.0 2.009e+04 1.194e-06
 99.46642    222.8 2.039e+04 8.959e-07
 99.47622    218.9 2.183e+04 4.788e-07
 99.48429    213.4 2.444e+04 2.089e-07
 99.48918    206.9 2.738e+04 1.101e-07
 99.49580    199.9 2.719e+04 6.412e-08
 99.51053    194.9 2.354e+04 6.731e-08
 99.53016    185.7 1.982e+04 5.172e-08
 99.54974    179.4 1.712e+04 4.176e-08
 99.56932    175.7 1.611e+04 3.173e-08
 99.58890    172.9 1.543e+04 2.206e-08
 99.60849    169.6 1.448e+04 1.500e-08
 99.62807    166.0 1.391e+04 1.252e-08
 99.64765    162.7 1.389e+04 1.258e-08
 99.66308    159.6 1.426e+04 1.380e-08
 99.67287    158.5 1.416e+04 1.457e-08
 99.68681    154.8 1.583e+04 2.134e-08
 99.70639    151.2 1.720e+04 2.976e-08
 99.72103    148.5 1.789e+04 3.262e-08
 99.73077    147.1 1.824e+04 3.312e-08
 99.74056    145.1 1.855e+04 3.305e-08
 99.75035    142.7 1.862e+04 3.282e-08
 99.76014    140.1 1.869e+04 3.177e-08
 99.76993    138.1 1.899e+04 3.113e-08
 99.77972    131.0 2.938e+04 2.921e-08
 99.78951     95.2 5.098e+04 6.868e-08
 99.79683     93.7 4.289e+04 1.953e-07
 99.80170     95.0 4.024e+04 2.443e-07
 99.80660     98.4 3.745e+04 3.128e-07
 99.81149     98.5 3.665e+04 4.002e-07
 99.81639     91.9 5.004e+04 2.095e-07
 99.82005     73.3 3.657e+04 1.732e-06
 99.82248     51.0 1.959e+04 7.563e-05
 99.82617     18.3 1.015e+04 1.475e-02
 99.83107    -14.1 1.050e+04 9.295e-03
 99.83399    -33.9 1.898e+04 2.515e-05
 99.83644    -31.3 1.766e+04 4.382e-05
 99.84086    -47.0 3.830e+04 3.281e-07
 99.84655    -50.7 4.386e+04 7.618e-08
 99.85147    -42.8 2.767e+04 9.868e-07
 99.85805    -45.4 3.146e+04 1.051e-07
 99.86784    -45.4 2.384e+04 5.093e-08
 99.87763    -43.2 2.028e+04 3.947e-08
 99.88742    -39.9 1.956e+04 3.697e-08
 99.90215    -38.3 1.858e+04 3.427e-08
 99.92178    -33.5 1.721e+04 3.419e-08
 99.94136    -28.9 1.673e+04 3.551e-08
 99.96094    -24.8 1.628e+04 3.600e-08
 99.98053    -20.6 1.610e+04 3.746e-08
100.00011    -16.5 1.604e+04 3.815e-08
