# Columns:
#   distance along LOS (in CHIMPs)
#   peculiar velocity  (in km/s)
#   temperature (K)
#   HI number density
# pos=(147.501,54.0754,168.564), angles=(2.96844,2.01375)
  0.00074    -22.1 1.206e+04 2.165e-09
  0.00602    -22.0 1.197e+04 2.256e-09
  0.03039    -20.9 1.191e+04 3.083e-09
  0.07004    -19.8 1.194e+04 4.207e-09
  0.10970    -18.9 1.206e+04 5.399e-09
  0.14936    -18.2 1.216e+04 6.662e-09
  0.17241    -17.7 1.226e+04 7.959e-09
  0.19223    -19.5 1.203e+04 7.187e-09
  0.22867    -18.9 1.206e+04 8.524e-09
  0.26832    -18.2 1.216e+04 9.557e-09
  0.30798    -17.9 1.234e+04 1.023e-08
  0.34763    -18.1 1.267e+04 1.138e-08
  0.37728    -20.6 1.347e+04 1.654e-08
  0.39701    -22.3 1.416e+04 2.450e-08
  0.41665    -23.9 1.480e+04 3.502e-08
  0.42657    -25.5 1.478e+04 3.534e-08
  0.43666    -27.8 1.491e+04 3.772e-08
  0.45649    -30.3 1.437e+04 2.924e-08
  0.47632    -33.5 1.299e+04 1.564e-08
  0.49615    -36.8 1.171e+04 9.286e-09
  0.51597    -39.0 1.138e+04 7.309e-09
  0.52818    -40.4 1.146e+04 6.716e-09
  0.54811    -42.5 1.103e+04 4.474e-09
  0.58557    -46.3 1.081e+04 3.319e-09
  0.61521    -49.2 1.081e+04 3.319e-09
  0.63494    -51.7 1.094e+04 4.009e-09
  0.65477    -54.7 1.068e+04 5.055e-09
  0.67101    -56.8 1.066e+04 6.252e-09
  0.68092    -58.1 1.078e+04 6.856e-09
  0.69442    -60.2 1.084e+04 7.416e-09
  0.71425    -62.4 1.094e+04 7.805e-09
  0.73408    -64.4 1.103e+04 8.294e-09
  0.75391    -66.1 1.111e+04 9.001e-09
  0.78375    -67.4 1.123e+04 1.016e-08
  0.82350    -68.5 1.156e+04 1.296e-08
  0.86315    -69.0 1.165e+04 1.453e-08
  0.90281    -69.6 1.161e+04 1.475e-08
  0.92556    -69.9 1.126e+04 1.288e-08
  0.94539    -71.8 1.122e+04 1.258e-08
  0.97211    -71.5 1.096e+04 1.112e-08
  0.99184    -71.7 1.101e+04 1.125e-08
  1.01167    -72.0 1.089e+04 1.093e-08
  1.03149    -73.6 1.171e+04 1.387e-08
  1.04758    -76.1 1.320e+04 2.318e-08
  1.05651    -76.9 1.414e+04 3.649e-08
  1.06025    -77.2 1.336e+04 2.930e-08
  1.07115    -78.7 1.417e+04 3.981e-08
  1.09098    -80.3 1.474e+04 5.069e-08
  1.11081    -81.8 1.501e+04 5.900e-08
  1.13063    -83.2 1.502e+04 6.076e-08
  1.15046    -84.1 1.450e+04 5.553e-08
  1.16980    -84.8 1.357e+04 3.953e-08
  1.17972    -85.6 1.266e+04 2.525e-08
  1.19012    -86.6 1.184e+04 1.767e-08
  1.20994    -87.7 1.107e+04 1.266e-08
  1.22977    -88.6 1.045e+04 9.727e-09
  1.24960    -89.1 9.985e+03 8.029e-09
  1.26943    -89.2 9.667e+03 7.031e-09
  1.28925    -89.3 9.481e+03 6.462e-09
  1.30194    -89.2 9.419e+03 6.236e-09
  1.31185    -89.7 9.536e+03 6.479e-09
  1.32138    -89.8 9.548e+03 6.485e-09
  1.33129    -89.1 9.424e+03 5.880e-09
  1.34874    -89.9 9.609e+03 6.190e-09
  1.36857    -91.0 1.016e+04 7.904e-09
  1.38839    -92.0 1.087e+04 1.114e-08
  1.40822    -92.8 1.160e+04 1.528e-08
  1.42416    -93.5 1.222e+04 1.951e-08
  1.43407    -93.9 1.203e+04 1.819e-08
  1.44788    -95.1 1.263e+04 2.162e-08
  1.46770    -97.1 1.354e+04 2.599e-08
  1.48753    -99.8 1.486e+04 3.452e-08
  1.50736   -102.9 1.606e+04 4.942e-08
  1.52218   -105.8 1.704e+04 7.353e-08
  1.53205   -106.1 1.766e+04 7.416e-08
  1.54196   -113.4 3.894e+04 3.761e-08
  1.55124   -137.1 5.899e+04 3.757e-08
  1.55620   -117.6 3.546e+04 1.339e-07
  1.56179   -136.2 3.317e+04 6.338e-07
  1.56920   -156.4 1.874e+04 9.492e-06
  1.57413   -162.8 1.680e+04 2.831e-05
  1.57909   -171.6 1.573e+04 6.617e-05
  1.58405   -181.2 1.554e+04 6.955e-05
  1.58670   -189.7 1.665e+04 2.278e-05
  1.58749   -181.2 1.622e+04 3.037e-05
  1.58979   -193.0 1.842e+04 8.199e-06
  1.59396   -199.5 2.197e+04 1.740e-06
  1.59892   -206.6 2.563e+04 2.566e-07
  1.60387   -210.8 2.606e+04 9.597e-08
  1.61133   -216.3 2.082e+04 4.095e-08
  1.61731   -220.9 1.403e+04 2.212e-08
  1.62226   -220.4 1.358e+04 2.272e-08
  1.63119   -220.9 1.265e+04 2.000e-08
  1.64110   -220.9 1.249e+04 1.938e-08
  1.65101   -220.8 1.243e+04 1.903e-08
  1.66593   -220.8 1.234e+04 1.841e-08
  1.67851   -220.4 1.209e+04 1.725e-08
  1.68843   -220.0 1.253e+04 2.146e-08
  1.70564   -219.8 1.220e+04 1.991e-08
  1.72546   -219.3 1.187e+04 1.826e-08
  1.74529   -218.6 1.155e+04 1.629e-08
  1.76512   -217.8 1.121e+04 1.407e-08
  1.78495   -216.8 1.086e+04 1.192e-08
  1.80073   -215.8 1.052e+04 1.008e-08
  1.81065   -215.3 1.053e+04 1.102e-08
  1.82460   -214.3 1.025e+04 9.651e-09
  1.84363   -213.1 9.982e+03 8.547e-09
  1.85355   -212.7 9.889e+03 7.918e-09
  1.86426   -211.6 9.611e+03 6.783e-09
  1.88409   -210.2 9.356e+03 5.748e-09
  1.90391   -208.5 9.142e+03 4.781e-09
  1.92296   -206.8 8.995e+03 3.984e-09
  1.93287   -206.9 9.004e+03 4.498e-09
  1.94357   -205.2 8.879e+03 3.839e-09
  1.97341   -203.4 8.887e+03 3.484e-09
  2.01316   -201.5 8.834e+03 3.106e-09
  2.05282   -198.8 8.731e+03 2.770e-09
  2.09247   -196.0 8.673e+03 2.629e-09
  2.11487   -193.3 8.658e+03 2.603e-09
  2.13470   -193.1 8.605e+03 2.163e-09
  2.16759   -190.5 8.697e+03 2.323e-09
  2.18742   -190.6 8.926e+03 2.973e-09
  2.21144   -187.9 8.806e+03 2.842e-09
  2.25110   -185.3 8.663e+03 2.624e-09
  2.29075   -182.6 8.538e+03 2.422e-09
  2.33041   -179.9 8.440e+03 2.219e-09
  2.37006   -177.2 8.367e+03 2.008e-09
  2.40972   -174.4 8.307e+03 1.799e-09
  2.43186   -171.6 8.264e+03 1.614e-09
  2.45169   -171.0 8.142e+03 1.060e-09
  2.48903   -168.2 8.191e+03 9.705e-10
  2.52868   -165.4 8.242e+03 9.230e-10
  2.56834   -162.6 8.262e+03 9.102e-10
  2.60799   -159.9 8.268e+03 9.090e-10
  2.63712   -157.4 8.348e+03 9.083e-10
  2.65695   -157.4 8.479e+03 1.200e-09
  2.67630   -155.0 8.511e+03 1.198e-09
  2.69613   -154.6 8.541e+03 1.153e-09
  2.72696   -152.5 8.788e+03 1.239e-09
  2.76662   -150.7 8.990e+03 1.505e-09
  2.80627   -149.1 9.193e+03 1.954e-09
  2.84593   -147.9 9.410e+03 2.501e-09
  2.88558   -147.0 9.637e+03 2.992e-09
  2.92074   -146.3 9.860e+03 3.353e-09
  2.94057   -145.4 9.896e+03 3.359e-09
  2.96489   -144.7 9.979e+03 3.356e-09
  3.00455   -143.9 1.021e+04 3.160e-09
  3.04420   -143.0 1.037e+04 3.059e-09
  3.08386   -142.3 1.061e+04 3.081e-09
  3.12352   -141.6 1.078e+04 3.219e-09
  3.15316   -140.7 1.091e+04 3.163e-09
  3.16909   -140.3 1.091e+04 3.310e-09
  3.17901   -139.1 1.090e+04 2.572e-09
  3.18492   -138.4 1.094e+04 2.384e-09
  3.20484   -137.9 1.103e+04 3.019e-09
  3.24248   -136.2 1.121e+04 3.291e-09
  3.28214   -134.4 1.143e+04 3.579e-09
  3.32179   -132.3 1.163e+04 3.956e-09
  3.36145   -130.1 1.174e+04 4.351e-09
  3.40110   -127.9 1.179e+04 4.684e-09
  3.42945   -125.7 1.186e+04 5.106e-09
  3.43884   -126.4 1.205e+04 5.970e-09
  3.44013   -126.3 1.217e+04 6.032e-09
  3.45048   -125.6 1.227e+04 6.439e-09
  3.47031   -124.7 1.238e+04 7.050e-09
  3.49013   -124.0 1.249e+04 7.807e-09
  3.50996   -123.1 1.257e+04 8.793e-09
  3.52979   -122.2 1.259e+04 9.731e-09
  3.54962   -121.2 1.258e+04 1.061e-08
  3.56139   -120.1 1.256e+04 1.130e-08
  3.57131   -120.7 1.252e+04 1.257e-08
  3.58927   -119.4 1.238e+04 1.144e-08
  3.60910   -118.1 1.226e+04 1.071e-08
  3.62893   -116.9 1.215e+04 1.019e-08
  3.64876   -115.6 1.206e+04 9.897e-09
  3.66858   -114.1 1.202e+04 9.840e-09
  3.68361   -112.5 1.200e+04 1.010e-08
  3.69353   -112.6 1.167e+04 7.658e-09
  3.70126   -111.0 1.176e+04 7.883e-09
  3.71117   -110.9 1.218e+04 1.243e-08
  3.72807   -109.7 1.235e+04 1.286e-08
  3.74789   -108.6 1.275e+04 1.403e-08
  3.76772   -107.8 1.333e+04 1.855e-08
  3.78755   -107.3 1.405e+04 2.921e-08
  3.80583   -106.6 1.493e+04 4.734e-08
  3.81575   -107.4 1.564e+04 6.982e-08
  3.82720   -106.6 1.653e+04 1.050e-07
  3.84703   -106.6 1.707e+04 1.298e-07
  3.86686   -107.0 1.721e+04 1.370e-07
  3.88669   -107.6 1.722e+04 1.378e-07
  3.90652   -108.3 1.719e+04 1.380e-07
  3.92634   -109.1 1.720e+04 1.424e-07
  3.93797   -109.8 1.726e+04 1.477e-07
  3.94788   -111.6 1.686e+04 1.304e-07
  3.96239   -112.2 1.644e+04 1.081e-07
  3.97230   -112.3 1.614e+04 9.580e-08
  3.98583   -113.2 1.567e+04 7.625e-08
  4.00565   -114.3 1.520e+04 6.108e-08
  4.02548   -115.5 1.493e+04 5.226e-08
  4.04531   -116.7 1.486e+04 4.740e-08
  4.06019   -117.9 1.488e+04 4.505e-08
  4.07010   -117.8 1.400e+04 3.506e-08
  4.08497   -119.1 1.415e+04 3.642e-08
  4.10479   -120.4 1.415e+04 3.698e-08
  4.12462   -121.6 1.387e+04 3.529e-08
  4.14445   -122.3 1.348e+04 2.998e-08
  4.16428   -122.9 1.313e+04 2.476e-08
  4.18241   -123.2 1.285e+04 2.090e-08
  4.19232   -122.6 1.248e+04 1.783e-08
  4.20393   -122.8 1.218e+04 1.489e-08
  4.22351   -122.9 1.181e+04 1.223e-08
  4.23343   -122.0 1.236e+04 1.748e-08
  4.24359   -121.9 1.194e+04 1.424e-08
  4.26342   -121.9 1.147e+04 1.120e-08
  4.28324   -121.8 1.097e+04 8.667e-09
  4.30307   -121.7 1.050e+04 6.743e-09
  4.31454   -121.6 1.008e+04 5.371e-09
  4.32446   -121.8 9.683e+03 3.561e-09
  4.34273   -121.5 9.365e+03 2.910e-09
  4.36255   -121.1 9.148e+03 2.498e-09
  4.38238   -120.5 9.000e+03 2.236e-09
  4.40221   -119.9 8.881e+03 2.068e-09
  4.42204   -119.3 8.798e+03 1.976e-09
  4.43677   -118.6 8.779e+03 1.948e-09
  4.44678   -118.9 8.726e+03 1.512e-09
  4.47180   -117.8 8.721e+03 1.543e-09
  4.49465   -117.9 8.758e+03 1.723e-09
  4.50447   -116.7 8.623e+03 1.687e-09
  4.52118   -116.6 8.751e+03 1.953e-09
  4.54100   -116.6 8.869e+03 2.419e-09
  4.55899   -116.8 9.071e+03 3.163e-09
  4.56890   -116.9 9.151e+03 3.281e-09
  4.58066   -117.2 9.424e+03 4.358e-09
  4.60049   -117.6 9.760e+03 5.712e-09
  4.62031   -118.3 1.010e+04 7.123e-09
  4.64014   -119.4 1.039e+04 8.302e-09
  4.65997   -120.7 1.062e+04 9.102e-09
  4.67980   -122.3 1.080e+04 9.629e-09
  4.69112   -124.3 1.096e+04 1.010e-08
  4.70103   -124.4 1.116e+04 1.210e-08
  4.71945   -126.5 1.135e+04 1.269e-08
  4.73928   -128.9 1.152e+04 1.312e-08
  4.75568   -131.4 1.160e+04 1.323e-08
  4.76560   -130.2 1.195e+04 1.686e-08
  4.77894   -133.0 1.194e+04 1.644e-08
  4.79876   -135.8 1.181e+04 1.457e-08
  4.81334   -138.6 1.163e+04 1.248e-08
  4.82326   -137.9 1.155e+04 1.185e-08
  4.83842   -140.5 1.133e+04 1.011e-08
  4.85825   -143.0 1.122e+04 9.262e-09
  4.87807   -145.3 1.116e+04 8.897e-09
  4.89790   -147.3 1.107e+04 8.641e-09
  4.91773   -149.2 1.093e+04 8.307e-09
  4.93556   -150.7 1.074e+04 7.820e-09
  4.94548   -150.2 1.095e+04 8.626e-09
  4.95739   -151.4 1.078e+04 8.358e-09
  4.97721   -152.3 1.058e+04 7.717e-09
  4.99704   -153.0 1.037e+04 6.979e-09
  5.01681   -153.4 1.018e+04 6.292e-09
  5.03664   -153.8 1.017e+04 6.306e-09
  5.05652   -153.9 1.004e+04 5.747e-09
  5.06770   -153.9 9.966e+03 5.375e-09
  5.07761   -153.8 1.011e+04 5.757e-09
  5.09618   -153.8 1.005e+04 5.484e-09
  5.11601   -153.7 1.003e+04 5.344e-09
  5.13584   -153.6 1.003e+04 5.279e-09
  5.15566   -153.5 1.004e+04 5.249e-09
  5.17549   -153.5 1.004e+04 5.245e-09
  5.18992   -153.5 1.006e+04 5.259e-09
  5.19983   -153.4 1.010e+04 5.503e-09
  5.21515   -153.5 1.011e+04 5.419e-09
  5.23497   -153.6 1.009e+04 5.294e-09
  5.25480   -153.7 1.005e+04 5.121e-09
  5.27463   -153.8 9.993e+03 4.928e-09
  5.28785   -153.8 9.940e+03 4.736e-09
  5.29776   -154.1 1.008e+04 5.593e-09
  5.31214   -154.1 1.006e+04 5.458e-09
  5.32205   -153.8 1.008e+04 5.555e-09
  5.33411   -153.8 1.007e+04 5.541e-09
  5.35394   -153.8 1.008e+04 5.553e-09
  5.37377   -153.7 1.013e+04 5.649e-09
  5.39360   -153.5 1.017e+04 5.768e-09
  5.41342   -153.4 1.022e+04 5.872e-09
  5.43325   -153.2 1.026e+04 5.943e-09
  5.44427   -153.0 1.030e+04 5.964e-09
  5.45419   -153.1 1.037e+04 6.366e-09
  5.47291   -153.0 1.035e+04 6.014e-09
  5.49273   -153.0 1.030e+04 5.545e-09
  5.51256   -153.0 1.023e+04 4.979e-09
  5.53239   -153.0 1.015e+04 4.350e-09
  5.54898   -152.9 1.006e+04 3.701e-09
  5.55889   -153.5 1.015e+04 3.810e-09
  5.56649   -153.4 1.008e+04 3.297e-09
  5.57641   -153.7 1.006e+04 2.824e-09
  5.59187   -153.5 1.008e+04 2.584e-09
  5.61170   -153.2 1.012e+04 2.513e-09
  5.63153   -153.0 1.015e+04 2.501e-09
  5.65136   -152.9 1.034e+04 2.571e-09
  5.67118   -152.7 1.049e+04 2.807e-09
  5.68871   -152.5 1.059e+04 3.143e-09
  5.69863   -152.5 1.058e+04 3.317e-09
  5.71084   -152.2 1.066e+04 3.802e-09
  5.73067   -151.6 1.064e+04 4.161e-09
  5.75050   -150.7 1.061e+04 4.267e-09
  5.78033   -148.6 1.043e+04 3.743e-09
  5.81030   -147.2 1.034e+04 3.478e-09
  5.83013   -147.7 1.008e+04 3.281e-09
  5.85974   -146.3 9.956e+03 2.583e-09
  5.89940   -144.0 9.703e+03 1.907e-09
  5.93335   -141.6 9.594e+03 1.521e-09
  5.95318   -141.1 9.258e+03 1.273e-09
  5.97871   -138.8 9.362e+03 1.104e-09
  6.01836   -136.5 9.416e+03 1.069e-09
  6.05802   -134.4 9.591e+03 1.075e-09
  6.09768   -132.6 1.006e+04 1.396e-09
  6.13733   -130.8 1.034e+04 2.197e-09
  6.17699   -128.9 1.064e+04 3.225e-09
  6.19762   -127.0 1.097e+04 3.972e-09
  6.21745   -125.9 1.063e+04 3.239e-09
  6.25630   -124.0 1.097e+04 3.666e-09
  6.29595   -122.1 1.109e+04 3.738e-09
  6.31974   -121.0 1.109e+04 3.279e-09
  6.32956   -120.5 1.119e+04 3.390e-09
  6.34227   -119.3 1.125e+04 3.032e-09
  6.35228   -120.9 1.109e+04 2.980e-09
  6.37526   -118.6 1.111e+04 2.409e-09
  6.41492   -115.5 1.109e+04 1.810e-09
  6.44206   -112.6 1.120e+04 1.443e-09
  6.46189   -111.7 1.113e+04 1.803e-09
  6.49423   -108.9 1.130e+04 1.578e-09
  6.53389   -105.8 1.141e+04 1.500e-09
  6.57354   -102.7 1.144e+04 1.487e-09
  6.61320    -99.8 1.193e+04 1.461e-09
  6.65285    -97.1 1.250e+04 1.853e-09
  6.68650    -94.5 1.254e+04 3.181e-09
  6.70633    -93.8 1.253e+04 3.878e-09
  6.73216    -91.3 1.272e+04 6.004e-09
  6.77182    -89.0 1.298e+04 8.852e-09
  6.81147    -87.0 1.320e+04 1.229e-08
  6.84112    -85.0 1.328e+04 1.354e-08
  6.86085    -83.7 1.339e+04 1.488e-08
  6.87444    -82.8 1.361e+04 1.633e-08
  6.88435    -81.8 1.365e+04 1.531e-08
  6.90050    -81.7 1.443e+04 1.942e-08
  6.92033    -83.8 1.688e+04 4.661e-08
  6.93515    -84.7 1.810e+04 1.302e-07
  6.94502    -84.9 1.841e+04 3.184e-07
  6.95048    -84.8 1.849e+04 7.873e-07
  6.95543    -84.9 1.835e+04 1.008e-06
  6.96485    -84.8 1.798e+04 2.600e-06
  6.97476    -87.7 1.781e+04 3.684e-06
  6.98467    -91.6 1.772e+04 3.668e-06
  6.99459    -93.1 1.805e+04 2.015e-06
  7.00450    -93.4 1.869e+04 7.450e-07
  7.00986    -93.5 1.900e+04 2.749e-07
  7.01199    -95.1 1.940e+04 1.834e-07
  7.01655    -96.0 1.929e+04 3.027e-07
  7.02433    -96.8 1.905e+04 1.486e-07
  7.03424    -97.6 1.818e+04 1.075e-07
  7.04416    -97.9 1.730e+04 8.833e-08
  7.05407    -98.0 1.686e+04 7.744e-08
  7.06399    -97.7 1.672e+04 7.279e-08
  7.07270    -97.7 1.671e+04 7.209e-08
  7.07766    -97.9 1.772e+04 1.176e-07
  7.08381    -98.3 1.829e+04 1.323e-07
  7.09373    -99.0 1.868e+04 1.684e-07
  7.10364    -99.7 1.878e+04 2.290e-07
  7.11355   -100.0 1.867e+04 3.288e-07
  7.12347    -99.9 1.851e+04 4.797e-07
  7.13338    -99.7 1.840e+04 6.626e-07
  7.13877    -99.6 1.837e+04 7.996e-07
  7.14085    -99.4 1.842e+04 1.406e-06
  7.14538   -100.6 1.843e+04 1.280e-06
  7.15321   -100.8 1.849e+04 1.040e-06
  7.16312   -100.8 1.859e+04 7.807e-07
  7.17304   -100.9 1.870e+04 5.901e-07
  7.18295   -101.0 1.880e+04 4.531e-07
  7.19287   -101.3 1.890e+04 3.467e-07
  7.19988   -101.8 1.899e+04 2.614e-07
  7.20483   -102.4 1.923e+04 2.794e-07
  7.21269   -103.1 1.921e+04 2.165e-07
  7.22261   -104.3 1.892e+04 1.659e-07
  7.23252   -105.8 1.817e+04 1.267e-07
  7.24243   -107.1 1.715e+04 9.882e-08
  7.25235   -108.2 1.624e+04 8.085e-08
  7.26099   -108.9 1.567e+04 7.006e-08
  7.26594   -109.0 1.588e+04 7.215e-08
  7.27718   -109.6 1.528e+04 6.020e-08
  7.29706   -110.5 1.465e+04 4.535e-08
  7.31689   -111.9 1.448e+04 3.563e-08
  7.32715   -114.8 1.444e+04 2.922e-08
  7.33707   -116.4 1.545e+04 3.988e-08
  7.35654   -119.7 1.459e+04 3.357e-08
  7.37637   -122.4 1.328e+04 2.875e-08
  7.39620   -123.6 1.230e+04 2.582e-08
  7.40661   -123.8 1.137e+04 2.191e-08
  7.41652   -122.8 1.066e+04 1.299e-08
  7.43585   -122.9 1.009e+04 1.226e-08
  7.44937   -122.9 9.619e+03 1.088e-08
  7.45929   -122.5 9.815e+03 1.187e-08
  7.47551   -122.5 9.449e+03 9.831e-09
  7.49534   -122.6 9.235e+03 8.324e-09
  7.51516   -122.9 9.209e+03 7.707e-09
  7.53499   -123.3 9.217e+03 7.610e-09
  7.55482   -123.8 9.314e+03 7.702e-09
  7.57159   -124.5 9.573e+03 8.656e-09
  7.58151   -123.8 9.381e+03 8.167e-09
  7.59447   -124.4 9.634e+03 9.381e-09
  7.61430   -125.0 9.869e+03 1.076e-08
  7.63413   -125.6 1.005e+04 1.199e-08
  7.65396   -126.2 1.018e+04 1.291e-08
  7.66773   -126.7 1.027e+04 1.354e-08
  7.67765   -126.3 1.014e+04 1.282e-08
  7.69361   -126.8 1.017e+04 1.302e-08
  7.70373   -127.2 1.026e+04 1.339e-08
  7.71364   -126.4 9.968e+03 1.194e-08
  7.73327   -126.8 1.012e+04 1.255e-08
  7.75310   -127.2 1.030e+04 1.334e-08
  7.77292   -127.6 1.049e+04 1.421e-08
  7.79275   -128.0 1.067e+04 1.506e-08
  7.81258   -128.4 1.081e+04 1.579e-08
  7.82595   -128.6 1.092e+04 1.640e-08
  7.83586   -128.3 1.115e+04 1.816e-08
  7.85224   -128.4 1.132e+04 1.957e-08
  7.87206   -128.5 1.148e+04 2.089e-08
  7.89189   -128.3 1.159e+04 2.176e-08
  7.91172   -128.0 1.164e+04 2.199e-08
  7.92886   -127.7 1.164e+04 2.187e-08
  7.93877   -128.5 1.150e+04 2.115e-08
  7.94817   -128.0 1.149e+04 2.028e-08
  7.95808   -127.4 1.148e+04 2.007e-08
  7.97120   -127.1 1.151e+04 1.921e-08
  7.99103   -126.8 1.150e+04 1.814e-08
  8.01086   -126.6 1.145e+04 1.687e-08
  8.03068   -126.6 1.134e+04 1.540e-08
  8.05051   -126.5 1.118e+04 1.383e-08
  8.07034   -126.5 1.099e+04 1.228e-08
  8.09017   -125.5 1.082e+04 1.059e-08
  8.11000   -125.1 1.060e+04 9.131e-09
  8.12982   -124.6 1.041e+04 7.808e-09
  8.14965   -124.1 1.022e+04 6.619e-09
  8.16948   -123.3 1.005e+04 5.527e-09
  8.18931   -122.5 9.895e+03 4.518e-09
  8.19990   -121.4 9.786e+03 3.621e-09
  8.20320   -121.6 9.767e+03 3.575e-09
  8.21244   -121.2 9.786e+03 3.781e-09
  8.22896   -120.1 9.729e+03 3.031e-09
  8.24879   -118.9 9.761e+03 2.610e-09
  8.27863   -117.6 9.826e+03 2.411e-09
  8.31838   -116.1 9.885e+03 2.221e-09
  8.35804   -114.4 9.907e+03 2.163e-09
  8.39769   -112.8 1.018e+04 2.211e-09
  8.43725   -111.5 1.051e+04 2.597e-09
  8.46112   -109.6 1.073e+04 3.002e-09
  8.48105   -109.7 1.064e+04 2.819e-09
  8.51666   -108.4 1.083e+04 2.885e-09
  8.55632   -107.1 1.091e+04 2.837e-09
  8.59597   -105.6 1.103e+04 2.524e-09
  8.63563   -103.7 1.101e+04 2.212e-09
  8.67528   -101.8 1.095e+04 1.963e-09
  8.70152    -99.7 1.087e+04 1.816e-09
  8.72134    -99.3 1.073e+04 1.707e-09
  8.75459    -97.2 1.061e+04 1.649e-09
  8.79425    -95.2 1.055e+04 1.638e-09
  8.83390    -93.2 1.049e+04 1.639e-09
  8.87356    -91.1 1.039e+04 1.658e-09
  8.91321    -89.1 1.029e+04 1.664e-09
  8.94596    -87.0 1.015e+04 1.666e-09
  8.96578    -86.2 1.014e+04 1.951e-09
  8.98348    -84.1 9.982e+03 1.924e-09
  9.00330    -84.0 9.822e+03 2.760e-09
  9.03218    -81.7 9.637e+03 2.421e-09
  9.07184    -79.4 9.445e+03 2.024e-09
  9.11149    -77.3 9.269e+03 1.724e-09
  9.15115    -75.2 9.170e+03 1.597e-09
  9.19040    -73.4 9.157e+03 1.580e-09
  9.21023    -72.0 9.149e+03 1.546e-09
  9.23046    -70.4 9.194e+03 1.559e-09
  9.27011    -69.5 9.343e+03 1.789e-09
  9.30977    -69.1 9.463e+03 2.211e-09
  9.34942    -69.0 9.538e+03 2.686e-09
  9.38908    -69.7 9.623e+03 3.105e-09
  9.42874    -71.0 9.725e+03 3.428e-09
  9.45467    -72.5 9.962e+03 3.804e-09
  9.47449    -71.2 1.072e+04 6.186e-09
  9.49803    -73.3 1.060e+04 5.138e-09
  9.51545    -74.3 1.077e+04 5.161e-09
  9.52536    -75.5 1.065e+04 5.048e-09
  9.53759    -77.8 1.091e+04 5.085e-09
  9.55742    -80.8 1.179e+04 6.684e-09
  9.57669    -84.2 1.255e+04 1.131e-08
  9.58661    -83.7 1.234e+04 1.158e-08
  9.59708    -86.5 1.283e+04 1.805e-08
  9.61690    -88.9 1.311e+04 2.435e-08
  9.63673    -90.9 1.316e+04 2.652e-08
  9.65656    -92.6 1.303e+04 2.624e-08
  9.67639    -93.8 1.255e+04 2.121e-08
  9.69621    -94.9 1.201e+04 1.562e-08
  9.70883    -95.9 1.151e+04 1.186e-08
  9.71874    -95.7 1.099e+04 8.785e-09
  9.73587    -96.3 1.070e+04 7.563e-09
  9.75570    -96.5 1.056e+04 6.867e-09
  9.77553    -96.6 1.052e+04 6.432e-09
  9.78649    -96.7 1.056e+04 6.105e-09
  9.79640    -96.7 1.042e+04 5.980e-09
  9.81518    -96.9 1.050e+04 5.756e-09
  9.83105    -97.1 1.060e+04 5.515e-09
  9.84096    -96.8 1.041e+04 4.912e-09
  9.85484    -97.1 1.045e+04 4.833e-09
  9.87466    -97.8 1.052e+04 4.836e-09
  9.89449    -99.4 1.108e+04 5.012e-09
  9.91432   -101.6 1.197e+04 6.803e-09
  9.93415   -103.6 1.280e+04 1.146e-08
  9.95327   -105.1 1.345e+04 1.884e-08
  9.96318   -104.2 1.307e+04 1.645e-08
  9.97380   -105.5 1.347e+04 2.060e-08
  9.99363   -106.9 1.356e+04 2.147e-08
 10.01346   -108.1 1.336e+04 2.010e-08
 10.03329   -108.8 1.292e+04 1.514e-08
 10.04762   -109.4 1.256e+04 1.068e-08
 10.05753   -110.1 1.250e+04 9.047e-09
 10.07294   -110.3 1.233e+04 6.861e-09
 10.08540   -110.2 1.220e+04 5.510e-09
 10.09532   -109.6 1.216e+04 5.760e-09
 10.11260   -109.4 1.208e+04 4.762e-09
 10.13242   -108.8 1.201e+04 4.034e-09
 10.15225   -108.2 1.199e+04 3.525e-09
 10.17208   -107.6 1.199e+04 3.163e-09
 10.19191   -106.9 1.202e+04 2.915e-09
 10.20762   -106.1 1.207e+04 2.799e-09
 10.21754   -106.1 1.206e+04 3.138e-09
 10.23156   -105.5 1.208e+04 3.122e-09
 10.25139   -104.9 1.226e+04 3.147e-09
 10.27122   -104.2 1.237e+04 3.355e-09
 10.29105   -103.5 1.241e+04 3.642e-09
 10.30874   -102.8 1.242e+04 3.950e-09
 10.31866   -102.6 1.246e+04 3.967e-09
 10.32984   -101.9 1.246e+04 4.264e-09
 10.33976   -102.1 1.247e+04 4.814e-09
 10.35053   -101.4 1.245e+04 5.034e-09
 10.37036   -100.9 1.243e+04 5.105e-09
 10.39019   -100.2 1.241e+04 5.109e-09
 10.41001    -99.4 1.216e+04 4.999e-09
 10.42984    -98.5 1.196e+04 4.309e-09
 10.45216    -97.3 1.194e+04 3.104e-09
 10.47199    -97.4 1.179e+04 2.757e-09
 10.49934    -96.9 1.170e+04 2.332e-09
 10.53909    -95.3 1.148e+04 1.818e-09
 10.57007    -93.4 1.134e+04 1.494e-09
 10.58989    -93.3 1.155e+04 1.780e-09
 10.61840    -91.5 1.148e+04 1.633e-09
 10.65806    -89.8 1.147e+04 1.587e-09
 10.69670    -88.2 1.149e+04 1.509e-09
 10.71653    -89.0 1.135e+04 1.576e-09
 10.73737    -87.4 1.140e+04 1.289e-09
 10.77702    -86.0 1.146e+04 1.005e-09
 10.81668    -84.8 1.153e+04 8.368e-10
 10.85633    -84.4 1.155e+04 8.141e-10
 10.89599    -84.7 1.214e+04 9.187e-10
 10.93564    -85.5 1.224e+04 1.921e-09
 10.96097    -85.9 1.227e+04 4.299e-09
 10.98080    -86.9 1.247e+04 5.611e-09
 11.00494    -86.7 1.275e+04 8.862e-09
 11.02467    -87.4 1.318e+04 1.209e-08
 11.04450    -88.3 1.378e+04 1.949e-08
 11.06433    -89.3 1.430e+04 2.800e-08
 11.08300    -90.3 1.464e+04 3.594e-08
 11.09291    -91.4 1.521e+04 5.435e-08
 11.10204    -92.6 1.526e+04 5.589e-08
 11.11195    -94.2 1.474e+04 3.697e-08
 11.12381    -95.3 1.467e+04 2.854e-08
 11.14364    -96.3 1.445e+04 1.992e-08
 11.16347    -97.2 1.414e+04 1.375e-08
 11.18329    -97.9 1.390e+04 9.714e-09
 11.20312    -98.3 1.370e+04 7.364e-09
 11.21513    -98.5 1.354e+04 5.900e-09
 11.22504    -99.4 1.355e+04 6.241e-09
 11.24278    -99.4 1.340e+04 5.002e-09
 11.26261    -99.3 1.327e+04 4.052e-09
 11.28243    -99.3 1.313e+04 3.386e-09
 11.30226    -99.3 1.299e+04 2.949e-09
 11.33210    -99.2 1.286e+04 2.633e-09
 11.37185    -98.8 1.276e+04 2.366e-09
 11.41151    -98.9 1.272e+04 2.233e-09
 11.44985    -99.0 1.264e+04 2.108e-09
 11.46968    -99.5 1.264e+04 1.678e-09
 11.49082    -99.5 1.260e+04 1.585e-09
 11.53048    -99.5 1.251e+04 1.473e-09
 11.57013    -99.3 1.238e+04 1.300e-09
 11.60979    -98.6 1.224e+04 1.088e-09
 11.63440    -97.7 1.214e+04 8.994e-10
 11.65423    -98.2 1.215e+04 8.181e-10
 11.68910    -97.0 1.209e+04 6.946e-10
 11.71412    -95.7 1.205e+04 6.613e-10
 11.73395    -95.2 1.206e+04 6.643e-10
 11.76841    -93.9 1.203e+04 6.747e-10
 11.80806    -92.6 1.194e+04 7.769e-10
 11.84772    -91.3 1.185e+04 9.140e-10
 11.88737    -90.0 1.178e+04 1.008e-09
 11.92703    -88.8 1.177e+04 1.027e-09
 11.95856    -87.6 1.171e+04 1.014e-09
 11.97839    -86.9 1.169e+04 1.209e-09
 12.00634    -85.5 1.158e+04 1.074e-09
 12.04600    -84.0 1.154e+04 9.519e-10
 12.08565    -82.4 1.151e+04 9.042e-10
 12.12531    -80.8 1.151e+04 8.977e-10
 12.15665    -79.1 1.151e+04 9.206e-10
 12.17648    -79.2 1.156e+04 1.060e-09
 12.20300    -77.5 1.152e+04 1.095e-09
 12.22283    -77.1 1.148e+04 1.272e-09
 12.24427    -75.3 1.146e+04 1.278e-09
 12.28393    -73.3 1.134e+04 1.268e-09
 12.32358    -71.2 1.130e+04 1.193e-09
 12.36324    -69.1 1.130e+04 1.083e-09
 12.40290    -67.1 1.133e+04 9.906e-10
 12.44255    -65.0 1.135e+04 9.452e-10
 12.46727    -63.0 1.136e+04 9.260e-10
 12.48710    -62.5 1.130e+04 9.050e-10
 12.52186    -60.5 1.133e+04 9.068e-10
 12.56152    -58.7 1.143e+04 9.478e-10
 12.60117    -57.1 1.142e+04 1.140e-09
 12.64083    -55.7 1.142e+04 1.563e-09
 12.67891    -54.4 1.153e+04 2.380e-09
 12.69874    -53.6 1.153e+04 2.201e-09
 12.71171    -52.5 1.174e+04 3.333e-09
 12.73154    -52.5 1.193e+04 4.204e-09
 12.75980    -52.1 1.227e+04 5.406e-09
 12.78944    -52.0 1.238e+04 5.826e-09
 12.80917    -52.1 1.239e+04 5.834e-09
 12.82900    -52.0 1.229e+04 5.307e-09
 12.84365    -51.8 1.214e+04 4.505e-09
 12.85357    -52.1 1.212e+04 4.192e-09
 12.86865    -51.9 1.191e+04 3.413e-09
 12.88848    -51.5 1.176e+04 2.848e-09
 12.91832    -50.8 1.169e+04 2.517e-09
 12.95616    -49.5 1.158e+04 1.984e-09
 12.97598    -49.7 1.146e+04 1.621e-09
 12.99773    -48.3 1.149e+04 1.435e-09
 13.03738    -46.9 1.153e+04 1.377e-09
 13.07704    -45.4 1.153e+04 1.272e-09
 13.11669    -43.7 1.154e+04 1.137e-09
 13.15635    -41.9 1.157e+04 9.682e-10
 13.19601    -39.9 1.160e+04 7.847e-10
 13.22043    -37.8 1.169e+04 6.237e-10
 13.22558    -37.3 1.167e+04 6.276e-10
 13.24082    -36.2 1.168e+04 7.337e-10
 13.27532    -34.0 1.177e+04 6.327e-10
 13.31497    -31.8 1.181e+04 6.025e-10
 13.35463    -29.6 1.193e+04 6.144e-10
 13.39428    -27.3 1.198e+04 6.914e-10
 13.43394    -25.0 1.198e+04 7.706e-10
 13.46487    -22.6 1.201e+04 8.088e-10
 13.48469    -22.3 1.196e+04 6.793e-10
 13.51325    -19.9 1.201e+04 6.664e-10
 13.55290    -17.3 1.210e+04 6.241e-10
 13.59256    -14.8 1.216e+04 5.918e-10
 13.63222    -12.2 1.215e+04 6.357e-10
 13.67187     -9.7 1.222e+04 7.252e-10
 13.70931     -7.2 1.221e+04 9.032e-10
 13.72914     -7.1 1.216e+04 8.114e-10
 13.74324     -4.4 1.223e+04 9.745e-10
 13.76307     -3.8 1.238e+04 7.714e-10
 13.79084     -1.3 1.244e+04 9.383e-10
 13.83049      1.0 1.252e+04 1.110e-09
 13.87015      3.4 1.257e+04 1.254e-09
 13.90980      5.7 1.263e+04 1.316e-09
 13.94946      8.0 1.272e+04 1.259e-09
 13.97358     10.2 1.265e+04 1.295e-09
 13.99340     10.0 1.254e+04 1.074e-09
 14.02877     12.3 1.248e+04 1.120e-09
 14.06843     14.6 1.249e+04 1.085e-09
 14.10808     16.7 1.272e+04 8.764e-10
 14.14774     18.5 1.264e+04 8.340e-10
 14.18739     20.3 1.249e+04 9.729e-10
 14.21802     22.4 1.242e+04 1.133e-09
 14.23785     22.8 1.239e+04 8.855e-10
 14.26550     24.9 1.254e+04 8.400e-10
 14.28532     26.1 1.250e+04 1.343e-09
 14.30636     28.0 1.263e+04 1.207e-09
 14.34601     29.8 1.280e+04 9.931e-10
 14.38567     31.5 1.284e+04 8.473e-10
 14.42532     33.2 1.275e+04 8.370e-10
 14.46246     35.3 1.266e+04 8.939e-10
 14.48229     35.6 1.265e+04 9.303e-10
 14.50464     37.8 1.262e+04 1.056e-09
 14.54429     39.8 1.269e+04 1.299e-09
 14.58395     42.0 1.262e+04 1.925e-09
 14.62360     44.3 1.251e+04 3.156e-09
 14.66326     46.7 1.255e+04 4.410e-09
 14.70291     48.8 1.259e+04 4.500e-09
 14.72673     51.0 1.248e+04 3.968e-09
 14.74656     50.8 1.251e+04 3.896e-09
 14.78222     53.1 1.243e+04 2.757e-09
 14.80758     55.4 1.256e+04 1.802e-09
 14.82741     56.3 1.247e+04 2.548e-09
 14.86154     58.5 1.255e+04 1.819e-09
 14.90119     61.0 1.229e+04 1.690e-09
 14.94085     63.7 1.227e+04 1.708e-09
 14.97117     66.5 1.221e+04 1.868e-09
 14.99100     66.4 1.232e+04 2.044e-09
 15.02016     69.1 1.227e+04 2.514e-09
 15.05981     71.7 1.226e+04 2.968e-09
 15.09947     74.2 1.232e+04 3.088e-09
 15.13912     76.6 1.233e+04 3.021e-09
 15.17878     79.0 1.225e+04 2.882e-09
 15.21561     81.3 1.222e+04 2.723e-09
 15.23544     80.9 1.245e+04 2.240e-09
 15.25809     83.1 1.238e+04 1.924e-09
 15.29775     85.2 1.229e+04 1.686e-09
 15.32983     87.4 1.219e+04 1.479e-09
 15.34966     87.9 1.253e+04 1.618e-09
 15.37706     90.0 1.261e+04 1.079e-09
 15.41671     91.9 1.256e+04 8.023e-10
 15.45637     94.1 1.220e+04 7.621e-10
 15.47988     96.4 1.217e+04 7.696e-10
 15.49971     96.6 1.216e+04 6.708e-10
 15.53568     98.8 1.208e+04 7.325e-10
 15.57533    100.9 1.208e+04 8.680e-10
 15.61499    102.7 1.203e+04 1.179e-09
 15.65464    104.4 1.191e+04 1.742e-09
 15.69430    105.9 1.182e+04 2.458e-09
 15.72432    107.0 1.181e+04 2.821e-09
 15.74415    107.1 1.176e+04 2.576e-09
 15.77361    107.8 1.175e+04 2.582e-09
 15.81327    108.5 1.167e+04 2.410e-09
 15.85209    109.3 1.154e+04 1.943e-09
 15.87191    109.6 1.149e+04 2.123e-09
 15.89258    110.4 1.137e+04 1.599e-09
 15.93223    111.2 1.133e+04 1.152e-09
 15.96876    112.2 1.125e+04 9.515e-10
 15.98859    112.6 1.113e+04 8.116e-10
 16.01154    114.1 1.111e+04 8.102e-10
 16.05120    115.7 1.112e+04 8.213e-10
 16.09085    117.3 1.116e+04 8.421e-10
 16.13051    118.9 1.117e+04 8.629e-10
 16.17017    120.5 1.118e+04 8.890e-10
 16.20982    122.2 1.121e+04 9.650e-10
 16.23303    123.9 1.123e+04 1.180e-09
 16.25286    125.0 1.097e+04 9.514e-10
 16.28913    126.9 1.112e+04 1.146e-09
 16.32879    129.0 1.134e+04 1.598e-09
 16.36844    131.1 1.160e+04 2.277e-09
 16.39417    132.6 1.177e+04 2.890e-09
 16.41400    133.1 1.171e+04 2.802e-09
 16.43774    134.4 1.169e+04 3.609e-09
 16.45747    135.9 1.197e+04 4.325e-09
 16.47728    137.1 1.208e+04 4.338e-09
 16.49711    138.9 1.222e+04 5.702e-09
 16.51696    139.7 1.233e+04 5.161e-09
 16.53678    140.4 1.235e+04 4.223e-09
 16.55661    141.1 1.232e+04 3.286e-09
 16.57644    141.8 1.225e+04 2.650e-09
 16.59627    142.6 1.214e+04 2.358e-09
 16.60941    143.5 1.211e+04 2.387e-09
 16.61933    144.2 1.226e+04 3.002e-09
 16.63592    145.1 1.224e+04 3.014e-09
 16.65510    146.0 1.221e+04 3.146e-09
 16.66501    146.0 1.226e+04 3.557e-09
 16.67558    146.8 1.233e+04 3.839e-09
 16.69541    147.6 1.241e+04 4.198e-09
 16.71523    148.5 1.253e+04 4.557e-09
 16.73163    148.9 1.268e+04 4.905e-09
 16.74155    148.8 1.291e+04 5.665e-09
 16.75489    148.6 1.320e+04 7.625e-09
 16.77472    148.2 1.366e+04 1.134e-08
 16.78954    147.7 1.399e+04 1.339e-08
 16.79548    147.4 1.426e+04 1.463e-08
 16.79863    146.2 1.465e+04 1.643e-08
 16.80256    145.7 1.525e+04 1.927e-08
 16.80932    142.6 1.690e+04 3.862e-08
 16.81923    139.9 1.781e+04 9.405e-08
 16.82914    138.4 1.823e+04 2.037e-07
 16.83906    137.8 1.874e+04 3.175e-07
 16.84897    136.7 1.924e+04 3.277e-07
 16.85871    134.9 1.946e+04 2.890e-07
 16.86367    134.4 1.944e+04 4.797e-07
 16.86880    131.5 2.029e+04 2.546e-07
 16.87871    126.9 2.082e+04 1.164e-07
 16.88863    121.7 1.900e+04 8.457e-08
 16.89854    118.6 1.765e+04 8.422e-08
 16.90846    117.2 1.765e+04 8.758e-08
 16.91837    116.2 1.728e+04 9.371e-08
 16.92609    114.7 1.750e+04 1.260e-07
 16.93605    115.4 1.635e+04 7.391e-08
 16.95317    115.2 1.699e+04 1.011e-07
 16.97299    115.1 1.753e+04 1.141e-07
 16.98599    114.5 1.754e+04 1.098e-07
 16.99590    113.9 1.555e+04 5.710e-08
 17.01265    113.4 1.519e+04 4.683e-08
 17.03248    113.0 1.475e+04 3.689e-08
 17.05230    113.0 1.433e+04 2.939e-08
 17.07213    113.1 1.393e+04 2.449e-08
 17.09196    113.7 1.354e+04 2.207e-08
 17.10821    114.8 1.339e+04 2.195e-08
 17.11812    115.5 1.280e+04 1.633e-08
 17.13162    116.8 1.279e+04 1.639e-08
 17.15144    117.9 1.278e+04 1.670e-08
 17.17127    118.8 1.275e+04 1.727e-08
 17.18727    119.6 1.275e+04 1.822e-08
 17.19718    119.1 1.248e+04 1.580e-08
 17.21093    119.9 1.234e+04 1.506e-08
 17.23043    120.6 1.213e+04 1.411e-08
 17.24034    120.9 1.188e+04 1.297e-08
 17.25058    121.7 1.176e+04 1.279e-08
 17.27041    122.6 1.167e+04 1.232e-08
 17.29024    123.5 1.161e+04 1.189e-08
 17.31007    124.5 1.162e+04 1.136e-08
 17.32989    125.4 1.166e+04 1.083e-08
 17.34972    126.2 1.171e+04 1.032e-08
 17.36256    126.9 1.171e+04 9.805e-09
 17.37248    127.4 1.177e+04 1.087e-08
 17.38938    128.1 1.176e+04 1.026e-08
 17.40920    128.7 1.166e+04 9.636e-09
 17.42903    129.3 1.148e+04 9.059e-09
 17.44839    129.8 1.124e+04 8.547e-09
 17.45831    129.0 1.024e+04 5.801e-09
 17.46869    129.5 1.022e+04 5.716e-09
 17.48478    130.1 1.023e+04 5.720e-09
 17.49470    130.0 1.034e+04 6.509e-09
 17.50834    130.5 1.035e+04 6.543e-09
 17.52817    130.8 1.037e+04 6.723e-09
 17.54800    131.1 1.046e+04 7.230e-09
 17.56783    131.2 1.062e+04 8.090e-09
 17.58765    131.0 1.081e+04 9.255e-09
 17.60701    130.7 1.110e+04 1.083e-08
 17.61692    130.0 1.128e+04 1.161e-08
 17.62731    129.1 1.162e+04 1.333e-08
 17.64714    127.6 1.193e+04 1.482e-08
 17.66696    125.6 1.206e+04 1.501e-08
 17.68679    123.4 1.199e+04 1.439e-08
 17.70662    121.3 1.176e+04 1.203e-08
 17.71943    118.8 1.188e+04 1.073e-08
 17.72935    120.6 1.125e+04 8.527e-09
 17.73914    118.1 1.139e+04 8.287e-09
 17.74905    116.6 1.114e+04 6.957e-09
 17.76610    111.4 1.204e+04 8.454e-09
 17.78593    104.8 1.370e+04 1.900e-08
 17.80576    100.5 1.444e+04 4.644e-08
 17.82559     98.1 1.480e+04 6.466e-08
 17.84541     95.4 1.493e+04 6.228e-08
 17.86136     91.0 1.512e+04 4.846e-08
 17.87127     90.2 1.450e+04 4.181e-08
 17.88507     84.4 1.393e+04 3.092e-08
 17.90490     79.1 1.266e+04 2.284e-08
 17.92472     75.6 1.131e+04 1.581e-08
 17.95456     72.0 1.026e+04 7.394e-09
 17.98076     67.3 8.704e+03 2.707e-09
 17.99004     68.0 8.704e+03 2.744e-09
 17.99359     69.7 8.852e+03 3.145e-09
 18.00404     68.2 8.366e+03 2.406e-09
 18.03388     67.3 8.142e+03 2.253e-09
 18.07363     66.5 8.166e+03 2.356e-09
 18.11328     66.3 8.350e+03 2.828e-09
 18.15294     66.5 8.637e+03 3.493e-09
 18.19259     66.9 8.829e+03 3.766e-09
 18.22822     67.4 8.817e+03 3.701e-09
 18.24805     67.4 8.840e+03 3.776e-09
 18.27191     68.2 8.743e+03 3.318e-09
 18.31156     69.3 8.609e+03 2.556e-09
 18.35122     70.5 8.498e+03 1.827e-09
 18.39087     71.6 8.451e+03 1.317e-09
 18.43053     72.7 8.416e+03 1.118e-09
 18.47018     74.2 8.411e+03 1.120e-09
 18.49249     75.7 8.462e+03 1.181e-09
 18.50549     75.7 8.456e+03 1.199e-09
 18.52284     75.0 8.349e+03 1.143e-09
 18.54949     76.6 8.459e+03 1.228e-09
 18.58915     78.2 8.621e+03 1.307e-09
 18.62880     79.7 8.780e+03 1.302e-09
 18.66846     80.8 8.871e+03 1.241e-09
 18.70812     81.9 8.996e+03 1.153e-09
 18.73693     82.8 9.038e+03 1.155e-09
 18.75676     83.3 9.038e+03 1.162e-09
 18.78743     84.0 9.100e+03 1.262e-09
 18.82708     84.6 9.161e+03 1.716e-09
 18.86674     85.3 9.194e+03 2.393e-09
 18.90639     85.9 9.127e+03 2.739e-09
 18.94605     86.2 9.090e+03 2.658e-09
 18.98137     86.5 8.962e+03 2.317e-09
 19.00120     86.6 9.192e+03 3.238e-09
 19.02526     86.7 9.084e+03 2.845e-09
 19.06492     87.0 8.998e+03 2.660e-09
 19.10467     87.1 9.055e+03 2.736e-09
 19.13431     87.4 9.075e+03 3.107e-09
 19.15404     87.7 9.196e+03 3.525e-09
 19.17387     88.0 9.328e+03 3.982e-09
 19.19370     88.3 9.434e+03 4.413e-09
 19.21353     88.6 9.525e+03 4.806e-09
 19.23336     88.9 9.613e+03 5.196e-09
 19.24544     89.1 9.729e+03 5.651e-09
 19.25536     89.0 9.797e+03 6.034e-09
 19.27301     89.1 1.000e+04 6.823e-09
 19.29284     89.0 1.030e+04 8.041e-09
 19.30602     88.9 1.066e+04 9.725e-09
 19.31594     88.0 1.040e+04 8.795e-09
 19.33249     87.8 1.059e+04 1.025e-08
 19.35232     87.2 1.103e+04 1.273e-08
 19.36766     84.9 1.236e+04 1.941e-08
 19.37758     85.4 1.285e+04 2.448e-08
 19.38697     83.8 1.356e+04 2.943e-08
 19.39684     81.0 1.503e+04 4.143e-08
 19.40675     77.0 1.669e+04 7.361e-08
 19.41666     73.5 1.765e+04 1.442e-07
 19.42658     71.4 1.826e+04 2.692e-07
 19.43363     69.5 1.885e+04 3.660e-07
 19.43859     69.1 1.898e+04 4.255e-07
 19.44640     66.0 1.895e+04 3.027e-07
 19.45632     63.0 1.882e+04 2.269e-07
 19.46623     59.6 1.852e+04 1.403e-07
 19.47615     56.8 1.815e+04 9.238e-08
 19.48984     50.3 1.664e+04 4.180e-08
 19.49980     50.2 1.711e+04 4.730e-08
 19.51094     43.0 1.304e+04 2.071e-08
 19.53077     41.0 1.120e+04 1.492e-08
 19.55060     41.2 1.060e+04 1.262e-08
 19.56715     41.4 1.019e+04 1.044e-08
 19.57706     41.3 1.214e+04 1.735e-08
 19.59025     40.9 1.136e+04 1.320e-08
 19.61008     40.2 1.054e+04 9.788e-09
 19.62202     39.2 9.838e+03 7.367e-09
 19.63193     39.4 1.007e+04 7.988e-09
 19.64974     38.2 9.592e+03 7.055e-09
 19.66957     37.2 9.585e+03 7.231e-09
 19.68939     35.7 9.864e+03 8.543e-09
 19.70922     33.0 1.089e+04 1.345e-08
 19.72905     29.5 1.280e+04 2.747e-08
 19.74424     26.4 1.496e+04 5.467e-08
 19.75415     25.0 1.588e+04 6.493e-08
 19.76870     20.2 1.679e+04 7.880e-08
 19.78853     14.8 1.566e+04 6.435e-08
 19.80836      9.4 1.414e+04 4.432e-08
 19.82819      4.9 1.378e+04 3.540e-08
 19.84802      0.6 1.177e+04 1.754e-08
 19.86646     -1.3 1.144e+04 1.464e-08
 19.87637     -3.1 1.097e+04 1.214e-08
 19.88767     -4.1 1.069e+04 1.169e-08
 19.90750     -4.3 1.062e+04 1.182e-08
 19.92733     -3.7 1.032e+04 1.078e-08
 19.94715     -2.7 1.007e+04 9.022e-09
 19.96698     -2.2 9.810e+03 6.924e-09
 19.98681     -1.9 9.647e+03 5.670e-09
 19.99859     -1.7 9.529e+03 4.952e-09
 20.00851     -1.8 9.635e+03 5.077e-09
 20.02646     -1.6 9.478e+03 4.814e-09
 20.04629     -0.5 9.480e+03 4.896e-09
 20.06612      0.5 9.473e+03 5.152e-09
 20.08595      1.8 9.381e+03 5.312e-09
 20.09932      3.3 9.448e+03 4.888e-09
 20.10923      3.8 9.488e+03 4.978e-09
 20.12082      5.2 9.327e+03 5.004e-09
 20.13073      5.2 9.453e+03 5.360e-09
 20.14543      6.8 9.350e+03 4.904e-09
 20.17527      8.2 9.284e+03 4.051e-09
 20.21502     10.6 8.865e+03 3.559e-09
 20.24323     13.2 8.750e+03 3.316e-09
 20.26306     13.5 8.845e+03 3.680e-09
 20.29433     16.3 8.773e+03 3.122e-09
 20.33399     18.8 8.775e+03 2.712e-09
 20.37365     21.2 8.875e+03 2.767e-09
 20.41330     23.5 9.132e+03 3.166e-09
 20.45296     25.7 9.389e+03 3.869e-09
 20.48767     28.0 9.620e+03 4.560e-09
 20.50750     28.4 9.658e+03 4.197e-09
 20.53227     30.5 9.903e+03 4.901e-09
 20.57192     32.5 9.999e+03 5.085e-09
 20.61158     34.3 9.951e+03 4.856e-09
 20.63168     36.2 9.866e+03 4.287e-09
 20.65151     36.9 9.702e+03 2.936e-09
 20.69089     38.7 9.646e+03 2.879e-09
 20.73054     40.6 9.633e+03 2.780e-09
 20.75194     42.5 9.640e+03 2.595e-09
 20.77177     42.8 9.803e+03 2.816e-09
 20.80986     44.7 9.814e+03 2.508e-09
 20.84951     46.5 9.777e+03 2.090e-09
 20.88917     48.1 9.761e+03 1.856e-09
 20.92882     49.8 9.764e+03 1.876e-09
 20.96848     51.5 9.873e+03 2.031e-09
 20.99638     53.4 9.965e+03 2.316e-09
 21.01621     53.6 1.005e+04 2.283e-09
 21.04779     55.7 1.010e+04 2.494e-09
 21.08744     57.7 1.005e+04 2.420e-09
 21.12710     59.9 9.977e+03 2.049e-09
 21.15393     62.1 9.983e+03 1.470e-09
 21.17376     62.9 1.021e+04 2.669e-09
 21.20641     65.1 1.022e+04 2.033e-09
 21.24082     67.3 1.025e+04 1.566e-09
 21.26065     67.3 1.055e+04 2.519e-09
 21.28572     69.3 1.060e+04 2.050e-09
 21.32538     71.2 1.057e+04 1.885e-09
 21.35502     72.5 1.039e+04 1.675e-09
 21.37276     73.0 1.038e+04 1.728e-09
 21.38268     73.1 1.044e+04 1.914e-09
 21.40459     74.7 1.045e+04 1.979e-09
 21.44434     76.4 1.048e+04 2.085e-09
 21.48400     78.3 1.057e+04 2.187e-09
 21.50509     80.5 1.081e+04 2.382e-09
 21.51491     79.6 1.085e+04 2.529e-09
 21.53337     80.4 1.099e+04 2.640e-09
 21.55320     81.3 1.110e+04 2.769e-09
 21.57303     81.9 1.118e+04 2.893e-09
 21.59286     82.8 1.124e+04 3.085e-09
 21.61268     83.9 1.133e+04 3.329e-09
 21.62712     84.9 1.143e+04 3.581e-09
 21.63703     84.2 1.157e+04 3.850e-09
 21.65234     85.2 1.163e+04 4.029e-09
 21.67217     86.0 1.174e+04 4.270e-09
 21.68591     86.7 1.195e+04 4.809e-09
 21.69582     86.6 1.198e+04 4.936e-09
 21.71182     86.5 1.225e+04 6.192e-09
 21.73165     86.2 1.259e+04 9.180e-09
 21.74934     85.9 1.305e+04 1.516e-08
 21.75925     85.2 1.321e+04 1.814e-08
 21.77131     85.3 1.360e+04 2.491e-08
 21.79113     85.1 1.372e+04 2.607e-08
 21.81096     84.8 1.359e+04 2.466e-08
 21.83079     84.7 1.319e+04 2.008e-08
 21.85062     84.7 1.274e+04 1.531e-08
 21.88046     85.0 1.223e+04 9.668e-09
 21.92021     85.9 1.177e+04 5.907e-09
 21.95986     87.3 1.117e+04 4.215e-09
 21.99398     89.9 1.096e+04 4.097e-09
 22.01380     90.6 1.107e+04 5.105e-09
 22.02916     92.0 1.104e+04 4.941e-09
 22.04889     93.2 1.105e+04 4.977e-09
 22.06872     94.4 1.108e+04 5.166e-09
 22.08855     95.6 1.111e+04 5.575e-09
 22.10838     96.7 1.115e+04 6.118e-09
 22.12591     97.7 1.120e+04 6.751e-09
 22.13583     98.1 1.126e+04 7.096e-09
 22.14803     99.2 1.131e+04 7.776e-09
 22.16786    100.2 1.137e+04 8.537e-09
 22.18769    101.2 1.144e+04 9.316e-09
 22.20752    102.2 1.151e+04 1.017e-08
 22.21807    103.2 1.159e+04 1.111e-08
 22.22799    103.2 1.152e+04 1.104e-08
 22.24717    104.1 1.162e+04 1.218e-08
 22.25805    105.2 1.175e+04 1.365e-08
 22.26796    105.4 1.163e+04 1.305e-08
 22.28683    106.4 1.178e+04 1.463e-08
 22.30665    107.2 1.195e+04 1.646e-08
 22.32648    108.2 1.213e+04 1.855e-08
 22.34631    109.0 1.231e+04 2.076e-08
 22.36614    109.7 1.243e+04 2.235e-08
 22.38027    110.2 1.245e+04 2.269e-08
 22.39018    110.3 1.210e+04 1.922e-08
 22.40579    110.7 1.208e+04 1.919e-08
 22.42562    111.2 1.198e+04 1.870e-08
 22.44545    111.6 1.181e+04 1.758e-08
 22.46528    112.1 1.158e+04 1.618e-08
 22.47920    112.5 1.134e+04 1.479e-08
 22.48911    111.9 1.123e+04 1.421e-08
 22.50249    112.3 1.097e+04 1.294e-08
 22.51240    112.6 1.091e+04 1.284e-08
 22.52476    113.0 1.073e+04 1.212e-08
 22.54459    113.4 1.058e+04 1.171e-08
 22.56442    113.8 1.047e+04 1.158e-08
 22.58424    114.2 1.039e+04 1.152e-08
 22.60407    114.5 1.035e+04 1.156e-08
 22.62390    114.8 1.028e+04 1.140e-08
 22.63463    114.8 1.023e+04 1.117e-08
 22.64454    115.2 9.984e+03 1.020e-08
 22.67357    115.7 9.861e+03 9.484e-09
 22.71332    116.3 9.391e+03 7.782e-09
 22.74052    117.1 8.767e+03 5.802e-09
 22.75450    117.1 8.425e+03 4.781e-09
 22.76696    117.4 8.150e+03 3.934e-09
 22.79263    118.4 7.538e+03 2.770e-09
 22.83228    119.8 7.025e+03 2.007e-09
 22.87194    121.4 6.633e+03 1.528e-09
 22.91160    123.4 6.398e+03 1.244e-09
 22.95125    125.4 6.253e+03 1.095e-09
 22.99091    127.6 6.185e+03 1.066e-09
 23.01140    129.8 6.188e+03 1.065e-09
 23.03122    130.1 6.273e+03 1.271e-09
 23.07022    132.3 6.282e+03 1.279e-09
 23.10987    134.4 6.306e+03 1.318e-09
 23.14953    136.3 6.398e+03 1.443e-09
 23.18918    138.1 6.598e+03 1.707e-09
 23.22884    139.5 6.951e+03 2.156e-09
 23.25584    140.3 7.478e+03 2.892e-09
 23.26995    140.3 7.648e+03 3.317e-09
 23.28260    142.8 7.573e+03 3.324e-09
 23.29814    142.6 7.768e+03 3.695e-09
 23.31787    142.4 8.034e+03 4.338e-09
 23.33770    142.2 8.438e+03 5.525e-09
 23.35752    142.0 8.835e+03 6.788e-09
 23.37735    141.7 9.187e+03 7.556e-09
 23.38778    141.2 9.335e+03 7.607e-09
 23.39769    140.9 9.786e+03 9.499e-09
 23.41701    139.9 9.774e+03 9.273e-09
 23.43684    139.1 9.682e+03 8.556e-09
 23.45666    138.3 9.484e+03 7.499e-09
 23.47649    137.5 9.283e+03 6.575e-09
 23.49632    136.8 9.203e+03 6.183e-09
 23.51000    136.2 9.224e+03 6.227e-09
 23.51991    133.9 9.487e+03 7.437e-09
 23.53362    133.3 9.683e+03 8.225e-09
 23.54354    134.0 9.761e+03 8.713e-09
 23.55580    133.5 1.003e+04 9.876e-09
 23.57563    133.1 1.037e+04 1.154e-08
 23.59546    132.9 1.072e+04 1.343e-08
 23.61529    132.7 1.103e+04 1.506e-08
 23.63222    132.4 1.125e+04 1.612e-08
 23.64213    130.3 1.125e+04 1.580e-08
 23.65494    130.0 1.148e+04 1.684e-08
 23.67477    129.5 1.178e+04 1.841e-08
 23.69460    128.9 1.220e+04 2.099e-08
 23.71442    128.1 1.268e+04 2.506e-08
 23.73425    127.4 1.319e+04 3.077e-08
 23.75408    126.9 1.365e+04 3.682e-08
 23.76435    126.1 1.385e+04 3.868e-08
 23.77427    125.1 1.450e+04 5.135e-08
 23.79373    124.1 1.446e+04 4.983e-08
 23.80466    123.1 1.415e+04 4.261e-08
 23.81458    122.9 1.333e+04 3.138e-08
 23.83339    121.8 1.273e+04 2.371e-08
 23.85322    120.6 1.212e+04 1.767e-08
 23.87305    119.7 1.166e+04 1.419e-08
 23.88657    118.9 1.153e+04 1.159e-08
 23.89649    117.9 1.139e+04 1.034e-08
 23.91270    117.2 1.119e+04 8.681e-09
 23.94254    116.8 1.083e+04 6.690e-09
 23.98229    116.2 1.045e+04 4.437e-09
 24.00899    116.0 1.016e+04 2.973e-09
 24.02882    115.4 1.032e+04 3.130e-09
 24.06160    115.8 1.031e+04 2.520e-09
 24.10126    116.8 1.041e+04 2.270e-09
 24.14092    118.1 1.051e+04 2.175e-09
 24.18057    119.4 1.062e+04 2.076e-09
 24.22023    120.7 1.079e+04 1.908e-09
 24.25343    121.8 1.094e+04 1.695e-09
 24.27326    122.2 1.111e+04 1.675e-09
 24.29954    123.4 1.124e+04 1.529e-09
 24.32711    124.6 1.135e+04 1.525e-09
 24.34694    125.2 1.121e+04 1.556e-09
 24.37885    126.2 1.148e+04 1.604e-09
 24.41850    126.7 1.184e+04 1.792e-09
 24.44815    126.8 1.198e+04 2.129e-09
 24.46788    127.0 1.198e+04 2.555e-09
 24.48771    127.0 1.220e+04 3.000e-09
 24.50753    126.4 1.291e+04 4.467e-09
 24.52736    124.8 1.368e+04 7.415e-09
 24.54719    120.1 1.610e+04 3.046e-08
 24.56702    116.1 1.763e+04 1.193e-07
 24.57857    114.7 1.796e+04 1.980e-07
 24.58347    114.3 1.785e+04 1.658e-07
 24.59170    112.8 1.789e+04 2.044e-07
 24.59786    111.6 1.783e+04 2.135e-07
 24.60782    111.8 1.754e+04 1.708e-07
 24.62650    110.0 1.710e+04 1.388e-07
 24.63973    109.4 1.600e+04 6.486e-08
 24.64964    107.7 1.535e+04 6.004e-08
 24.66616    107.2 1.387e+04 2.321e-08
 24.68598    106.9 1.267e+04 8.736e-09
 24.70581    106.2 1.153e+04 4.436e-09
 24.73565    104.6 1.044e+04 2.443e-09
 24.76214    105.5 1.007e+04 2.181e-09
 24.78197    105.7 1.022e+04 2.165e-09
 24.81506    107.2 1.000e+04 2.091e-09
 24.84937    109.6 9.989e+03 2.123e-09
 24.86919    109.9 1.008e+04 2.214e-09
 24.89437    112.1 1.006e+04 2.326e-09
 24.93402    114.3 1.010e+04 2.682e-09
 24.97368    116.3 1.024e+04 3.506e-09
 25.00658    118.3 1.043e+04 4.642e-09
 25.02641    118.9 1.033e+04 4.074e-09
 25.05299    120.7 1.063e+04 5.329e-09
 25.09265    122.0 1.087e+04 5.739e-09
 25.13230    122.9 1.088e+04 5.607e-09
 25.17196    123.8 1.081e+04 4.892e-09
 25.21161    124.8 1.063e+04 3.734e-09
 25.25102    125.8 1.047e+04 2.858e-09
 25.27085    126.3 1.045e+04 2.697e-09
 25.29092    127.6 1.043e+04 2.511e-09
 25.33058    128.7 1.047e+04 2.547e-09
 25.37023    129.4 1.064e+04 2.639e-09
 25.39145    129.6 1.073e+04 2.637e-09
 25.41127    130.4 1.064e+04 2.039e-09
 25.44955    130.7 1.068e+04 2.007e-09
 25.48920    130.9 1.076e+04 1.870e-09
 25.51529    131.1 1.084e+04 1.737e-09
 25.53512    132.4 1.087e+04 2.095e-09
 25.56851    132.4 1.089e+04 2.102e-09
 25.60817    132.4 1.099e+04 2.212e-09
 25.64782    132.6 1.114e+04 2.466e-09
 25.68748    132.9 1.123e+04 2.731e-09
 25.72713    133.4 1.121e+04 2.900e-09
 25.75973    134.0 1.118e+04 2.906e-09
 25.77956    134.5 1.106e+04 2.845e-09
 25.80645    135.4 1.098e+04 2.788e-09
 25.84610    136.8 1.088e+04 2.561e-09
 25.88576    138.6 1.071e+04 2.220e-09
 25.91370    140.6 1.061e+04 1.740e-09
 25.93353    141.8 1.066e+04 1.954e-09
 25.96507    144.0 1.058e+04 1.590e-09
 26.00418    146.3 1.055e+04 1.231e-09
 26.02400    147.5 1.041e+04 1.359e-09
 26.04438    150.0 1.044e+04 1.129e-09
 26.08403    152.4 1.050e+04 9.778e-10
 26.12369    154.8 1.055e+04 9.123e-10
 26.16334    157.2 1.061e+04 8.909e-10
 26.20300    159.5 1.067e+04 9.092e-10
 26.24266    161.7 1.076e+04 9.643e-10
 26.26844    163.8 1.087e+04 1.117e-09
 26.28827    165.4 1.069e+04 1.073e-09
 26.32197    167.5 1.079e+04 1.321e-09
 26.36162    169.6 1.102e+04 1.710e-09
 26.40128    171.4 1.140e+04 2.222e-09
 26.43595    173.0 1.177e+04 2.729e-09
 26.45578    175.0 1.170e+04 2.599e-09
 26.48059    175.8 1.194e+04 3.170e-09
 26.51023    176.5 1.225e+04 3.764e-09
 26.52260    176.8 1.234e+04 3.772e-09
 26.53252    177.7 1.231e+04 3.945e-09
 26.54979    177.9 1.240e+04 3.817e-09
 26.56962    177.9 1.252e+04 3.743e-09
 26.58945    177.5 1.268e+04 3.839e-09
 26.60927    176.7 1.300e+04 4.415e-09
 26.62910    175.8 1.326e+04 6.609e-09
 26.64482    174.8 1.356e+04 1.055e-08
 26.65474    175.9 1.339e+04 8.440e-09
 26.66876    174.9 1.372e+04 1.237e-08
 26.68858    173.8 1.410e+04 1.392e-08
 26.70680    172.6 1.412e+04 1.365e-08
 26.71671    174.0 1.416e+04 1.369e-08
 26.72824    172.8 1.414e+04 1.267e-08
 26.74807    171.8 1.406e+04 9.752e-09
 26.76705    171.0 1.403e+04 6.933e-09
 26.77696    172.2 1.399e+04 7.853e-09
 26.78772    171.4 1.400e+04 5.701e-09
 26.80755    170.5 1.396e+04 4.661e-09
 26.82738    169.7 1.412e+04 4.529e-09
 26.84721    168.8 1.413e+04 4.583e-09
 26.86703    167.8 1.408e+04 4.768e-09
 26.88686    167.2 1.402e+04 4.851e-09
 26.89918    167.2 1.392e+04 5.206e-09
 26.90909    168.1 1.388e+04 4.867e-09
 26.92652    167.9 1.380e+04 5.332e-09
 26.95636    167.8 1.388e+04 7.019e-09
 26.97804    167.3 1.418e+04 8.838e-09
 26.99786    168.9 1.405e+04 6.640e-09
 27.02160    167.7 1.415e+04 7.411e-09
 27.04142    168.8 1.409e+04 7.446e-09
 27.07542    167.3 1.398e+04 7.120e-09
 27.11508    167.0 1.358e+04 5.597e-09
 27.15473    167.2 1.339e+04 3.604e-09
 27.19439    167.7 1.325e+04 2.171e-09
 27.23404    168.3 1.308e+04 1.458e-09
 27.26604    169.5 1.310e+04 1.399e-09
 27.28586    170.0 1.256e+04 1.429e-09
 27.31335    171.6 1.255e+04 1.480e-09
 27.35301    173.2 1.255e+04 1.736e-09
 27.39266    174.7 1.263e+04 2.269e-09
 27.43232    176.0 1.274e+04 3.035e-09
 27.47197    177.1 1.285e+04 3.844e-09
 27.50029    178.2 1.283e+04 4.371e-09
 27.51897    179.6 1.271e+04 4.176e-09
 27.53031    180.1 1.249e+04 4.091e-09
 27.55129    181.1 1.261e+04 4.463e-09
 27.59094    181.8 1.257e+04 4.437e-09
 27.63060    182.6 1.252e+04 4.054e-09
 27.67025    183.5 1.240e+04 3.117e-09
 27.70991    184.5 1.225e+04 2.127e-09
 27.74956    185.8 1.211e+04 1.391e-09
 27.77475    187.3 1.193e+04 1.054e-09
 27.79458    187.8 1.193e+04 1.115e-09
 27.82887    189.5 1.184e+04 1.074e-09
 27.86853    191.3 1.182e+04 1.126e-09
 27.90819    193.0 1.177e+04 1.316e-09
 27.94784    194.7 1.175e+04 1.632e-09
 27.98750    196.3 1.179e+04 2.004e-09
 28.01919    197.9 1.184e+04 2.283e-09
 28.03441    198.7 1.178e+04 2.392e-09
 28.04237    200.0 1.158e+04 1.748e-09
 28.06681    201.7 1.157e+04 2.023e-09
 28.10646    203.6 1.157e+04 2.203e-09
 28.14612    205.8 1.160e+04 2.300e-09
 28.18577    208.3 1.173e+04 2.401e-09
 28.22543    210.8 1.199e+04 2.590e-09
 28.25507    211.6 1.213e+04 2.794e-09
 28.27335    212.4 1.224e+04 3.103e-09
 28.28326    213.1 1.215e+04 3.140e-09
 28.29339    213.9 1.229e+04 3.666e-09
 28.30330    214.8 1.212e+04 3.372e-09
 28.31446    215.5 1.223e+04 4.083e-09
 28.33429    216.1 1.239e+04 5.060e-09
 28.35411    216.5 1.260e+04 6.174e-09
 28.37394    216.9 1.283e+04 7.276e-09
 28.39377    217.1 1.305e+04 8.179e-09
 28.40548    217.2 1.322e+04 8.780e-09
 28.41540    217.9 1.322e+04 9.617e-09
 28.43342    217.9 1.333e+04 9.589e-09
 28.45325    217.7 1.334e+04 9.514e-09
 28.47308    217.4 1.334e+04 9.194e-09
 28.49291    217.2 1.330e+04 8.493e-09
 28.51274    217.0 1.321e+04 7.512e-09
 28.52770    217.0 1.308e+04 6.383e-09
 28.53762    217.5 1.317e+04 7.296e-09
 28.55239    217.4 1.303e+04 6.107e-09
 28.56443    217.4 1.290e+04 5.025e-09
 28.57434    218.7 1.292e+04 5.000e-09
 28.59205    218.7 1.290e+04 4.027e-09
 28.61187    218.7 1.290e+04 3.384e-09
 28.63170    218.7 1.286e+04 3.323e-09
 28.64992    218.6 1.285e+04 3.422e-09
 28.65984    218.7 1.291e+04 4.349e-09
 28.67136    218.5 1.288e+04 5.078e-09
 28.69119    218.2 1.287e+04 6.830e-09
 28.71101    218.1 1.295e+04 9.855e-09
 28.73084    218.0 1.313e+04 1.399e-08
 28.75067    217.9 1.330e+04 1.795e-08
 28.77050    217.5 1.345e+04 2.024e-08
 28.78206    216.8 1.343e+04 1.961e-08
 28.79197    216.4 1.360e+04 2.202e-08
 28.81015    215.4 1.342e+04 1.854e-08
 28.82556    214.3 1.317e+04 1.376e-08
 28.83547    215.5 1.349e+04 1.794e-08
 28.84981    214.1 1.316e+04 1.242e-08
 28.86963    212.4 1.282e+04 8.392e-09
 28.88946    210.8 1.246e+04 6.198e-09
 28.90428    209.4 1.212e+04 5.238e-09
 28.91419    208.2 1.208e+04 5.090e-09
 28.92912    207.6 1.178e+04 4.484e-09
 28.94895    207.1 1.158e+04 4.014e-09
 28.97879    207.2 1.142e+04 3.409e-09
 29.01678    207.3 1.106e+04 2.611e-09
 29.03661    206.0 1.115e+04 2.697e-09
 29.05819    206.6 1.081e+04 2.086e-09
 29.08688    207.7 1.047e+04 1.594e-09
 29.10671    208.3 1.047e+04 1.671e-09
 29.13750    209.7 1.022e+04 1.373e-09
 29.17716    211.2 1.002e+04 1.261e-09
 29.21682    213.0 9.963e+03 1.267e-09
 29.25647    214.8 9.967e+03 1.295e-09
 29.28105    216.7 9.976e+03 1.376e-09
 29.30088    216.1 1.011e+04 1.508e-09
 29.33578    218.1 1.014e+04 1.637e-09
 29.37544    220.0 1.018e+04 1.819e-09
 29.41509    221.7 1.023e+04 2.023e-09
 29.45475    223.4 1.025e+04 2.214e-09
 29.49440    224.9 1.025e+04 2.353e-09
 29.52549    226.4 1.025e+04 2.421e-09
 29.54532    225.9 1.036e+04 2.637e-09
 29.57371    227.2 1.033e+04 2.582e-09
 29.60336    228.0 1.025e+04 2.466e-09
 29.61885    228.5 1.021e+04 2.430e-09
 29.62876    228.4 1.022e+04 2.448e-09
 29.64292    229.2 1.016e+04 2.444e-09
 29.65743    230.0 1.014e+04 2.472e-09
 29.66735    230.6 1.019e+04 2.650e-09
 29.68257    231.1 1.024e+04 2.790e-09
 29.70240    231.6 1.036e+04 3.043e-09
 29.72223    231.9 1.059e+04 3.488e-09
 29.74206    231.7 1.104e+04 4.341e-09
 29.76188    230.9 1.179e+04 6.286e-09
 29.77965    229.4 1.308e+04 1.130e-08
 29.78957    226.2 1.470e+04 2.530e-08
 29.79653    225.6 1.516e+04 3.052e-08
 29.80640    225.3 1.552e+04 3.517e-08
 29.81631    224.3 1.614e+04 4.835e-08
 29.82623    223.7 1.650e+04 5.893e-08
 29.83614    222.6 1.693e+04 7.367e-08
 29.84562    221.9 1.720e+04 8.406e-08
 29.85058    220.8 1.734e+04 8.705e-08
 29.85597    219.7 1.748e+04 9.271e-08
 29.86588    218.8 1.760e+04 9.491e-08
 29.87579    217.8 1.777e+04 9.480e-08
 29.88484    216.4 1.819e+04 9.598e-08
 29.88979    216.5 1.773e+04 8.406e-08
 29.89562    214.9 1.825e+04 8.472e-08
 29.90554    211.3 1.979e+04 9.439e-08
 29.91169    205.8 2.150e+04 1.431e-07
 29.91665    206.4 2.020e+04 8.470e-08
 29.92536    200.6 2.135e+04 1.823e-07
 29.93528    195.8 2.082e+04 4.374e-07
 29.94519    192.2 2.019e+04 8.418e-07
 29.95511    188.6 1.926e+04 1.355e-06
 29.96502    185.8 1.933e+04 1.421e-06
 29.97243    183.7 1.941e+04 1.625e-06
 29.97523    181.7 1.970e+04 1.424e-06
 29.97771    181.4 1.887e+04 2.835e-06
 29.98232    177.4 1.941e+04 2.639e-06
 29.98728    171.9 1.987e+04 2.585e-06
 29.99223    165.1 1.984e+04 2.665e-06
 29.99719    160.4 1.935e+04 2.663e-06
 30.00465    156.0 1.833e+04 3.612e-06
 30.01459    153.5 1.882e+04 1.887e-06
 30.02036    151.6 2.073e+04 5.602e-07
 30.02531    151.5 1.993e+04 1.425e-06
 30.03391    149.3 2.218e+04 4.383e-07
 30.03887    146.2 2.229e+04 4.130e-07
 30.04433    145.9 2.111e+04 3.275e-07
 30.05424    146.4 2.041e+04 2.832e-07
 30.06416    147.5 2.010e+04 2.407e-07
 30.07908    149.5 1.995e+04 1.810e-07
 30.09895    151.4 1.944e+04 1.433e-07
 30.11878    153.1 1.858e+04 1.123e-07
 30.13861    154.3 1.778e+04 8.864e-08
 30.15097    154.1 1.791e+04 1.032e-07
 30.15588    152.9 1.846e+04 1.385e-07
 30.16109    153.4 1.842e+04 1.428e-07
 30.16609    152.6 1.897e+04 1.382e-07
 30.17326    153.1 1.917e+04 1.540e-07
 30.18312    153.5 1.932e+04 1.782e-07
 30.19304    153.7 1.950e+04 2.162e-07
 30.20295    153.8 1.962e+04 2.721e-07
 30.21287    153.8 1.977e+04 3.519e-07
 30.22220    153.6 2.009e+04 4.655e-07
 30.22715    150.8 2.115e+04 4.823e-07
 30.23269    149.4 2.118e+04 6.894e-07
 30.24261    147.5 2.091e+04 1.005e-06
 30.25252    145.2 2.061e+04 1.384e-06
 30.26244    142.7 2.039e+04 1.648e-06
 30.27235    140.2 2.040e+04 1.587e-06
 30.28148    137.8 2.094e+04 1.110e-06
 30.28644    132.6 2.694e+04 1.249e-07
 30.28826    129.3 3.202e+04 2.527e-08
 30.29322    124.1 2.807e+04 1.213e-08
 30.30209    122.7 2.742e+04 1.066e-08
 30.31701    111.1 2.292e+04 7.299e-09
 30.33689    103.4 1.345e+04 7.922e-09
 30.35672    101.0 1.048e+04 8.142e-09
 30.37654    100.6 1.019e+04 7.416e-09
 30.40638    100.9 9.749e+03 5.704e-09
 30.44614    101.0 9.379e+03 4.056e-09
 30.48579    101.4 9.014e+03 2.904e-09
 30.52308    102.3 9.130e+03 2.398e-09
 30.54291    102.9 8.695e+03 2.369e-09
 30.56510    104.1 9.068e+03 2.670e-09
 30.60476    104.6 9.344e+03 2.872e-09
 30.64441    104.6 9.376e+03 2.729e-09
 30.67347    104.5 9.244e+03 2.357e-09
 30.69329    103.7 8.774e+03 1.491e-09
 30.72372    103.8 8.640e+03 1.344e-09
 30.76338    104.3 8.567e+03 1.263e-09
 30.78735    105.2 8.585e+03 1.229e-09
 30.80718    105.7 8.756e+03 1.605e-09
 30.84269    106.9 8.787e+03 1.574e-09
 30.88235    108.3 8.850e+03 1.593e-09
 30.92200    109.7 8.939e+03 1.650e-09
 30.96166    111.1 9.056e+03 1.773e-09
 31.00131    112.4 9.197e+03 1.981e-09
 31.03180    113.6 9.317e+03 2.220e-09
 31.05162    113.4 9.616e+03 2.714e-09
 31.08062    114.7 9.633e+03 2.658e-09
 31.12028    115.7 9.652e+03 2.458e-09
 31.15993    116.5 9.642e+03 2.169e-09
 31.19572    117.3 9.650e+03 1.895e-09
 31.21555    116.8 9.710e+03 1.679e-09
 31.23924    117.7 9.729e+03 1.640e-09
 31.27624    118.6 9.778e+03 1.683e-09
 31.29606    118.6 9.932e+03 1.877e-09
 31.31856    119.4 1.002e+04 2.054e-09
 31.35821    120.2 1.012e+04 2.405e-09
 31.39787    120.9 1.021e+04 2.624e-09
 31.43752    121.3 1.023e+04 2.595e-09
 31.47718    121.8 1.019e+04 2.385e-09
 31.51683    122.5 1.009e+04 1.894e-09
 31.54051    123.2 9.995e+03 1.402e-09
 31.56033    123.3 9.947e+03 1.549e-09
 31.59614    124.3 9.879e+03 1.383e-09
 31.63580    125.4 9.877e+03 1.391e-09
 31.67545    126.6 9.899e+03 1.468e-09
 31.71511    127.6 9.946e+03 1.715e-09
 31.73780    128.5 1.002e+04 2.073e-09
 31.75763    128.3 9.854e+03 1.863e-09
 31.78495    129.2 9.926e+03 2.246e-09
 31.80477    129.6 9.821e+03 2.298e-09
 31.83408    130.5 9.856e+03 2.463e-09
 31.87373    131.3 9.858e+03 2.459e-09
 31.91339    132.2 9.823e+03 2.373e-09
 31.95304    133.2 9.723e+03 2.160e-09
 31.99270    134.2 9.582e+03 1.908e-09
 32.02939    135.5 9.455e+03 1.765e-09
 32.04922    136.2 9.379e+03 1.408e-09
 32.07201    137.6 9.315e+03 1.387e-09
 32.11167    139.1 9.310e+03 1.424e-09
 32.15132    140.4 9.339e+03 1.620e-09
 32.19098    141.5 9.480e+03 1.995e-09
 32.23063    142.2 9.640e+03 2.425e-09
 32.26006    142.5 9.966e+03 2.541e-09
 32.27988    142.2 9.799e+03 2.511e-09
 32.29366    142.2 9.978e+03 2.498e-09
 32.31348    143.2 9.768e+03 2.228e-09
 32.34960    143.0 1.003e+04 2.435e-09
 32.38925    142.3 1.028e+04 2.656e-09
 32.41578    141.3 1.057e+04 3.106e-09
 32.42560    141.5 1.051e+04 3.087e-09
 32.43863    140.9 1.066e+04 3.567e-09
 32.45846    140.4 1.085e+04 4.277e-09
 32.47828    140.0 1.111e+04 5.336e-09
 32.49811    139.6 1.143e+04 6.821e-09
 32.51794    139.3 1.178e+04 8.683e-09
 32.53090    139.0 1.211e+04 1.073e-08
 32.54082    139.4 1.196e+04 9.982e-09
 32.54782    139.1 1.232e+04 1.225e-08
 32.55773    139.3 1.189e+04 8.885e-09
 32.57742    138.9 1.225e+04 1.068e-08
 32.59725    138.4 1.260e+04 1.297e-08
 32.61708    137.8 1.302e+04 1.634e-08
 32.63690    137.0 1.344e+04 2.059e-08
 32.65673    135.8 1.398e+04 2.403e-08
 32.67004    134.0 1.441e+04 2.420e-08
 32.67995    134.4 1.439e+04 2.195e-08
 32.69639    132.1 1.445e+04 2.149e-08
 32.71622    129.5 1.440e+04 1.946e-08
 32.73604    126.9 1.414e+04 1.649e-08
 32.75587    124.5 1.376e+04 1.419e-08
 32.77570    122.5 1.348e+04 1.273e-08
 32.79203    121.0 1.328e+04 1.164e-08
 32.79867    120.6 1.336e+04 1.224e-08
 32.80217    121.5 1.342e+04 1.145e-08
 32.81535    119.5 1.329e+04 1.024e-08
 32.83518    118.0 1.305e+04 8.996e-09
 32.85501    116.6 1.283e+04 7.221e-09
 32.87484    115.6 1.254e+04 5.670e-09
 32.89467    114.8 1.235e+04 4.258e-09
 32.91448    114.3 1.215e+04 3.262e-09
 32.93431    114.6 1.204e+04 2.708e-09
 32.95415    114.1 1.194e+04 2.560e-09
 32.97398    113.9 1.197e+04 2.596e-09
 32.99380    113.7 1.204e+04 2.807e-09
 33.01363    113.4 1.216e+04 3.230e-09
 33.03346    113.2 1.225e+04 3.823e-09
 33.04661    113.2 1.233e+04 4.561e-09
 33.05640    114.0 1.232e+04 4.362e-09
 33.06307    114.4 1.231e+04 4.029e-09
 33.07311    114.5 1.239e+04 4.819e-09
 33.09294    114.6 1.246e+04 5.692e-09
 33.11277    114.7 1.258e+04 6.706e-09
 33.13260    114.7 1.280e+04 8.155e-09
 33.15243    114.4 1.314e+04 1.048e-08
 33.16883    114.2 1.350e+04 1.385e-08
 33.17875    115.1 1.356e+04 1.361e-08
 33.19208    114.8 1.400e+04 1.898e-08
 33.21191    114.7 1.430e+04 2.410e-08
 33.23174    114.5 1.448e+04 2.692e-08
 33.25156    114.4 1.441e+04 2.461e-08
 33.27139    114.0 1.423e+04 1.975e-08
 33.29105    113.5 1.394e+04 1.471e-08
 33.30097    114.1 1.465e+04 2.554e-08
 33.31105    113.6 1.414e+04 1.740e-08
 33.32420    112.8 1.354e+04 1.198e-08
 33.33411    113.2 1.383e+04 1.666e-08
 33.35070    112.3 1.316e+04 1.145e-08
 33.37053    111.4 1.260e+04 9.082e-09
 33.39036    111.1 1.225e+04 8.391e-09
 33.41019    111.1 1.207e+04 8.204e-09
 33.42319    111.1 1.203e+04 8.017e-09
 33.43310    111.4 1.202e+04 8.277e-09
 33.44984    111.5 1.201e+04 7.958e-09
 33.46967    111.5 1.198e+04 7.509e-09
 33.48950    111.5 1.191e+04 6.967e-09
 33.50933    111.5 1.180e+04 6.410e-09
 33.52915    111.7 1.169e+04 5.920e-09
 33.54541    111.8 1.157e+04 5.529e-09
 33.55532    112.4 1.160e+04 5.626e-09
 33.56881    112.6 1.148e+04 5.323e-09
 33.58532    113.0 1.137e+04 5.100e-09
 33.59524    113.1 1.127e+04 4.887e-09
 33.60846    113.6 1.120e+04 4.839e-09
 33.62829    114.1 1.115e+04 4.822e-09
 33.64812    114.7 1.110e+04 4.843e-09
 33.66763    115.3 1.108e+04 4.907e-09
 33.67754    116.0 1.110e+04 4.853e-09
 33.68777    116.6 1.108e+04 4.966e-09
 33.70760    117.2 1.112e+04 5.185e-09
 33.72743    117.8 1.120e+04 5.558e-09
 33.74726    118.2 1.128e+04 6.066e-09
 33.76709    118.5 1.127e+04 6.534e-09
 33.78691    118.7 1.124e+04 6.616e-09
 33.79977    119.0 1.115e+04 6.563e-09
 33.80968    120.2 1.114e+04 5.890e-09
 33.82657    120.5 1.099e+04 5.786e-09
 33.84640    121.0 1.079e+04 5.566e-09
 33.86622    121.6 1.066e+04 5.419e-09
 33.88605    122.1 1.046e+04 5.129e-09
 33.90588    122.7 1.034e+04 4.823e-09
 33.92199    123.3 1.026e+04 4.538e-09
 33.93190    124.4 1.045e+04 5.067e-09
 33.94554    125.0 1.043e+04 5.065e-09
 33.96536    125.7 1.044e+04 5.124e-09
 33.98519    126.1 1.052e+04 5.271e-09
 34.00502    126.2 1.067e+04 5.596e-09
 34.02485    125.9 1.099e+04 6.579e-09
 34.04421    124.4 1.185e+04 1.017e-08
 34.05412    125.0 1.222e+04 1.203e-08
 34.06450    122.4 1.395e+04 2.539e-08
 34.08433    119.8 1.540e+04 5.107e-08
 34.10416    117.3 1.612e+04 6.936e-08
 34.11749    114.2 1.611e+04 6.758e-08
 34.12740    114.1 1.649e+04 7.921e-08
 34.14381    111.1 1.592e+04 5.996e-08
 34.16364    107.5 1.473e+04 3.493e-08
 34.17634    103.1 1.321e+04 2.159e-08
 34.18625    102.3 1.267e+04 1.913e-08
 34.20330     98.8 1.226e+04 1.877e-08
 34.22312     96.5 1.230e+04 1.941e-08
 34.24295     94.5 1.238e+04 1.998e-08
 34.26278     92.5 1.231e+04 1.942e-08
 34.28261     90.5 1.194e+04 1.672e-08
 34.29856     88.7 1.127e+04 1.267e-08
 34.30848     88.0 1.145e+04 1.369e-08
 34.32226     86.2 1.060e+04 9.154e-09
 34.34209     84.5 9.899e+03 6.188e-09
 34.36192     82.4 9.550e+03 4.667e-09
 34.37862     81.6 9.518e+03 4.464e-09
 34.38853     82.1 9.235e+03 3.861e-09
 34.40157     80.5 9.042e+03 3.531e-09
 34.42078     79.8 8.936e+03 3.466e-09
 34.43070     78.4 8.744e+03 3.321e-09
 34.44123     77.4 8.852e+03 3.536e-09
 34.46106     76.1 9.102e+03 4.097e-09
 34.48088     74.5 9.584e+03 5.433e-09
 34.50071     73.1 1.011e+04 7.647e-09
 34.52054     72.2 1.056e+04 1.040e-08
 34.54037     71.8 1.081e+04 1.237e-08
 34.55292     71.5 1.081e+04 1.237e-08
 34.56283     70.7 1.077e+04 1.208e-08
 34.58002     70.2 1.040e+04 1.005e-08
 34.59985     69.5 9.886e+03 7.725e-09
 34.61968     68.9 9.245e+03 5.660e-09
 34.63951     68.0 8.703e+03 3.986e-09
 34.64966     67.2 8.294e+03 3.045e-09
 34.65957     67.8 8.339e+03 3.269e-09
 34.68917     66.8 8.073e+03 2.638e-09
 34.72893     66.6 7.963e+03 2.440e-09
 34.76858     66.5 7.985e+03 2.444e-09
 34.79755     66.2 8.082e+03 2.499e-09
 34.81738     64.3 8.191e+03 2.642e-09
 34.84789     63.7 8.281e+03 2.614e-09
 34.88755     63.0 8.319e+03 2.609e-09
 34.91088     63.0 8.354e+03 2.672e-09
 34.92070     63.1 8.389e+03 2.761e-09
 34.92949     62.7 8.518e+03 3.021e-09
 34.93941     62.0 8.714e+03 3.616e-09
 34.95675     61.4 9.179e+03 4.649e-09
 34.97658     60.3 9.833e+03 6.370e-09
 34.99641     58.9 1.051e+04 8.333e-09
 35.01623     57.8 1.102e+04 1.009e-08
 35.03606     56.5 1.115e+04 1.046e-08
 35.05171     55.2 1.112e+04 1.046e-08
 35.06163     54.0 1.207e+04 1.642e-08
 35.07572     52.9 1.185e+04 1.584e-08
 35.09554     51.9 1.191e+04 1.666e-08
 35.11537     51.0 1.226e+04 1.977e-08
 35.13520     50.1 1.303e+04 2.633e-08
 35.15503     49.2 1.399e+04 3.683e-08
 35.17191     48.2 1.488e+04 5.040e-08
 35.18090     47.5 1.492e+04 5.239e-08
 35.18385     46.1 1.460e+04 4.578e-08
 35.19468     44.5 1.490e+04 4.961e-08
 35.21451     42.0 1.557e+04 5.120e-08
 35.23434     38.3 1.606e+04 4.478e-08
 35.25417     34.5 1.566e+04 3.256e-08
 35.27399     31.3 1.461e+04 2.257e-08
 35.29382     27.6 1.440e+04 1.586e-08
 35.30607     24.1 1.362e+04 1.220e-08
 35.31598     21.9 1.170e+04 8.383e-09
 35.33348     20.1 1.093e+04 8.597e-09
 35.35330     20.0 1.076e+04 8.244e-09
 35.37313     19.9 1.075e+04 7.111e-09
 35.39296     18.0 1.145e+04 6.761e-09
 35.41279     13.7 1.283e+04 8.905e-09
 35.42829     10.8 1.289e+04 1.712e-08
 35.43820     10.2 1.342e+04 2.509e-08
 35.44295     11.8 1.393e+04 3.905e-08
 35.45287     11.9 1.506e+04 6.791e-08
 35.47227     12.3 1.516e+04 5.449e-08
 35.49210     10.0 1.513e+04 4.173e-08
 35.51193      5.5 1.481e+04 3.738e-08
 35.53175      2.0 1.515e+04 4.499e-08
 35.55051      0.4 1.541e+04 5.663e-08
 35.56042     -0.3 1.591e+04 7.260e-08
 35.57141     -0.5 1.597e+04 7.742e-08
 35.59124     -0.1 1.539e+04 5.637e-08
 35.61107     -1.2 1.456e+04 3.017e-08
 35.63089     -6.8 1.389e+04 2.047e-08
 35.65072    -11.3 1.378e+04 2.071e-08
 35.67055    -13.5 1.452e+04 3.760e-08
 35.68264    -13.4 1.545e+04 6.328e-08
 35.69256    -14.1 1.597e+04 7.488e-08
 35.70408    -13.2 1.649e+04 8.863e-08
 35.71399    -13.2 1.650e+04 8.823e-08
 35.73003    -13.3 1.608e+04 7.410e-08
 35.74986    -13.4 1.490e+04 4.409e-08
 35.76969    -13.8 1.373e+04 2.664e-08
 35.78951    -14.2 1.282e+04 1.868e-08
 35.80486    -13.8 1.239e+04 1.556e-08
 35.81478    -14.1 1.241e+04 1.498e-08
 35.82917    -13.0 1.229e+04 1.363e-08
 35.84900    -11.7 1.234e+04 1.322e-08
 35.86883    -12.0 1.377e+04 1.388e-08
 35.88365    -22.8 2.713e+04 1.837e-08
 35.89351    -41.5 4.245e+04 3.411e-08
 35.90343    -51.1 2.035e+04 2.579e-06
 35.91084    -52.3 1.584e+04 2.611e-05
 35.91577    -52.5 1.281e+04 5.615e-04
 35.92073    -59.2 1.111e+04 2.284e-03
 35.92568    -74.5 1.278e+04 6.901e-04
 35.93064    -96.4 2.002e+04 7.138e-06
 35.93437   -116.2 2.648e+04 3.091e-07
 35.93685   -119.9 2.430e+04 1.644e-07
 35.94306   -123.5 2.077e+04 1.100e-07
 35.95300   -125.6 1.763e+04 8.603e-08
 35.96291   -125.9 1.679e+04 6.903e-08
 35.97007   -125.0 1.642e+04 6.183e-08
 35.97502   -126.4 1.660e+04 6.376e-08
 35.98274   -125.4 1.607e+04 5.330e-08
 35.99265   -124.5 1.564e+04 4.523e-08
 36.00757   -123.6 1.515e+04 3.784e-08
 36.02745   -121.6 1.411e+04 2.894e-08
 36.04728   -118.5 1.271e+04 1.970e-08
 36.05922   -116.3 1.191e+04 1.460e-08
 36.06913   -116.1 1.160e+04 1.383e-08
 36.08693   -114.1 1.113e+04 1.107e-08
 36.10676   -111.8 1.079e+04 9.669e-09
 36.12659   -109.4 1.060e+04 8.740e-09
 36.14641   -107.1 1.043e+04 8.112e-09
 36.16624   -105.0 1.034e+04 7.877e-09
 36.18144   -103.4 1.070e+04 8.849e-09
 36.19135   -102.8 1.043e+04 8.741e-09
 36.20590   -102.0 1.143e+04 1.180e-08
 36.22572   -101.6 1.315e+04 1.894e-08
 36.23620   -101.6 1.427e+04 2.811e-08
 36.24111   -103.2 1.564e+04 4.920e-08
 36.24741   -102.6 1.631e+04 6.591e-08
 36.25237   -103.1 1.683e+04 7.563e-08
 36.26033   -102.2 1.737e+04 1.002e-07
 36.27024   -101.7 1.788e+04 1.314e-07
 36.28015   -101.2 1.851e+04 1.959e-07
 36.29007   -101.3 1.898e+04 3.037e-07
 36.29998   -101.7 1.917e+04 4.857e-07
 36.30852   -102.1 1.917e+04 7.385e-07
 36.31348   -102.2 1.925e+04 8.690e-07
 36.31981   -102.7 1.919e+04 1.184e-06
 36.32972   -104.1 1.911e+04 1.429e-06
 36.33964   -105.9 1.912e+04 1.486e-06
 36.34955   -107.9 1.954e+04 1.079e-06
 36.35946   -110.2 2.029e+04 5.786e-07
 36.36671   -113.1 2.132e+04 2.637e-07
 36.37167   -118.5 2.173e+04 9.141e-08
 36.37459   -122.7 2.074e+04 6.166e-08
 36.37954   -123.5 2.031e+04 5.823e-08
 36.38921   -128.0 1.834e+04 4.842e-08
 36.40413   -132.6 1.671e+04 4.319e-08
 36.42400   -140.1 1.441e+04 3.451e-08
 36.43580   -146.2 1.358e+04 2.856e-08
 36.44571   -145.9 1.378e+04 3.033e-08
 36.46366   -151.2 1.270e+04 2.078e-08
 36.48349   -156.8 1.143e+04 1.164e-08
 36.49737   -162.3 9.992e+03 6.477e-09
 36.50729   -164.3 9.406e+03 5.090e-09
 36.52314   -168.5 8.946e+03 3.677e-09
 36.54297   -171.9 8.858e+03 3.195e-09
 36.55802   -175.0 8.832e+03 3.032e-09
 36.56793   -175.0 8.833e+03 2.988e-09
 36.59264   -179.0 8.867e+03 2.988e-09
 36.63239   -182.8 8.834e+03 3.029e-09
 36.67204   -186.9 8.745e+03 3.382e-09
 36.71170   -189.5 8.864e+03 3.736e-09
 36.75136   -191.6 8.985e+03 4.070e-09
 36.79101   -193.4 9.097e+03 4.284e-09
 36.81257   -194.9 9.145e+03 4.323e-09
 36.83239   -196.6 9.277e+03 4.601e-09
 36.87032   -198.4 9.204e+03 4.365e-09
 36.90998   -199.7 9.073e+03 3.828e-09
 36.94963   -200.7 8.965e+03 3.352e-09
 36.98929   -201.3 8.945e+03 3.083e-09
 37.01982   -201.7 8.959e+03 3.010e-09
 37.03965   -201.6 8.854e+03 2.760e-09
 37.05701   -202.0 8.906e+03 2.678e-09
 37.07684   -203.1 8.919e+03 2.638e-09
 37.10825   -203.4 9.139e+03 2.725e-09
 37.14791   -203.6 9.354e+03 2.844e-09
 37.18757   -203.6 9.516e+03 2.902e-09
 37.22722   -203.5 9.631e+03 2.917e-09
 37.26688   -203.4 9.751e+03 2.919e-09
 37.30145   -203.3 9.930e+03 2.935e-09
 37.32128   -204.8 1.002e+04 3.697e-09
 37.34619   -204.8 1.011e+04 3.876e-09
 37.38584   -205.0 1.019e+04 4.116e-09
 37.42550   -205.3 1.022e+04 4.247e-09
 37.46515   -205.6 1.022e+04 4.266e-09
 37.50481   -205.9 1.017e+04 4.221e-09
 37.54208   -206.0 1.002e+04 3.897e-09
 37.56190   -206.3 9.959e+03 4.007e-09
 37.56572   -206.4 9.698e+03 3.308e-09
 37.58555   -206.8 9.673e+03 2.942e-09
 37.62378   -206.9 9.491e+03 2.297e-09
 37.66343   -207.0 9.379e+03 1.815e-09
 37.70309   -207.2 9.380e+03 1.505e-09
 37.74274   -207.7 9.439e+03 1.376e-09
 37.78240   -208.3 9.461e+03 1.359e-09
 37.81016   -209.0 9.638e+03 1.427e-09
 37.82999   -208.1 9.597e+03 1.224e-09
 37.86171   -208.7 9.775e+03 1.405e-09
 37.90136   -209.0 9.812e+03 1.713e-09
 37.94102   -209.1 9.790e+03 2.021e-09
 37.98067   -209.1 9.749e+03 2.239e-09
 38.02033   -208.8 9.719e+03 2.348e-09
 38.05460   -208.0 9.767e+03 2.437e-09
 38.07443   -207.1 9.884e+03 2.165e-09
 38.08416   -206.6 9.979e+03 2.253e-09
 38.10399   -207.5 1.006e+04 2.407e-09
 38.13930   -207.4 1.036e+04 2.601e-09
 38.17895   -207.5 1.073e+04 3.272e-09
 38.21861   -208.5 1.120e+04 4.501e-09
 38.25826   -210.1 1.165e+04 6.276e-09
 38.29792   -211.9 1.199e+04 8.225e-09
 38.31887   -213.5 1.223e+04 9.972e-09
 38.33870   -212.2 1.196e+04 8.095e-09
 38.37723   -213.8 1.198e+04 8.976e-09
 38.41689   -215.0 1.197e+04 9.120e-09
 38.45654   -215.4 1.184e+04 8.838e-09
 38.49620   -215.3 1.154e+04 7.309e-09
 38.53585   -215.0 1.131e+04 5.909e-09
 38.56321   -213.7 1.112e+04 5.062e-09
 38.58304   -212.9 1.099e+04 4.557e-09
 38.60641   -211.2 1.099e+04 4.440e-09
 38.62624   -212.0 1.114e+04 4.744e-09
 38.65482   -210.6 1.130e+04 5.065e-09
 38.68446   -210.2 1.171e+04 7.200e-09
 38.69525   -210.1 1.203e+04 9.819e-09
 38.70516   -209.3 1.188e+04 7.711e-09
 38.72402   -209.2 1.227e+04 1.060e-08
 38.74385   -209.3 1.269e+04 1.455e-08
 38.76368   -209.5 1.313e+04 2.054e-08
 38.78350   -210.1 1.339e+04 2.469e-08
 38.80333   -210.9 1.344e+04 2.595e-08
 38.81747   -211.7 1.336e+04 2.569e-08
 38.82739   -211.3 1.375e+04 2.916e-08
 38.84299   -212.2 1.360e+04 2.843e-08
 38.86281   -213.0 1.316e+04 2.382e-08
 38.87726   -213.5 1.268e+04 1.877e-08
 38.88717   -214.1 1.267e+04 1.986e-08
 38.90247   -214.4 1.231e+04 1.668e-08
 38.92230   -214.5 1.207e+04 1.453e-08
 38.93969   -214.5 1.190e+04 1.313e-08
 38.94961   -214.4 1.239e+04 1.870e-08
 38.96195   -214.2 1.217e+04 1.649e-08
 38.98178   -213.9 1.198e+04 1.482e-08
 39.00161   -213.6 1.184e+04 1.366e-08
 39.02144   -213.3 1.175e+04 1.295e-08
 39.04126   -213.1 1.169e+04 1.247e-08
 39.06109   -212.9 1.166e+04 1.205e-08
 39.07183   -212.7 1.163e+04 1.165e-08
 39.08174   -212.4 1.184e+04 1.320e-08
 39.10075   -212.3 1.179e+04 1.260e-08
 39.12057   -212.3 1.170e+04 1.188e-08
 39.13838   -212.3 1.157e+04 1.104e-08
 39.14840   -212.6 1.120e+04 8.580e-09
 39.17034   -212.4 1.098e+04 7.664e-09
 39.20999   -212.1 1.080e+04 6.891e-09
 39.24965   -211.6 1.062e+04 6.038e-09
 39.28931   -211.1 1.046e+04 5.279e-09
 39.31646   -210.2 1.032e+04 4.682e-09
 39.33629   -210.0 1.067e+04 6.288e-09
 39.36862   -208.9 1.048e+04 5.407e-09
 39.40827   -207.7 1.036e+04 4.719e-09
 39.44793   -206.5 1.034e+04 4.325e-09
 39.48758   -205.4 1.036e+04 4.204e-09
 39.52724   -204.6 1.038e+04 4.201e-09
 39.56090   -204.3 1.052e+04 4.307e-09
 39.58073   -202.8 1.034e+04 3.862e-09
 39.60655   -202.7 1.054e+04 3.951e-09
 39.64620   -203.9 1.171e+04 6.197e-09
 39.67065   -205.1 1.267e+04 1.220e-08
 39.68047   -205.1 1.276e+04 1.057e-08
 39.69284   -206.3 1.428e+04 2.572e-08
 39.70276   -205.4 1.394e+04 1.998e-08
 39.71541   -206.6 1.521e+04 4.316e-08
 39.73523   -207.9 1.601e+04 6.691e-08
 39.75506   -209.7 1.622e+04 7.377e-08
 39.77489   -211.5 1.609e+04 7.075e-08
 39.79472   -212.8 1.528e+04 4.627e-08
 39.81455   -213.9 1.404e+04 2.355e-08
 39.82498   -214.9 1.279e+04 1.253e-08
 39.83489   -214.4 1.341e+04 1.747e-08
 39.85420   -215.3 1.259e+04 1.206e-08
 39.87403   -215.6 1.230e+04 1.091e-08
 39.89386   -215.6 1.224e+04 1.082e-08
 39.91368   -215.5 1.223e+04 1.095e-08
 39.93168   -215.2 1.224e+04 1.106e-08
 39.94159   -215.0 1.232e+04 1.060e-08
 39.94720   -214.7 1.230e+04 1.015e-08
 39.95711   -214.4 1.257e+04 1.366e-08
 39.97317   -214.0 1.255e+04 1.305e-08
 39.99299   -213.7 1.250e+04 1.197e-08
 40.01282   -213.4 1.240e+04 1.031e-08
 40.03265   -213.1 1.224e+04 8.408e-09
 40.05248   -212.7 1.204e+04 6.672e-09
 40.06942   -212.1 1.180e+04 5.220e-09
 40.07933   -211.8 1.192e+04 6.530e-09
 40.09213   -211.2 1.169e+04 5.058e-09
 40.11196   -210.5 1.150e+04 4.030e-09
 40.13179   -209.5 1.137e+04 3.326e-09
 40.15162   -208.2 1.134e+04 2.880e-09
 40.17144   -207.0 1.139e+04 2.671e-09
 40.19290   -206.3 1.139e+04 2.537e-09
 40.21273   -205.2 1.152e+04 2.553e-09
 40.24094   -204.5 1.155e+04 2.450e-09
 40.28069   -202.8 1.147e+04 2.245e-09
 40.31406   -201.0 1.138e+04 2.076e-09
 40.33388   -201.0 1.156e+04 2.305e-09
 40.36000   -199.1 1.144e+04 2.068e-09
 40.39966   -197.2 1.134e+04 1.892e-09
 40.43931   -195.1 1.131e+04 1.772e-09
 40.47897   -193.0 1.134e+04 1.722e-09
 40.51862   -190.8 1.135e+04 1.724e-09
 40.55828   -188.7 1.141e+04 1.776e-09
 40.57833   -186.7 1.149e+04 1.971e-09
 40.59815   -186.5 1.155e+04 1.614e-09
 40.63759   -184.6 1.162e+04 1.785e-09
 40.67725   -182.7 1.169e+04 1.918e-09
 40.71525   -181.0 1.173e+04 1.977e-09
 40.73508   -180.8 1.178e+04 1.709e-09
 40.75656   -179.1 1.183e+04 1.762e-09
 40.79621   -177.4 1.185e+04 1.781e-09
 40.82277   -175.7 1.186e+04 1.775e-09
 40.84259   -175.2 1.188e+04 1.678e-09
 40.87552   -173.5 1.192e+04 1.643e-09
 40.91518   -171.8 1.197e+04 1.535e-09
 40.95484   -170.1 1.203e+04 1.375e-09
 40.99449   -168.4 1.211e+04 1.174e-09
 41.03415   -166.6 1.223e+04 9.741e-10
 41.06721   -164.9 1.238e+04 8.244e-10
 41.08704   -164.7 1.233e+04 8.990e-10
 41.11346   -163.1 1.251e+04 7.777e-10
 41.15311   -161.5 1.261e+04 7.445e-10
 41.19277   -160.2 1.266e+04 7.425e-10
 41.23242   -159.1 1.286e+04 7.772e-10
 41.25734   -158.1 1.294e+04 8.635e-10
 41.27716   -157.5 1.299e+04 8.699e-10
 41.31165   -156.6 1.307e+04 1.001e-09
 41.35130   -154.7 1.316e+04 1.085e-09
 41.39105   -153.6 1.329e+04 1.212e-09
 41.43070   -152.5 1.337e+04 1.404e-09
 41.47036   -151.5 1.339e+04 1.748e-09
 41.51001   -150.8 1.340e+04 2.352e-09
 41.54967   -150.4 1.340e+04 3.362e-09
 41.57592   -150.0 1.343e+04 4.769e-09
 41.59575   -148.0 1.330e+04 3.559e-09
 41.62898   -147.7 1.334e+04 5.043e-09
 41.66863   -147.9 1.342e+04 6.794e-09
 41.70829   -148.3 1.345e+04 8.183e-09
 41.74794   -148.7 1.342e+04 8.667e-09
 41.77959   -148.7 1.339e+04 8.687e-09
 41.79942   -148.8 1.349e+04 1.018e-08
 41.81724   -148.4 1.320e+04 8.680e-09
 41.83008   -148.1 1.304e+04 7.879e-09
 41.83999   -146.6 1.318e+04 7.728e-09
 41.85680   -146.2 1.301e+04 6.548e-09
 41.87663   -145.7 1.287e+04 5.802e-09
 41.89646   -145.0 1.267e+04 4.983e-09
 41.91629   -144.4 1.255e+04 4.492e-09
 41.93611   -143.6 1.238e+04 3.897e-09
 41.95230   -142.8 1.223e+04 3.449e-09
 41.96221   -142.3 1.233e+04 3.551e-09
 41.97577   -141.5 1.223e+04 3.144e-09
 41.99560   -140.8 1.213e+04 2.779e-09
 42.02544   -140.4 1.202e+04 2.419e-09
 42.06480   -139.0 1.179e+04 1.830e-09
 42.08463   -137.7 1.201e+04 2.770e-09
 42.10484   -136.4 1.183e+04 2.281e-09
 42.14450   -134.6 1.166e+04 1.702e-09
 42.18415   -132.6 1.156e+04 1.253e-09
 42.22381   -130.7 1.149e+04 9.965e-10
 42.26347   -128.6 1.144e+04 9.177e-10
 42.30184   -126.5 1.142e+04 9.060e-10
 42.32167   -126.7 1.133e+04 1.168e-09
 42.32907   -124.8 1.128e+04 1.300e-09
 42.34890   -124.0 1.144e+04 1.422e-09
 42.38243   -122.3 1.147e+04 1.595e-09
 42.42209   -120.8 1.144e+04 2.037e-09
 42.46174   -119.4 1.143e+04 2.582e-09
 42.50140   -118.2 1.142e+04 3.046e-09
 42.54105   -117.3 1.140e+04 3.253e-09
 42.57351   -116.6 1.138e+04 3.286e-09
 42.59334   -116.3 1.154e+04 3.662e-09
 42.62036   -115.5 1.136e+04 3.179e-09
 42.66002   -114.7 1.125e+04 2.469e-09
 42.69968   -114.0 1.123e+04 1.920e-09
 42.73933   -113.3 1.126e+04 1.619e-09
 42.77899   -112.5 1.125e+04 1.531e-09
 42.81795   -111.7 1.124e+04 1.515e-09
 42.83778   -111.4 1.127e+04 1.531e-09
 42.84392   -110.5 1.126e+04 1.529e-09
 42.86375   -110.6 1.126e+04 1.922e-09
 42.89795   -109.6 1.119e+04 1.819e-09
 42.93761   -108.4 1.118e+04 1.769e-09
 42.97726   -107.2 1.119e+04 1.763e-09
 43.01692   -106.1 1.125e+04 1.790e-09
 43.05658   -105.1 1.130e+04 1.904e-09
 43.08222   -104.3 1.133e+04 2.097e-09
 43.10205   -103.8 1.142e+04 1.927e-09
 43.13589   -103.1 1.151e+04 2.360e-09
 43.17554   -102.5 1.161e+04 2.937e-09
 43.21520   -102.2 1.169e+04 3.745e-09
 43.25485   -101.9 1.177e+04 4.774e-09
 43.28450   -101.7 1.177e+04 5.548e-09
 43.30423   -101.6 1.183e+04 5.902e-09
 43.32405   -101.6 1.187e+04 6.143e-09
 43.33638   -101.6 1.192e+04 6.376e-09
 43.34639   -101.5 1.221e+04 8.478e-09
 43.36618   -101.5 1.217e+04 8.755e-09
 43.38591   -101.9 1.205e+04 8.283e-09
 43.41338   -102.5 1.208e+04 9.428e-09
 43.45313   -103.5 1.228e+04 1.242e-08
 43.49279   -105.1 1.243e+04 1.528e-08
 43.53244   -107.2 1.248e+04 1.668e-08
 43.56208   -108.3 1.222e+04 1.510e-08
 43.58082   -109.6 1.201e+04 1.316e-08
 43.59083   -110.1 1.149e+04 9.636e-09
 43.61175   -112.5 1.081e+04 6.358e-09
 43.65141   -114.6 1.005e+04 4.045e-09
 43.69106   -116.0 9.444e+03 2.663e-09
 43.73072   -116.4 8.985e+03 1.782e-09
 43.77037   -116.6 8.678e+03 1.222e-09
 43.81003   -116.1 8.437e+03 8.826e-10
 43.83537   -115.2 8.406e+03 7.130e-10
 43.85520   -115.1 8.292e+03 7.179e-10
 43.88843   -114.3 8.288e+03 6.621e-10
 43.90826   -115.4 8.234e+03 5.528e-10
 43.92900   -114.7 8.245e+03 5.542e-10
 43.96865   -114.4 8.350e+03 5.960e-10
 44.00831   -114.5 8.531e+03 6.899e-10
 44.04796   -115.1 8.831e+03 1.011e-09
 44.07981   -117.3 1.020e+04 2.531e-09
 44.09964   -118.4 1.049e+04 3.696e-09
 44.11726   -118.4 1.088e+04 5.341e-09
 44.13699   -119.5 1.140e+04 8.702e-09
 44.15682   -120.5 1.215e+04 1.492e-08
 44.16919   -121.9 1.315e+04 2.746e-08
 44.17911   -123.2 1.378e+04 4.238e-08
 44.19647   -124.2 1.423e+04 4.833e-08
 44.21175   -125.6 1.434e+04 4.870e-08
 44.22167   -126.4 1.421e+04 4.173e-08
 44.23613   -128.1 1.412e+04 3.399e-08
 44.25596   -130.0 1.373e+04 2.532e-08
 44.27579   -131.7 1.330e+04 2.027e-08
 44.29561   -132.9 1.305e+04 1.803e-08
 44.31544   -133.6 1.297e+04 1.697e-08
 44.33397   -133.9 1.293e+04 1.597e-08
 44.34389   -134.6 1.305e+04 2.186e-08
 44.35510   -134.7 1.282e+04 2.037e-08
 44.37492   -134.7 1.255e+04 1.714e-08
 44.39475   -134.5 1.226e+04 1.374e-08
 44.41458   -134.3 1.198e+04 1.091e-08
 44.43032   -133.9 1.176e+04 8.920e-09
 44.44023   -134.7 1.162e+04 8.204e-09
 44.45424   -134.1 1.152e+04 7.262e-09
 44.46611   -133.3 1.154e+04 6.791e-09
 44.47602   -133.6 1.104e+04 5.025e-09
 44.49389   -132.7 1.109e+04 4.774e-09
 44.51372   -131.8 1.112e+04 4.731e-09
 44.53355   -131.0 1.133e+04 4.723e-09
 44.55337   -130.4 1.168e+04 5.188e-09
 44.57320   -129.9 1.190e+04 6.281e-09
 44.58833   -129.5 1.215e+04 7.935e-09
 44.59824   -129.6 1.182e+04 3.393e-09
 44.61286   -129.4 1.215e+04 4.285e-09
 44.63268   -129.2 1.251e+04 5.521e-09
 44.65251   -128.9 1.282e+04 7.140e-09
 44.67234   -128.7 1.304e+04 9.033e-09
 44.69144   -128.4 1.324e+04 1.101e-08
 44.70136   -129.2 1.346e+04 1.101e-08
 44.71055   -129.0 1.366e+04 1.448e-08
 44.72046   -129.9 1.314e+04 1.176e-08
 44.73182   -129.4 1.331e+04 1.650e-08
 44.75165   -128.9 1.363e+04 2.146e-08
 44.77148   -128.6 1.407e+04 2.502e-08
 44.79131   -128.5 1.465e+04 2.595e-08
 44.81113   -128.6 1.500e+04 2.546e-08
 44.83096   -128.8 1.589e+04 2.181e-08
 44.84268   -129.9 1.658e+04 1.807e-08
 44.85260   -132.4 1.312e+04 7.430e-09
 44.87062   -133.4 1.296e+04 6.569e-09
 44.89045   -134.4 1.294e+04 6.410e-09
 44.91027   -135.5 1.301e+04 6.447e-09
 44.93010   -136.7 1.325e+04 7.222e-09
 44.94993   -137.6 1.337e+04 8.486e-09
 44.96249   -138.3 1.340e+04 9.766e-09
 44.96755   -138.3 1.336e+04 9.546e-09
 44.97482   -138.2 1.305e+04 8.200e-09
 44.98958   -138.8 1.327e+04 9.248e-09
 45.00941   -139.4 1.344e+04 1.013e-08
 45.02924   -140.1 1.355e+04 1.120e-08
 45.04907   -141.0 1.359e+04 1.286e-08
 45.06890   -141.9 1.361e+04 1.541e-08
 45.08713   -142.7 1.367e+04 1.864e-08
 45.09704   -143.4 1.474e+04 1.862e-08
 45.10855   -144.2 1.514e+04 2.472e-08
 45.12838   -145.0 1.529e+04 2.892e-08
 45.14821   -145.8 1.529e+04 2.987e-08
 45.16803   -146.4 1.504e+04 2.938e-08
 45.18786   -146.6 1.460e+04 2.561e-08
 45.20769   -146.7 1.424e+04 2.149e-08
 45.21926   -146.7 1.397e+04 1.836e-08
 45.22527   -146.9 1.328e+04 2.014e-08
 45.23353   -146.3 1.313e+04 1.945e-08
 45.24734   -146.1 1.286e+04 1.399e-08
 45.26717   -145.8 1.269e+04 1.083e-08
 45.28700   -145.4 1.255e+04 9.178e-09
 45.30683   -144.8 1.246e+04 8.563e-09
 45.32666   -144.0 1.244e+04 8.438e-09
 45.34148   -143.3 1.246e+04 8.469e-09
 45.35139   -143.2 1.213e+04 8.010e-09
 45.36631   -142.5 1.220e+04 8.388e-09
 45.38614   -141.8 1.228e+04 9.366e-09
 45.40597   -141.1 1.235e+04 1.050e-08
 45.42579   -140.5 1.240e+04 1.138e-08
 45.44562   -139.9 1.242e+04 1.170e-08
 45.46370   -139.3 1.241e+04 1.173e-08
 45.47362   -139.3 1.210e+04 8.958e-09
 45.48474   -138.7 1.207e+04 8.822e-09
 45.49465   -138.6 1.207e+04 9.041e-09
 45.50511   -138.0 1.206e+04 8.368e-09
 45.52493   -137.5 1.203e+04 7.623e-09
 45.54476   -137.0 1.198e+04 7.010e-09
 45.56459   -136.6 1.192e+04 6.566e-09
 45.58442   -136.1 1.186e+04 6.313e-09
 45.59584   -135.7 1.177e+04 6.251e-09
 45.60575   -136.4 1.200e+04 6.699e-09
 45.62407   -135.9 1.196e+04 6.701e-09
 45.64390   -135.4 1.190e+04 6.686e-09
 45.66373   -134.8 1.178e+04 6.657e-09
 45.68355   -134.2 1.164e+04 6.574e-09
 45.70338   -133.6 1.149e+04 6.495e-09
 45.71806   -133.0 1.135e+04 6.468e-09
 45.72797   -133.4 1.136e+04 5.679e-09
 45.74304   -132.7 1.133e+04 5.667e-09
 45.75578   -131.9 1.131e+04 5.729e-09
 45.76569   -132.4 1.119e+04 5.804e-09
 45.78269   -131.7 1.119e+04 6.128e-09
 45.80252   -131.2 1.125e+04 6.666e-09
 45.82235   -130.9 1.134e+04 7.261e-09
 45.84028   -130.6 1.141e+04 7.862e-09
 45.85019   -131.1 1.109e+04 6.287e-09
 45.86200   -130.9 1.115e+04 6.764e-09
 45.88183   -130.8 1.120e+04 7.161e-09
 45.90166   -130.7 1.125e+04 7.513e-09
 45.92149   -130.6 1.129e+04 7.779e-09
 45.95133   -130.6 1.135e+04 8.204e-09
 45.99108   -130.3 1.134e+04 8.990e-09
 46.01710   -130.0 1.142e+04 9.988e-09
 46.03693   -130.1 1.141e+04 1.084e-08
 46.07039   -129.9 1.161e+04 1.249e-08
 46.09483   -129.8 1.177e+04 1.345e-08
 46.11466   -130.8 1.166e+04 1.018e-08
 46.14970   -130.7 1.178e+04 1.065e-08
 46.18936   -130.5 1.194e+04 1.178e-08
 46.22901   -130.5 1.212e+04 1.327e-08
 46.26867   -130.5 1.230e+04 1.425e-08
 46.29831   -130.3 1.191e+04 1.126e-08
 46.31804   -130.2 1.183e+04 1.060e-08
 46.33787   -130.0 1.178e+04 9.709e-09
 46.34899   -129.7 1.178e+04 9.459e-09
 46.35900   -130.3 1.101e+04 5.951e-09
 46.38763   -129.4 1.090e+04 4.808e-09
 46.41728   -129.0 1.092e+04 4.491e-09
 46.43701   -128.8 1.106e+04 4.565e-09
 46.45684   -128.6 1.117e+04 4.784e-09
 46.47121   -128.3 1.124e+04 5.009e-09
 46.48112   -128.0 1.064e+04 3.554e-09
 46.49649   -127.6 1.071e+04 3.683e-09
 46.51632   -127.3 1.076e+04 3.776e-09
 46.53615   -126.9 1.077e+04 3.801e-09
 46.54907   -126.6 1.079e+04 3.795e-09
 46.55899   -126.6 1.069e+04 3.152e-09
 46.57580   -126.1 1.068e+04 3.131e-09
 46.59343   -125.7 1.074e+04 3.054e-09
 46.60334   -125.2 1.046e+04 2.733e-09
 46.61546   -124.7 1.051e+04 2.695e-09
 46.63529   -124.1 1.055e+04 2.669e-09
 46.65511   -123.6 1.069e+04 2.640e-09
 46.67494   -123.0 1.087e+04 2.663e-09
 46.69477   -122.5 1.100e+04 2.766e-09
 46.71460   -121.8 1.110e+04 2.927e-09
 46.72556   -121.2 1.114e+04 3.107e-09
 46.73548   -120.3 1.101e+04 2.553e-09
 46.75425   -119.7 1.109e+04 2.684e-09
 46.77408   -119.0 1.112e+04 2.813e-09
 46.79391   -118.2 1.112e+04 2.897e-09
 46.81020   -117.4 1.111e+04 2.943e-09
 46.82012   -116.8 1.095e+04 2.342e-09
 46.83356   -116.0 1.096e+04 2.396e-09
 46.84778   -115.1 1.098e+04 2.446e-09
 46.85770   -114.5 1.103e+04 2.409e-09
 46.87322   -113.9 1.107e+04 2.483e-09
 46.89305   -113.0 1.111e+04 2.580e-09
 46.91287   -112.4 1.114e+04 2.690e-09
 46.93270   -111.5 1.116e+04 2.827e-09
 46.95253   -110.6 1.116e+04 2.959e-09
 46.97000   -109.7 1.113e+04 3.050e-09
 46.97992   -109.8 1.136e+04 3.235e-09
 46.99219   -108.9 1.130e+04 3.236e-09
 47.01201   -107.8 1.117e+04 3.117e-09
 47.03184   -106.6 1.108e+04 2.904e-09
 47.05167   -105.6 1.105e+04 2.707e-09
 47.07133   -104.6 1.104e+04 2.547e-09
 47.08134   -105.1 1.093e+04 2.288e-09
 47.09242   -102.9 1.093e+04 2.136e-09
 47.11225   -103.1 1.103e+04 1.954e-09
 47.14109   -100.9 1.102e+04 1.723e-09
 47.18074    -98.7 1.104e+04 1.672e-09
 47.22040    -96.6 1.117e+04 1.671e-09
 47.26006    -94.6 1.126e+04 1.748e-09
 47.29971    -92.6 1.125e+04 1.811e-09
 47.33686    -90.6 1.123e+04 1.832e-09
 47.35669    -90.2 1.099e+04 1.309e-09
 47.37902    -88.0 1.101e+04 1.298e-09
 47.41868    -85.8 1.106e+04 1.301e-09
 47.45833    -83.5 1.110e+04 1.307e-09
 47.49799    -81.3 1.114e+04 1.301e-09
 47.53764    -78.9 1.123e+04 1.235e-09
 47.57730    -76.4 1.124e+04 1.149e-09
 47.60113    -73.9 1.116e+04 1.080e-09
 47.60770    -73.5 1.118e+04 1.076e-09
 47.62352    -72.5 1.125e+04 7.420e-10
 47.65661    -70.0 1.123e+04 6.630e-10
 47.69627    -67.4 1.111e+04 6.419e-10
 47.73592    -64.7 1.106e+04 6.448e-10
 47.77558    -62.0 1.087e+04 7.133e-10
 47.81523    -59.2 1.071e+04 8.170e-10
 47.84557    -56.4 1.057e+04 9.117e-10
 47.86540    -55.8 1.067e+04 9.763e-10
 47.89454    -53.0 1.056e+04 1.146e-09
 47.93420    -50.3 1.049e+04 1.291e-09
 47.97385    -47.6 1.048e+04 1.342e-09
 48.01351    -45.0 1.053e+04 1.298e-09
 48.05316    -42.4 1.064e+04 1.099e-09
 48.09001    -40.1 1.073e+04 9.567e-10
 48.10984    -39.4 1.059e+04 1.929e-09
 48.12594    -37.1 1.064e+04 1.566e-09
 48.14577    -38.0 1.068e+04 9.694e-10
 48.17213    -36.3 1.069e+04 9.546e-10
 48.21179    -34.8 1.057e+04 1.286e-09
 48.25144    -33.1 1.031e+04 2.148e-09
 48.29110    -30.9 1.018e+04 2.899e-09
 48.33075    -29.0 1.007e+04 3.044e-09
 48.35428    -26.6 9.719e+03 2.392e-09
 48.37411    -26.5 1.005e+04 3.263e-09
 48.41006    -24.0 9.781e+03 2.621e-09
 48.44972    -21.8 9.605e+03 1.955e-09
 48.48937    -19.4 9.430e+03 1.688e-09
 48.52903    -16.9 9.330e+03 1.632e-09
 48.56869    -14.3 9.188e+03 1.896e-09
 48.59872    -11.4 9.150e+03 2.098e-09
 48.61855    -10.8 9.372e+03 1.549e-09
 48.64800     -8.3 9.406e+03 1.465e-09
 48.66803     -5.7 9.331e+03 1.220e-09
 48.68785     -6.0 9.286e+03 9.973e-10
 48.72731     -3.7 9.230e+03 7.310e-10
 48.76696     -1.8 9.201e+03 5.959e-10
 48.80662      0.3 9.081e+03 6.404e-10
 48.84317      2.5 8.936e+03 7.952e-10
 48.86299      3.1 9.037e+03 7.188e-10
 48.88593      5.1 9.077e+03 7.751e-10
 48.92558      6.7 9.037e+03 1.024e-09
 48.96524      8.7 8.931e+03 1.518e-09
 49.00490     10.9 8.941e+03 1.883e-09
 49.04455     12.6 9.021e+03 1.909e-09
 49.08421     13.8 9.159e+03 2.000e-09
 49.10743     13.8 9.527e+03 2.475e-09
 49.12726     13.9 1.014e+04 3.889e-09
 49.16352     14.0 1.043e+04 6.263e-09
 49.19028     14.2 1.069e+04 8.526e-09
 49.21011     12.3 1.090e+04 7.665e-09
 49.24283     11.6 1.065e+04 6.530e-09
 49.28248     11.3 1.014e+04 4.888e-09
 49.32214     11.2 9.752e+03 3.472e-09
 49.35188     11.3 9.436e+03 3.155e-09
 49.37170     13.1 1.000e+04 4.734e-09
 49.40145     13.4 9.640e+03 3.697e-09
 49.44111     14.0 9.400e+03 3.481e-09
 49.48076     14.9 9.237e+03 3.534e-09
 49.52042     16.0 9.150e+03 3.524e-09
 49.56007     17.4 9.007e+03 3.216e-09
 49.59632     19.0 8.863e+03 2.498e-09
 49.61614     20.4 9.042e+03 3.068e-09
 49.63938     22.0 8.964e+03 2.289e-09
 49.67904     23.2 8.997e+03 1.854e-09
 49.71253     24.5 9.069e+03 1.872e-09
 49.73236     24.2 9.351e+03 2.324e-09
 49.75835     25.7 9.428e+03 2.283e-09
 49.79801     27.3 9.472e+03 2.154e-09
 49.83766     28.7 9.624e+03 1.993e-09
 49.86059     30.1 9.697e+03 1.901e-09
 49.88041     31.2 9.763e+03 2.103e-09
 49.91697     32.5 9.726e+03 2.103e-09
 49.95663     33.7 9.781e+03 2.191e-09
 49.99628     34.9 9.748e+03 2.390e-09
 50.03594     36.3 9.743e+03 2.571e-09
 50.07559     37.6 9.771e+03 2.675e-09
 50.10503     39.1 9.817e+03 2.708e-09
 50.12485     39.7 9.850e+03 2.657e-09
 50.15490     41.2 1.001e+04 2.906e-09
 50.18455     42.0 1.007e+04 2.804e-09
 50.20428     42.8 1.009e+04 2.755e-09
 50.22411     43.8 1.009e+04 2.642e-09
 50.23697     44.7 1.004e+04 2.524e-09
 50.24688     44.5 1.012e+04 3.005e-09
 50.25442     45.3 1.025e+04 3.044e-09
 50.26433     43.8 1.064e+04 4.416e-09
 50.28359     43.6 1.107e+04 5.922e-09
 50.30342     43.2 1.169e+04 9.884e-09
 50.32324     42.6 1.257e+04 1.913e-08
 50.34307     42.3 1.383e+04 3.809e-08
 50.35919     42.0 1.527e+04 7.121e-08
 50.36910     40.9 1.546e+04 8.079e-08
 50.38273     40.4 1.615e+04 9.968e-08
 50.40256     39.5 1.623e+04 8.638e-08
 50.42238     37.4 1.604e+04 4.908e-08
 50.44221     32.9 1.526e+04 2.175e-08
 50.46204     27.4 1.315e+04 1.198e-08
 50.48141     24.2 1.096e+04 9.693e-09
 50.49132     24.1 1.003e+04 6.550e-09
 50.50169     24.0 9.926e+03 6.583e-09
 50.51555     23.8 9.923e+03 6.824e-09
 50.52546     23.4 9.786e+03 6.089e-09
 50.54135     23.1 9.889e+03 6.113e-09
 50.56118     22.1 1.026e+04 6.505e-09
 50.58101     20.7 1.084e+04 7.993e-09
 50.60083     19.9 1.117e+04 1.015e-08
 50.61354     20.1 1.132e+04 1.131e-08
 50.62346     21.3 1.129e+04 1.142e-08
 50.64049     21.4 1.134e+04 1.110e-08
 50.66032     21.6 1.130e+04 9.391e-09
 50.68014     21.4 1.130e+04 7.978e-09
 50.69997     21.0 1.130e+04 6.937e-09
 50.71980     20.6 1.131e+04 6.905e-09
 50.73576     20.3 1.127e+04 6.991e-09
 50.74568     21.3 1.127e+04 6.879e-09
 50.75946     21.1 1.129e+04 7.383e-09
 50.77667     20.5 1.137e+04 8.125e-09
 50.79660     20.7 1.198e+04 1.046e-08
 50.81904     20.0 1.165e+04 1.053e-08
 50.83877     19.4 1.156e+04 1.009e-08
 50.85798     19.2 1.148e+04 8.289e-09
 50.86790     19.6 1.194e+04 1.253e-08
 50.87842     19.2 1.172e+04 1.028e-08
 50.89825     18.5 1.166e+04 8.088e-09
 50.91808     17.5 1.128e+04 6.394e-09
 50.93790     16.9 1.114e+04 6.289e-09
 50.95773     15.7 1.108e+04 6.821e-09
 50.97756     14.5 1.129e+04 9.125e-09
 50.99012     13.7 1.174e+04 1.355e-08
 51.00003     14.8 1.193e+04 1.361e-08
 51.01722     14.4 1.242e+04 2.077e-08
 51.03704     14.6 1.282e+04 2.717e-08
 51.04771     15.0 1.268e+04 2.410e-08
 51.05763     15.2 1.238e+04 2.018e-08
 51.07670     15.2 1.206e+04 1.427e-08
 51.09653     14.9 1.157e+04 8.750e-09
 51.11234     14.1 1.098e+04 6.001e-09
 51.12225     15.1 1.112e+04 6.892e-09
 51.14619     15.6 1.062e+04 5.202e-09
 51.18595     17.0 9.779e+03 3.009e-09
 51.22560     18.3 9.465e+03 2.176e-09
 51.26526     20.6 9.459e+03 2.166e-09
 51.29912     22.5 9.584e+03 2.540e-09
 51.31895     23.6 9.247e+03 2.092e-09
 51.34457     25.0 9.754e+03 3.154e-09
 51.36689     26.0 1.061e+04 6.314e-09
 51.38672     28.3 1.008e+04 5.144e-09
 51.42388     28.8 1.089e+04 8.835e-09
 51.46354     28.8 1.152e+04 1.247e-08
 51.50319     28.8 1.143e+04 1.256e-08
 51.53283     29.6 1.109e+04 1.087e-08
 51.55256     29.7 1.102e+04 9.965e-09
 51.56997     30.3 1.074e+04 8.797e-09
 51.57988     30.5 1.070e+04 8.237e-09
 51.59222     30.4 1.083e+04 8.195e-09
 51.61114     29.4 1.163e+04 9.452e-09
 51.62105     32.6 1.109e+04 8.667e-09
 51.63188     32.1 1.161e+04 9.721e-09
 51.65170     30.9 1.238e+04 1.430e-08
 51.67153     31.0 1.228e+04 1.889e-08
 51.69136     31.9 1.193e+04 1.909e-08
 51.71119     33.4 1.138e+04 1.465e-08
 51.73101     33.9 1.108e+04 9.497e-09
 51.74327     33.2 1.091e+04 6.432e-09
 51.75318     36.4 1.112e+04 8.389e-09
 51.77067     35.4 1.091e+04 5.729e-09
 51.79050     34.1 1.049e+04 5.069e-09
 51.81033     33.6 1.011e+04 5.575e-09
 51.83015     34.2 9.913e+03 7.589e-09
 51.84101     35.2 1.018e+04 9.788e-09
 51.85092     35.7 9.890e+03 8.315e-09
 51.86549     36.8 1.021e+04 1.016e-08
 51.87540     38.5 1.007e+04 9.151e-09
 51.88964     39.3 1.040e+04 1.118e-08
 51.90946     39.9 1.061e+04 1.243e-08
 51.92929     40.4 1.050e+04 1.212e-08
 51.94912     40.7 1.022e+04 1.082e-08
 51.96895     41.0 9.772e+03 9.093e-09
 51.98771     41.2 9.316e+03 7.601e-09
 51.99762     43.2 9.918e+03 1.008e-08
 52.00860     43.6 9.393e+03 8.012e-09
 52.02843     44.0 8.921e+03 6.267e-09
 52.04826     44.4 8.422e+03 4.473e-09
 52.06809     44.3 8.040e+03 3.580e-09
 52.08791     44.7 7.813e+03 3.161e-09
 52.10214     44.8 7.657e+03 2.964e-09
 52.11205     45.1 7.630e+03 2.916e-09
 52.11985     45.9 7.587e+03 3.035e-09
 52.12976     47.7 7.675e+03 3.351e-09
 52.14740     48.4 7.700e+03 3.572e-09
 52.16722     49.3 7.709e+03 3.775e-09
 52.18705     50.2 7.803e+03 4.060e-09
 52.20688     50.7 7.978e+03 4.398e-09
 52.22671     50.8 8.217e+03 4.783e-09
 52.24207     50.7 8.558e+03 5.520e-09
 52.25198     53.0 8.341e+03 5.036e-09
 52.26636     52.8 8.657e+03 5.730e-09
 52.28619     52.6 8.944e+03 6.640e-09
 52.30602     52.7 9.163e+03 7.546e-09
 52.32585     52.7 9.344e+03 8.330e-09
 52.34567     52.1 9.729e+03 9.522e-09
 52.36326     50.0 1.073e+04 1.284e-08
 52.37196     49.4 1.100e+04 1.466e-08
 52.37420     52.9 1.064e+04 1.323e-08
 52.38533     49.8 1.193e+04 1.912e-08
 52.40516     45.1 1.353e+04 3.018e-08
 52.42498     41.0 1.434e+04 4.336e-08
 52.43526     35.7 1.507e+04 4.680e-08
 52.44017     36.9 1.535e+04 5.287e-08
 52.44967     34.8 1.565e+04 5.505e-08
 52.45959     29.4 1.628e+04 5.530e-08
 52.46950     27.3 1.595e+04 5.221e-08
 52.48442     22.5 1.446e+04 4.238e-08
 52.49642     19.3 1.274e+04 2.875e-08
 52.50634     18.8 1.305e+04 2.972e-08
 52.52412     15.4 1.143e+04 1.559e-08
 52.54395     10.7 9.492e+03 7.367e-09
 52.56378      8.3 8.522e+03 4.951e-09
 52.58361      7.4 8.198e+03 4.105e-09
 52.60343      6.8 8.044e+03 3.715e-09
 52.61864      6.5 7.980e+03 3.642e-09
 52.62856      5.3 8.248e+03 4.304e-09
 52.63430      5.4 8.390e+03 4.874e-09
 52.64422      6.4 8.464e+03 4.902e-09
 52.66292      6.6 8.759e+03 5.944e-09
 52.68275      6.9 9.153e+03 7.421e-09
 52.70257      7.3 9.664e+03 9.365e-09
 52.72240      7.8 1.026e+04 1.187e-08
 52.74086      8.4 1.085e+04 1.472e-08
 52.75078      7.4 1.139e+04 1.750e-08
 52.76206      8.0 1.160e+04 1.872e-08
 52.78188      8.4 1.170e+04 1.830e-08
 52.80171      8.3 1.177e+04 1.726e-08
 52.82154      7.8 1.196e+04 1.577e-08
 52.84137      7.1 1.211e+04 1.449e-08
 52.86120      6.4 1.205e+04 1.355e-08
 52.87300      5.9 1.173e+04 1.275e-08
 52.88291      4.3 1.135e+04 1.229e-08
 52.89543      4.1 1.092e+04 1.142e-08
 52.90534      5.9 1.190e+04 1.508e-08
 52.92068      5.6 1.152e+04 1.407e-08
 52.94051      5.5 1.127e+04 1.306e-08
 52.96033      5.5 1.110e+04 1.160e-08
 52.98016      5.1 1.100e+04 1.018e-08
 52.99522      4.4 1.102e+04 9.563e-09
 53.00513      3.1 1.099e+04 9.399e-09
 53.01982      2.5 1.109e+04 1.013e-08
 53.03964      2.1 1.118e+04 1.104e-08
 53.05947      2.1 1.124e+04 1.217e-08
 53.07930      2.5 1.129e+04 1.250e-08
 53.09913      3.0 1.138e+04 1.148e-08
 53.11744      3.3 1.132e+04 8.881e-09
 53.12735      2.8 1.127e+04 7.497e-09
 53.13878      2.7 1.102e+04 4.781e-09
 53.15656      2.4 1.085e+04 3.159e-09
 53.16647      3.5 1.137e+04 5.780e-09
 53.17844      3.1 1.120e+04 3.984e-09
 53.19827      2.8 1.102e+04 3.206e-09
 53.21809      2.9 1.094e+04 3.018e-09
 53.23792      3.2 1.106e+04 3.130e-09
 53.24957      3.7 1.115e+04 3.306e-09
 53.25949      3.3 1.121e+04 3.536e-09
 53.27758      3.9 1.145e+04 3.877e-09
 53.29741      4.5 1.169e+04 4.047e-09
 53.31723      5.1 1.195e+04 4.139e-09
 53.33706      5.6 1.222e+04 4.275e-09
 53.35689      6.0 1.241e+04 4.626e-09
 53.37179      6.2 1.248e+04 5.409e-09
 53.38171      5.8 1.264e+04 7.436e-09
 53.39654      6.2 1.278e+04 8.717e-09
 53.41637      6.7 1.295e+04 9.382e-09
 53.42760      7.1 1.304e+04 9.973e-09
 53.43751      7.6 1.333e+04 1.402e-08
 53.45603      7.9 1.357e+04 1.582e-08
 53.47585      7.7 1.379e+04 1.706e-08
 53.49401      7.8 1.386e+04 1.874e-08
 53.50393      6.8 1.348e+04 1.351e-08
 53.51551      7.3 1.349e+04 1.246e-08
 53.53534      7.5 1.321e+04 9.682e-09
 53.55517      7.4 1.282e+04 6.867e-09
 53.57499      7.4 1.240e+04 4.939e-09
 53.59482      7.4 1.207e+04 3.956e-09
 53.61465      7.9 1.187e+04 3.436e-09
 53.62615      8.6 1.186e+04 3.140e-09
 53.63606      7.7 1.165e+04 3.081e-09
 53.65430      8.3 1.154e+04 3.038e-09
 53.67413      9.2 1.154e+04 3.067e-09
 53.68872      9.8 1.152e+04 3.194e-09
 53.69864     10.2 1.147e+04 2.814e-09
 53.71379     11.1 1.147e+04 2.887e-09
 53.73362     11.7 1.142e+04 2.774e-09
 53.74837     12.4 1.142e+04 2.913e-09
 53.75828     11.6 1.140e+04 3.063e-09
 53.77327     12.2 1.147e+04 3.058e-09
 53.79310     12.6 1.169e+04 3.184e-09
 53.81293     12.7 1.176e+04 3.411e-09
 53.83275     13.1 1.181e+04 4.022e-09
 53.85258     13.2 1.201e+04 4.692e-09
 53.87059     13.3 1.234e+04 6.251e-09
 53.88050     11.7 1.257e+04 7.925e-09
 53.89224     11.1 1.313e+04 1.107e-08
 53.91207     10.7 1.348e+04 1.678e-08
 53.93189     10.7 1.381e+04 2.139e-08
 53.94985     10.8 1.390e+04 2.349e-08
 53.95977     11.2 1.382e+04 2.340e-08
 53.97155     11.1 1.363e+04 1.924e-08
 53.99138     10.8 1.329e+04 1.496e-08
 54.00272     10.7 1.291e+04 1.155e-08
 54.01264      9.7 1.267e+04 9.533e-09
 54.03103     10.1 1.236e+04 7.481e-09
 54.05086     10.5 1.226e+04 6.491e-09
 54.07069     11.2 1.234e+04 6.306e-09
 54.09051     11.4 1.250e+04 6.394e-09
 54.11034     11.5 1.236e+04 8.644e-09
 54.12495     11.9 1.270e+04 1.235e-08
 54.13486     10.1 1.386e+04 1.711e-08
 54.14499     11.0 1.435e+04 2.002e-08
 54.15486      9.8 1.543e+04 2.445e-08
 54.16477      7.6 1.684e+04 3.982e-08
 54.17468      5.3 1.690e+04 6.328e-08
 54.18460      5.0 1.681e+04 1.042e-07
 54.19091      5.6 1.700e+04 1.432e-07
 54.19587      6.5 1.747e+04 2.219e-07
 54.20943      6.3 1.762e+04 1.687e-07
 54.22089      5.1 1.715e+04 1.154e-07
 54.23081      5.4 1.725e+04 1.335e-07
 54.24717      4.6 1.686e+04 9.729e-08
 54.25708      2.7 1.632e+04 4.899e-08
 54.26896      1.6 1.552e+04 2.155e-08
 54.28879     -0.1 1.426e+04 1.071e-08
 54.30862     -1.6 1.271e+04 8.017e-09
 54.32845     -1.9 1.219e+04 7.752e-09
 54.34828     -1.5 1.218e+04 7.879e-09
 54.36810     -1.4 1.226e+04 7.761e-09
 54.37930     -1.4 1.248e+04 7.102e-09
 54.38921     -2.4 1.159e+04 5.241e-09
 54.40776     -2.9 1.145e+04 4.878e-09
 54.42759     -3.8 1.136e+04 4.626e-09
 54.44741     -4.6 1.127e+04 4.485e-09
 54.46724     -5.4 1.137e+04 4.388e-09
 54.48202     -6.1 1.153e+04 4.464e-09
 54.49193     -5.6 1.103e+04 4.364e-09
 54.50152     -6.0 1.114e+04 4.603e-09
 54.51143     -6.2 1.132e+04 4.884e-09
 54.52672     -6.6 1.145e+04 5.750e-09
 54.54655     -6.6 1.157e+04 6.503e-09
 54.56638     -6.4 1.163e+04 6.815e-09
 54.58621     -6.3 1.171e+04 6.458e-09
 54.60604     -6.3 1.179e+04 5.673e-09
 54.62374     -6.7 1.181e+04 5.148e-09
 54.63366     -7.8 1.183e+04 5.212e-09
 54.64569     -8.2 1.180e+04 5.128e-09
 54.66552     -8.5 1.174e+04 5.132e-09
 54.68535     -8.3 1.164e+04 4.949e-09
 54.70517     -7.9 1.160e+04 4.429e-09
 54.72500     -7.7 1.164e+04 3.830e-09
 54.74315     -7.6 1.164e+04 3.487e-09
 54.75306     -7.1 1.158e+04 3.240e-09
 54.75588     -7.0 1.174e+04 3.244e-09
 54.76579    -10.8 1.290e+04 6.961e-09
 54.78449    -14.1 1.412e+04 1.568e-08
 54.80431    -16.1 1.495e+04 3.895e-08
 54.81694    -16.0 1.537e+04 6.132e-08
 54.82185    -16.3 1.552e+04 7.280e-08
 54.82900    -16.5 1.565e+04 7.688e-08
 54.83891    -16.0 1.590e+04 8.689e-08
 54.84883    -16.1 1.583e+04 8.228e-08
 54.86375    -15.8 1.558e+04 6.620e-08
 54.87810    -17.1 1.484e+04 2.901e-08
 54.88801    -22.3 1.322e+04 1.321e-08
 54.90345    -26.2 1.103e+04 6.623e-09
 54.92328    -27.3 1.036e+04 5.620e-09
 54.94311    -27.0 1.025e+04 5.112e-09
 54.96294    -26.7 1.019e+04 4.783e-09
 54.98276    -26.6 1.013e+04 4.448e-09
 55.00032    -26.4 1.003e+04 4.172e-09
 55.01023    -26.9 9.974e+03 4.297e-09
 55.01419    -26.5 9.888e+03 4.042e-09
 55.02410    -26.7 9.710e+03 3.559e-09
 55.04225    -26.2 9.573e+03 3.147e-09
 55.07209    -25.7 9.321e+03 2.639e-09
 55.11184    -24.3 9.120e+03 2.206e-09
 55.13265    -23.1 9.052e+03 2.136e-09
 55.15248    -23.7 8.978e+03 2.417e-09
 55.19115    -22.3 8.978e+03 2.529e-09
 55.23080    -20.8 9.061e+03 2.971e-09
 55.27046    -19.4 9.251e+03 3.772e-09
 55.31012    -17.9 9.657e+03 5.140e-09
 55.34977    -16.6 1.023e+04 7.487e-09
 55.37709    -15.3 1.085e+04 1.093e-08
 55.39692    -16.5 1.026e+04 8.252e-09
 55.42908    -15.2 1.056e+04 9.943e-09
 55.46874    -14.0 1.068e+04 1.066e-08
 55.50839    -12.8 1.047e+04 9.780e-09
 55.53664    -11.3 1.009e+04 7.931e-09
 55.55646    -11.1 9.899e+03 7.463e-09
 55.58770     -8.8 9.714e+03 6.356e-09
 55.62153     -6.3 9.515e+03 5.168e-09
 55.64136     -5.9 8.908e+03 3.365e-09
 55.66702     -3.3 8.917e+03 2.875e-09
 55.70667     -0.7 8.980e+03 2.670e-09
 55.74633      1.5 9.275e+03 3.140e-09
 55.78598      3.8 9.581e+03 5.111e-09
 55.82564      7.0 1.009e+04 7.275e-09
 55.86529      9.5 1.028e+04 7.726e-09
 55.88580     12.2 1.015e+04 6.044e-09
 55.90563     12.1 9.961e+03 5.188e-09
 55.94460     13.7 1.001e+04 4.614e-09
 55.98426     14.8 1.029e+04 5.498e-09
 56.02391     16.7 1.056e+04 7.565e-09
 56.05889     18.9 1.074e+04 7.881e-09
 56.07872     19.5 1.079e+04 8.975e-09
 56.10323     21.4 1.076e+04 8.201e-09
 56.13024     23.1 1.068e+04 6.698e-09
 56.15007     22.0 1.032e+04 4.706e-09
 56.18254     23.6 1.029e+04 4.182e-09
 56.22219     25.5 1.033e+04 3.890e-09
 56.26185     27.2 1.044e+04 3.669e-09
 56.30150     28.8 1.057e+04 3.543e-09
 56.34116     30.2 1.073e+04 3.610e-09
 56.37080     30.4 1.093e+04 3.971e-09
 56.38440     30.7 1.100e+04 4.246e-09
 56.39431     30.3 1.097e+04 4.611e-09
 56.41036     30.4 1.120e+04 5.142e-09
 56.43019     30.8 1.143e+04 5.558e-09
 56.45002     30.9 1.152e+04 5.431e-09
 56.46984     30.8 1.157e+04 5.233e-09
 56.49968     31.0 1.148e+04 4.317e-09
 56.53944     30.7 1.144e+04 2.698e-09
 56.57909     29.7 1.128e+04 1.924e-09
 56.60097     29.2 1.086e+04 1.886e-09
 56.62080     28.1 1.089e+04 2.071e-09
 56.63895     28.0 1.072e+04 2.326e-09
 56.65878     27.7 1.073e+04 1.587e-09
 56.69806     27.4 1.063e+04 2.025e-09
 56.73771     27.3 1.065e+04 3.095e-09
 56.77737     27.4 1.068e+04 4.582e-09
 56.81702     27.6 1.063e+04 4.667e-09
 56.85668     28.2 1.040e+04 4.105e-09
 56.88339     29.0 1.021e+04 3.251e-09
 56.90322     30.1 1.037e+04 3.264e-09
 56.93599     31.3 1.024e+04 2.596e-09
 56.97565     32.5 1.024e+04 2.137e-09
 57.01530     33.9 1.029e+04 2.164e-09
 57.05496     35.4 1.043e+04 2.303e-09
 57.09461     36.8 1.054e+04 2.360e-09
 57.12313     38.0 1.063e+04 2.830e-09
 57.13294     38.1 1.079e+04 4.067e-09
 57.13755     38.5 1.118e+04 4.880e-09
 57.14747     39.4 1.110e+04 4.406e-09
 57.16381     39.6 1.150e+04 5.667e-09
 57.18364     39.0 1.218e+04 8.636e-09
 57.20347     37.6 1.332e+04 1.718e-08
 57.22330     36.7 1.418e+04 3.170e-08
 57.24312     35.8 1.486e+04 4.869e-08
 57.25977     34.4 1.538e+04 5.191e-08
 57.26969     33.2 1.735e+04 9.151e-08
 57.27777     29.4 1.830e+04 8.269e-08
 57.28764     27.5 1.904e+04 7.188e-08
 57.29755     25.6 1.957e+04 5.991e-08
 57.30747     24.4 1.952e+04 4.797e-08
 57.32239     21.5 1.938e+04 6.362e-08
 57.34226     17.7 1.627e+04 4.725e-08
 57.36209     16.9 1.471e+04 3.615e-08
 57.38192     17.3 1.413e+04 2.942e-08
 57.39407     17.3 1.379e+04 1.595e-08
 57.40398     17.8 1.342e+04 1.554e-08
 57.42157     19.3 1.327e+04 1.454e-08
 57.45141     20.6 1.311e+04 1.174e-08
 57.49117     23.2 1.276e+04 9.814e-09
 57.53082     25.8 1.262e+04 8.792e-09
 57.57048     28.5 1.269e+04 8.873e-09
 57.60012     30.3 1.269e+04 9.226e-09
 57.61985     31.4 1.286e+04 1.028e-08
 57.63635     32.2 1.301e+04 1.157e-08
 57.64626     32.1 1.291e+04 1.247e-08
 57.65520     33.2 1.276e+04 1.357e-08
 57.66511     33.6 1.295e+04 1.505e-08
 57.67933     34.7 1.288e+04 1.528e-08
 57.69916     36.1 1.264e+04 1.493e-08
 57.71899     37.8 1.232e+04 1.348e-08
 57.73882     39.5 1.178e+04 1.207e-08
 57.75857     40.8 1.101e+04 1.077e-08
 57.77840     41.2 9.800e+03 8.204e-09
 57.79830     42.0 9.414e+03 7.549e-09
 57.81813     43.1 9.388e+03 7.482e-09
 57.83796     44.3 9.405e+03 7.589e-09
 57.85778     45.8 9.503e+03 7.972e-09
 57.87761     46.9 9.776e+03 8.824e-09
 57.89070     47.5 1.031e+04 1.054e-08
 57.90062     46.0 1.183e+04 1.432e-08
 57.91226     46.7 1.216e+04 1.682e-08
 57.92118     46.2 1.316e+04 2.120e-08
 57.92614     47.3 1.280e+04 1.995e-08
 57.93204     45.4 1.532e+04 3.086e-08
 57.94195     42.5 1.796e+04 5.635e-08
 57.95172     40.7 1.841e+04 1.071e-07
 57.95667     39.4 1.739e+04 2.271e-07
 57.96178     40.5 1.706e+04 3.420e-07
 57.97170     41.9 1.716e+04 3.789e-07
 57.98161     43.1 1.715e+04 3.633e-07
 57.99152     44.8 1.714e+04 2.913e-07
 58.00144     45.8 1.734e+04 2.043e-07
 58.01135     45.6 1.791e+04 1.287e-07
 58.01778     44.6 1.881e+04 6.742e-08
 58.02279     42.2 1.758e+04 3.575e-08
 58.03623     36.7 1.466e+04 1.147e-08
 58.05606     32.7 1.100e+04 6.440e-09
 58.07589     32.6 1.030e+04 5.258e-09
 58.09572     33.1 1.017e+04 4.572e-09
 58.11555     33.0 1.033e+04 4.030e-09
 58.13514     32.9 1.060e+04 4.084e-09
 58.14506     33.6 9.577e+03 2.584e-09
 58.15520     34.2 9.689e+03 2.634e-09
 58.17503     34.7 1.003e+04 2.987e-09
 58.18736     35.3 1.072e+04 4.040e-09
 58.19728     35.3 1.159e+04 6.462e-09
 58.21468     36.3 1.226e+04 9.917e-09
 58.23451     37.5 1.302e+04 1.655e-08
 58.25434     39.0 1.385e+04 2.822e-08
 58.26728     40.6 1.455e+04 4.472e-08
 58.27719     41.4 1.292e+04 1.499e-08
 58.29399     42.3 1.403e+04 2.891e-08
 58.31382     43.7 1.496e+04 5.364e-08
 58.33365     45.7 1.558e+04 8.027e-08
 58.35348     47.3 1.590e+04 8.886e-08
 58.37331     48.8 1.583e+04 8.257e-08
 58.38950     49.7 1.544e+04 6.492e-08
 58.39941     49.5 1.556e+04 6.887e-08
 58.41296     49.7 1.558e+04 5.817e-08
 58.43279     48.5 1.620e+04 5.698e-08
 58.44849     42.9 1.866e+04 6.989e-08
 58.45635     37.4 1.938e+04 7.982e-08
 58.46043     37.7 1.947e+04 8.886e-08
 58.46739     35.2 1.915e+04 1.087e-07
 58.47730     24.5 2.541e+04 1.915e-07
 58.48722     -2.3 2.439e+04 1.638e-06
 58.49713    -25.1 1.855e+04 6.026e-06
 58.50705    -41.3 1.849e+04 3.268e-06
 58.51658    -51.9 2.022e+04 6.413e-07
 58.52154    -50.0 2.007e+04 7.784e-07
 58.52687    -59.4 1.873e+04 1.488e-07
 58.53679    -64.2 1.627e+04 7.385e-08
 58.54670    -65.4 1.525e+04 5.369e-08
 58.55661    -66.0 1.442e+04 3.846e-08
 58.57153    -66.6 1.336e+04 2.589e-08
 58.59141    -68.0 1.052e+04 9.570e-09
 58.61124    -68.2 9.455e+03 5.865e-09
 58.63107    -67.9 9.151e+03 4.266e-09
 58.64386    -67.7 8.900e+03 3.353e-09
 58.65377    -66.5 8.903e+03 3.437e-09
 58.67072    -66.4 8.771e+03 3.091e-09
 58.69055    -66.3 8.753e+03 3.051e-09
 58.70962    -66.3 8.928e+03 3.486e-09
 58.72954    -64.7 8.728e+03 2.705e-09
 58.76014    -64.2 9.248e+03 4.288e-09
 58.79980    -63.6 9.664e+03 5.866e-09
 58.83945    -63.2 9.905e+03 6.638e-09
 58.87858    -63.0 9.874e+03 6.219e-09
 58.89841    -63.9 9.842e+03 5.445e-09
 58.91876    -64.0 9.678e+03 4.941e-09
 58.95842    -64.0 9.491e+03 4.348e-09
 58.99807    -63.3 9.397e+03 4.110e-09
 59.02053    -62.4 9.250e+03 4.101e-09
 59.03034    -62.9 9.253e+03 4.213e-09
 59.04745    -62.6 9.173e+03 4.126e-09
 59.06728    -62.3 9.120e+03 4.075e-09
 59.08710    -62.0 9.098e+03 4.059e-09
 59.10693    -61.8 9.075e+03 4.128e-09
 59.12676    -61.6 9.049e+03 4.226e-09
 59.14265    -61.3 9.013e+03 4.352e-09
 59.15257    -61.5 9.187e+03 5.044e-09
 59.16642    -61.1 9.164e+03 5.164e-09
 59.18624    -60.7 9.137e+03 5.179e-09
 59.20607    -60.2 9.073e+03 5.111e-09
 59.22590    -59.7 9.020e+03 5.030e-09
 59.24179    -59.1 9.008e+03 5.013e-09
 59.25170    -58.1 9.402e+03 6.145e-09
 59.26487    -57.6 9.447e+03 6.285e-09
 59.27479    -57.6 9.603e+03 6.907e-09
 59.28538    -57.1 9.608e+03 6.908e-09
 59.31522    -56.5 9.612e+03 7.128e-09
 59.35497    -54.9 9.578e+03 7.323e-09
 59.38462    -54.1 9.273e+03 6.402e-09
 59.39701    -53.1 9.121e+03 5.879e-09
 59.40692    -53.0 8.980e+03 5.257e-09
 59.42418    -52.0 8.772e+03 4.381e-09
 59.44400    -51.2 8.616e+03 3.761e-09
 59.46383    -50.3 8.525e+03 3.288e-09
 59.48366    -49.7 8.475e+03 3.107e-09
 59.51350    -48.4 8.438e+03 2.788e-09
 59.55325    -46.4 8.109e+03 2.151e-09
 59.59291    -43.9 7.977e+03 1.889e-09
 59.63173    -41.5 7.984e+03 1.865e-09
 59.65156    -41.8 8.163e+03 1.979e-09
 59.67222    -40.1 8.465e+03 2.250e-09
 59.71187    -38.7 8.824e+03 2.949e-09
 59.75153    -37.4 9.297e+03 4.250e-09
 59.77415    -36.4 9.855e+03 6.123e-09
 59.79398    -35.1 9.863e+03 6.048e-09
 59.83084    -34.2 1.035e+04 7.838e-09
 59.87049    -33.5 1.073e+04 9.011e-09
 59.89600    -32.8 1.103e+04 9.514e-09
 59.91583    -32.5 1.058e+04 6.706e-09
 59.94981    -31.6 1.079e+04 6.982e-09
 59.98946    -30.7 1.085e+04 6.884e-09
 60.02912    -29.7 1.074e+04 5.473e-09
 60.06877    -28.6 1.052e+04 3.854e-09
 60.10843    -27.5 1.044e+04 3.032e-09
 60.14044    -26.1 1.045e+04 2.850e-09
 60.16027    -24.9 1.034e+04 2.852e-09
 60.18774    -23.4 1.043e+04 2.861e-09
 60.22739    -22.4 1.083e+04 3.202e-09
 60.26705    -22.3 1.143e+04 4.661e-09
 60.29630    -22.5 1.207e+04 8.181e-09
 60.31613    -21.2 1.195e+04 7.815e-09
 60.34636    -21.4 1.260e+04 1.332e-08
 60.38488    -21.4 1.272e+04 1.536e-08
 60.40461    -22.1 1.280e+04 1.946e-08
 60.41556    -22.1 1.229e+04 1.457e-08
 60.43539    -21.4 1.184e+04 1.146e-08
 60.45522    -20.7 1.112e+04 7.658e-09
 60.47505    -19.7 1.080e+04 5.344e-09
 60.49487    -18.9 1.055e+04 3.647e-09
 60.51470    -18.1 1.045e+04 2.948e-09
 60.54454    -16.6 1.037e+04 2.675e-09
 60.58429    -14.3 1.013e+04 2.245e-09
 60.62395    -11.9 9.894e+03 1.822e-09
 60.64915     -9.6 9.760e+03 1.491e-09
 60.66898     -9.4 9.601e+03 1.368e-09
 60.70326     -7.1 9.582e+03 1.241e-09
 60.74292     -4.9 9.650e+03 1.218e-09
 60.78257     -3.2 9.713e+03 1.388e-09
 60.81866     -1.6 9.660e+03 1.882e-09
 60.83848     -0.9 9.695e+03 1.351e-09
 60.86188      0.6 9.689e+03 1.779e-09
 60.89359      2.0 9.669e+03 2.317e-09
 60.91342      3.0 9.685e+03 2.438e-09
 60.94119      4.5 9.687e+03 3.086e-09
 60.98085      6.1 9.807e+03 3.798e-09
 61.02050      7.7 9.771e+03 4.250e-09
 61.06016      9.1 9.697e+03 4.087e-09
 61.09981     10.6 9.554e+03 3.681e-09
 61.13803     12.0 9.423e+03 3.516e-09
 61.15786     13.2 9.524e+03 3.811e-09
 61.17913     14.6 9.474e+03 3.700e-09
 61.21878     16.0 9.498e+03 3.503e-09
 61.25844     17.1 9.610e+03 3.862e-09
 61.29809     18.3 9.780e+03 4.274e-09
 61.33775     19.3 9.882e+03 4.159e-09
 61.36074     20.1 1.004e+04 4.209e-09
 61.38057     20.0 1.003e+04 3.463e-09
 61.40230     20.9 1.009e+04 3.557e-09
 61.42213     20.0 1.038e+04 4.201e-09
 61.45671     21.0 1.036e+04 4.264e-09
 61.49637     22.3 1.036e+04 4.398e-09
 61.53602     23.1 1.041e+04 5.045e-09
 61.57568     24.1 1.048e+04 6.388e-09
 61.61534     25.4 1.057e+04 7.536e-09
 61.64674     26.5 1.069e+04 7.981e-09
 61.66657     25.0 1.032e+04 6.624e-09
 61.69465     26.2 1.018e+04 6.158e-09
 61.73430     27.6 9.967e+03 5.416e-09
 61.77396     29.2 9.726e+03 4.458e-09
 61.81361     30.8 9.531e+03 3.606e-09
 61.85327     32.6 9.378e+03 2.971e-09
 61.88299     34.5 9.282e+03 2.553e-09
 61.90108     34.5 9.386e+03 2.794e-09
 61.91101     34.3 9.047e+03 1.663e-09
 61.93258     36.5 9.053e+03 1.671e-09
 61.97223     38.8 9.076e+03 1.675e-09
 62.01189     41.2 9.100e+03 1.627e-09
 62.05155     43.5 9.136e+03 1.529e-09
 62.09120     45.7 9.178e+03 1.404e-09
 62.13086     47.8 9.215e+03 1.286e-09
 62.15545     49.9 9.235e+03 1.197e-09
 62.17528     50.0 9.119e+03 8.995e-10
 62.21017     52.2 9.148e+03 9.043e-10
 62.24982     54.4 9.180e+03 9.378e-10
 62.28948     56.6 9.209e+03 9.953e-10
 62.32913     59.0 9.331e+03 1.008e-09
 62.36879     61.3 9.399e+03 9.807e-10
 62.39989     63.6 9.503e+03 8.951e-10
 62.41652     63.6 9.434e+03 1.012e-09
 62.42507     63.4 9.481e+03 1.002e-09
 62.44810     65.7 9.570e+03 8.770e-10
 62.48776     67.9 9.652e+03 7.569e-10
 62.52741     70.2 9.730e+03 7.091e-10
 62.56707     72.4 9.764e+03 7.191e-10
 62.60672     74.6 9.869e+03 7.834e-10
 62.64434     76.7 9.930e+03 9.509e-10
 62.66416     76.8 9.982e+03 1.119e-09
 62.68603     79.0 1.005e+04 1.301e-09
 62.72569     81.2 1.014e+04 1.402e-09
 62.76534     83.3 1.024e+04 1.392e-09
 62.80500     85.4 1.028e+04 1.322e-09
 62.84466     87.6 1.039e+04 1.165e-09
 62.88431     89.7 1.050e+04 9.879e-10
 62.90860     91.9 1.062e+04 8.423e-10
 62.92843     92.2 1.057e+04 7.984e-10
 62.94733     94.5 1.067e+04 7.648e-10
 62.96715     94.1 1.060e+04 7.854e-10
 63.00328     96.3 1.065e+04 7.930e-10
 63.04293     98.5 1.076e+04 8.386e-10
 63.08259    100.6 1.086e+04 9.863e-10
 63.12224    102.6 1.099e+04 1.354e-09
 63.15305    104.3 1.122e+04 1.995e-09
 63.17287    105.6 1.133e+04 2.776e-09
 63.19154    106.2 1.160e+04 3.784e-09
 63.20826    106.5 1.177e+04 4.544e-09
 63.21817    106.2 1.178e+04 4.644e-09
 63.23110    106.5 1.201e+04 5.786e-09
 63.25093    106.5 1.218e+04 6.763e-09
 63.27076    106.5 1.244e+04 7.570e-09
 63.28499    106.3 1.268e+04 7.669e-09
 63.29490    106.3 1.289e+04 9.853e-09
 63.31041    105.8 1.290e+04 9.661e-09
 63.33024    105.4 1.293e+04 8.644e-09
 63.35007    105.1 1.294e+04 7.003e-09
 63.36990    104.9 1.298e+04 5.517e-09
 63.38972    104.8 1.303e+04 4.430e-09
 63.40721    104.8 1.309e+04 3.692e-09
 63.41712    104.2 1.320e+04 4.615e-09
 63.43939    104.4 1.284e+04 4.680e-09
 63.46958    104.9 1.232e+04 4.614e-09
 63.48941    104.8 1.254e+04 6.032e-09
 63.51880    105.4 1.222e+04 6.617e-09
 63.55845    105.8 1.207e+04 6.703e-09
 63.59811    105.9 1.180e+04 6.134e-09
 63.63776    105.8 1.162e+04 4.595e-09
 63.66176    105.6 1.142e+04 3.077e-09
 63.68158    104.3 1.099e+04 1.892e-09
 63.71708    104.6 1.059e+04 1.811e-09
 63.75673    105.7 1.053e+04 1.850e-09
 63.79639    107.2 1.043e+04 2.010e-09
 63.83604    108.8 1.038e+04 2.267e-09
 63.87570    110.3 1.036e+04 2.517e-09
 63.90620    111.8 1.036e+04 2.557e-09
 63.92603    112.3 1.024e+04 2.435e-09
 63.95501    113.8 1.022e+04 2.488e-09
 63.99183    115.2 1.016e+04 2.369e-09
 64.01166    115.5 9.976e+03 2.015e-09
 64.03432    117.0 9.830e+03 1.592e-09
 64.07397    118.6 9.682e+03 1.246e-09
 64.11363    120.3 9.607e+03 1.135e-09
 64.15064    122.1 9.610e+03 1.146e-09
 64.17047    122.9 9.666e+03 1.690e-09
 64.19294    124.3 9.703e+03 1.794e-09
 64.23260    125.3 9.806e+03 2.237e-09
 64.27225    126.3 1.022e+04 3.600e-09
 64.31191    127.6 1.074e+04 5.857e-09
 64.34155    128.2 1.087e+04 6.831e-09
 64.36128    128.6 1.111e+04 8.267e-09
 64.38111    128.9 1.145e+04 1.044e-08
 64.40094    129.0 1.180e+04 1.275e-08
 64.41471    129.2 1.211e+04 1.488e-08
 64.42463    128.8 1.191e+04 1.372e-08
 64.44059    129.0 1.219e+04 1.522e-08
 64.46042    129.1 1.242e+04 1.593e-08
 64.48025    129.0 1.247e+04 1.578e-08
 64.50008    128.8 1.248e+04 1.536e-08
 64.51990    128.5 1.233e+04 1.440e-08
 64.53372    128.3 1.212e+04 1.306e-08
 64.54084    128.9 1.243e+04 1.573e-08
 64.54685    128.7 1.153e+04 9.518e-09
 64.55956    128.5 1.135e+04 8.320e-09
 64.57939    128.4 1.126e+04 7.438e-09
 64.59921    128.2 1.123e+04 6.842e-09
 64.61904    128.1 1.121e+04 6.488e-09
 64.63887    128.0 1.119e+04 6.289e-09
 64.65870    127.8 1.118e+04 6.261e-09
 64.66907    127.6 1.118e+04 6.384e-09
 64.67898    127.3 1.080e+04 4.494e-09
 64.69835    127.1 1.091e+04 5.104e-09
 64.71818    126.8 1.109e+04 5.939e-09
 64.73801    126.3 1.133e+04 6.754e-09
 64.75784    125.5 1.156e+04 6.878e-09
 64.77766    124.6 1.159e+04 6.667e-09
 64.79129    123.7 1.158e+04 5.803e-09
 64.79856    123.1 1.153e+04 4.773e-09
 64.80476    124.2 1.143e+04 5.809e-09
 64.81732    123.5 1.139e+04 4.555e-09
 64.83715    123.0 1.129e+04 3.203e-09
 64.85698    122.5 1.120e+04 2.223e-09
 64.87680    122.2 1.108e+04 1.750e-09
 64.90369    122.2 1.090e+04 1.706e-09
 64.92362    119.2 1.163e+04 2.240e-09
 64.94640    119.0 1.180e+04 3.005e-09
 64.98605    119.2 1.178e+04 4.114e-09
 65.02571    119.9 1.156e+04 4.574e-09
 65.05617    120.9 1.150e+04 4.360e-09
 65.07600    122.4 1.132e+04 3.676e-09
 65.10502    123.3 1.131e+04 3.686e-09
 65.14467    124.4 1.132e+04 3.752e-09
 65.16806    125.5 1.136e+04 4.031e-09
 65.18789    123.5 1.135e+04 4.986e-09
 65.22398    124.5 1.138e+04 5.380e-09
 65.26364    125.6 1.135e+04 5.253e-09
 65.29018    126.3 1.129e+04 4.795e-09
 65.30000    126.2 1.129e+04 4.781e-09
 65.31301    126.5 1.127e+04 4.577e-09
 65.32701    127.2 1.122e+04 4.202e-09
 65.33693    127.4 1.120e+04 4.158e-09
 65.35267    128.1 1.115e+04 3.812e-09
 65.37250    128.8 1.113e+04 3.505e-09
 65.39232    129.4 1.112e+04 3.243e-09
 65.41240    130.6 1.109e+04 3.110e-09
 65.43233    129.3 1.098e+04 2.608e-09
 65.46192    130.8 1.097e+04 2.594e-09
 65.50157    132.3 1.097e+04 2.556e-09
 65.54123    133.7 1.098e+04 2.437e-09
 65.57842    135.0 1.101e+04 2.199e-09
 65.59825    135.3 1.081e+04 2.028e-09
 65.62054    136.7 1.077e+04 1.715e-09
 65.65694    138.2 1.074e+04 1.449e-09
 65.67677    137.9 1.084e+04 1.476e-09
 65.69985    139.6 1.084e+04 1.307e-09
 65.73950    141.5 1.085e+04 1.304e-09
 65.77916    143.4 1.093e+04 1.336e-09
 65.81882    144.9 1.114e+04 1.495e-09
 65.85847    146.1 1.132e+04 1.960e-09
 65.89813    147.0 1.145e+04 2.848e-09
 65.92121    147.7 1.163e+04 4.198e-09
 65.94104    146.8 1.223e+04 8.366e-09
 65.97744    147.0 1.245e+04 9.781e-09
 66.01709    147.1 1.250e+04 9.664e-09
 66.05675    147.3 1.252e+04 8.598e-09
 66.09640    147.7 1.244e+04 6.335e-09
 66.12050    148.2 1.238e+04 4.367e-09
 66.14033    148.8 1.247e+04 6.190e-09
 66.16565    149.3 1.248e+04 4.624e-09
 66.18548    148.0 1.248e+04 2.817e-09
 66.21537    148.6 1.254e+04 2.968e-09
 66.25503    149.1 1.263e+04 3.407e-09
 66.29468    149.2 1.278e+04 3.968e-09
 66.33434    149.1 1.299e+04 4.489e-09
 66.37399    148.9 1.321e+04 4.867e-09
 66.40364    148.7 1.331e+04 4.983e-09
 66.41981    148.7 1.334e+04 5.159e-09
 66.42973    147.4 1.335e+04 5.730e-09
 66.44319    147.7 1.336e+04 5.797e-09
 66.46302    148.1 1.340e+04 5.919e-09
 66.48285    148.2 1.351e+04 6.337e-09
 66.50268    148.0 1.364e+04 6.855e-09
 66.53252    148.0 1.366e+04 7.679e-09
 66.57227    148.4 1.344e+04 8.770e-09
 66.61193    148.6 1.337e+04 8.867e-09
 66.64276    148.9 1.326e+04 8.575e-09
 66.66259    148.6 1.333e+04 8.423e-09
 66.67436    149.1 1.318e+04 7.334e-09
 66.69419    149.0 1.285e+04 5.144e-09
 66.73089    150.0 1.281e+04 4.413e-09
 66.77055    151.2 1.279e+04 3.890e-09
 66.81020    152.4 1.280e+04 3.526e-09
 66.84986    153.8 1.285e+04 3.228e-09
 66.88951    155.2 1.294e+04 2.883e-09
 66.91880    156.7 1.299e+04 2.476e-09
 66.93863    157.5 1.283e+04 1.968e-09
 66.96882    159.1 1.287e+04 1.770e-09
 67.00848    160.7 1.293e+04 1.530e-09
 67.04814    162.4 1.297e+04 1.306e-09
 67.08779    164.1 1.305e+04 1.089e-09
 67.12745    165.8 1.315e+04 8.946e-10
 67.16325    167.5 1.326e+04 7.404e-10
 67.18098    168.1 1.316e+04 8.628e-10
 67.18484    168.2 1.309e+04 9.526e-10
 67.20676    169.9 1.318e+04 9.223e-10
 67.24641    171.6 1.323e+04 9.311e-10
 67.28607    173.2 1.332e+04 9.481e-10
 67.32572    174.6 1.344e+04 9.542e-10
 67.36538    175.9 1.355e+04 9.375e-10
 67.40503    177.1 1.365e+04 9.204e-10
 67.42751    178.3 1.370e+04 9.344e-10
 67.44734    178.5 1.356e+04 1.699e-09
 67.48435    179.4 1.370e+04 1.811e-09
 67.52400    179.8 1.384e+04 2.037e-09
 67.56366    179.7 1.395e+04 2.345e-09
 67.60331    179.4 1.415e+04 2.383e-09
 67.64297    178.9 1.420e+04 2.299e-09
 67.67196    178.3 1.431e+04 2.028e-09
 67.69178    177.7 1.434e+04 1.615e-09
 67.70709    177.1 1.446e+04 1.374e-09
 67.72692    177.9 1.439e+04 1.398e-09
 67.76193    177.6 1.442e+04 1.379e-09
 67.80159    177.4 1.446e+04 1.430e-09
 67.84124    177.2 1.465e+04 1.683e-09
 67.88090    177.1 1.484e+04 2.091e-09
 67.91054    176.0 1.488e+04 3.012e-09
 67.92612    175.1 1.466e+04 4.488e-09
 67.93603    174.4 1.452e+04 5.225e-09
 67.95010    173.9 1.430e+04 7.145e-09
 67.96802    173.4 1.427e+04 8.894e-09
 67.97794    174.3 1.432e+04 8.773e-09
 67.98976    173.8 1.439e+04 1.029e-08
 68.00959    173.0 1.441e+04 1.020e-08
 68.02941    172.1 1.443e+04 9.502e-09
 68.04834    171.0 1.432e+04 7.864e-09
 68.05825    170.3 1.414e+04 6.112e-09
 68.06907    169.4 1.382e+04 4.692e-09
 68.08890    168.7 1.355e+04 3.912e-09
 68.11874    169.0 1.333e+04 2.987e-09
 68.15849    168.9 1.314e+04 1.955e-09
 68.18067    168.5 1.304e+04 1.473e-09
 68.20049    168.1 1.307e+04 1.377e-09
 68.22935    167.9 1.305e+04 1.381e-09
 68.24917    168.2 1.306e+04 1.418e-09
 68.27745    168.0 1.301e+04 1.498e-09
 68.31711    167.8 1.298e+04 1.770e-09
 68.35677    167.6 1.295e+04 2.187e-09
 68.39642    167.3 1.302e+04 2.540e-09
 68.42511    167.0 1.310e+04 2.675e-09
 68.44494    167.1 1.326e+04 2.715e-09
 68.47573    166.9 1.325e+04 2.705e-09
 68.51539    166.7 1.319e+04 2.696e-09
 68.54503    167.0 1.314e+04 2.887e-09
 68.55705    166.9 1.319e+04 3.243e-09
 68.56696    166.9 1.331e+04 3.389e-09
 68.58459    166.5 1.351e+04 4.327e-09
 68.60442    165.8 1.369e+04 5.906e-09
 68.63426    165.0 1.385e+04 8.661e-09
 68.66955    163.3 1.401e+04 1.195e-08
 68.68938    162.6 1.402e+04 1.238e-08
 68.71367    159.6 1.405e+04 1.215e-08
 68.75160    156.4 1.390e+04 9.933e-09
 68.77143    154.2 1.386e+04 9.294e-09
 68.79298    152.2 1.342e+04 4.699e-09
 68.83263    151.2 1.331e+04 1.934e-09
 68.87229    150.6 1.304e+04 1.032e-09
 68.91194    150.5 1.274e+04 9.859e-10
 68.93382    151.0 1.273e+04 9.912e-10
 68.95365    150.5 1.282e+04 1.017e-09
 68.99125    151.0 1.280e+04 1.178e-09
 69.03091    151.1 1.287e+04 1.558e-09
 69.07056    151.1 1.299e+04 2.028e-09
 69.10021    150.2 1.313e+04 2.455e-09
 69.11994    149.5 1.315e+04 3.080e-09
 69.13977    148.7 1.306e+04 4.078e-09
 69.15959    148.1 1.296e+04 5.278e-09
 69.17816    148.0 1.283e+04 6.330e-09
 69.18808    147.6 1.300e+04 6.521e-09
 69.19925    147.3 1.295e+04 7.064e-09
 69.21908    147.0 1.289e+04 7.650e-09
 69.23890    146.4 1.289e+04 8.343e-09
 69.25873    145.5 1.296e+04 9.173e-09
 69.27856    143.8 1.322e+04 1.069e-08
 69.29349    141.3 1.363e+04 1.426e-08
 69.30340    140.7 1.358e+04 1.374e-08
 69.31020    137.4 1.408e+04 2.059e-08
 69.32011    137.8 1.454e+04 2.739e-08
 69.33804    134.6 1.522e+04 4.306e-08
 69.35787    131.1 1.554e+04 4.841e-08
 69.37770    127.3 1.543e+04 4.586e-08
 69.39753    124.1 1.485e+04 3.472e-08
 69.41735    121.5 1.390e+04 2.209e-08
 69.43242    119.3 1.301e+04 1.420e-08
 69.44233    119.4 1.318e+04 1.470e-08
 69.45701    117.8 1.275e+04 1.115e-08
 69.47684    115.5 1.206e+04 7.942e-09
 69.50668    113.0 1.151e+04 6.314e-09
 69.54643    111.0 1.070e+04 4.616e-09
 69.58609    110.0 9.927e+03 3.424e-09
 69.62574    109.7 9.198e+03 2.437e-09
 69.66540    109.3 8.552e+03 1.673e-09
 69.68697    108.8 8.241e+03 1.148e-09
 69.70680    108.8 7.897e+03 9.934e-10
 69.74471    108.4 8.072e+03 9.357e-10
 69.78436    108.1 8.368e+03 9.198e-10
 69.81594    107.9 8.980e+03 9.381e-10
 69.83576    108.0 8.925e+03 1.071e-09
 69.86367    107.8 9.621e+03 1.219e-09
 69.90333    107.4 1.026e+04 1.573e-09
 69.93141    106.8 1.085e+04 2.196e-09
 69.95124    105.6 1.093e+04 2.703e-09
 69.97263    104.8 1.121e+04 3.013e-09
 69.99236    104.5 1.128e+04 3.157e-09
 70.01219    104.3 1.140e+04 3.484e-09
 70.03201    103.9 1.154e+04 3.927e-09
 70.05184    103.5 1.176e+04 4.185e-09
 70.06335    102.9 1.200e+04 4.130e-09
 70.07326    102.2 1.196e+04 3.751e-09
 70.08678    101.7 1.202e+04 3.749e-09
 70.09669    101.8 1.214e+04 4.269e-09
 70.11133    101.3 1.225e+04 4.300e-09
 70.13115    100.2 1.253e+04 4.581e-09
 70.15098     98.1 1.322e+04 6.041e-09
 70.17081     95.9 1.376e+04 1.119e-08
 70.18557     94.4 1.413e+04 1.969e-08
 70.19548     92.6 1.424e+04 2.207e-08
 70.21046     91.0 1.439e+04 2.224e-08
 70.23029     88.9 1.448e+04 1.969e-08
 70.25012     86.4 1.437e+04 1.575e-08
 70.26995     83.8 1.421e+04 1.474e-08
 70.28977     81.9 1.408e+04 1.637e-08
 70.30779     80.8 1.414e+04 2.024e-08
 70.31771     78.6 1.413e+04 2.165e-08
 70.32943     77.7 1.452e+04 2.634e-08
 70.34791     76.5 1.495e+04 3.368e-08
 70.35782     77.8 1.477e+04 2.741e-08
 70.36909     76.4 1.530e+04 3.881e-08
 70.38891     75.0 1.562e+04 5.264e-08
 70.40874     73.9 1.560e+04 5.603e-08
 70.42857     73.1 1.522e+04 4.900e-08
 70.43993     72.5 1.447e+04 3.288e-08
 70.44984     71.0 1.346e+04 1.822e-08
 70.46822     70.1 1.278e+04 1.017e-08
 70.48805     69.0 1.229e+04 6.158e-09
 70.50788     68.2 1.196e+04 4.583e-09
 70.52771     67.9 1.173e+04 4.146e-09
 70.54754     67.9 1.159e+04 4.061e-09
 70.56215     68.0 1.156e+04 4.060e-09
 70.57206     67.4 1.141e+04 3.457e-09
 70.58719     67.5 1.140e+04 3.564e-09
 70.60702     67.7 1.139e+04 3.743e-09
 70.61895     67.9 1.136e+04 3.928e-09
 70.62886     67.9 1.148e+04 4.191e-09
 70.64667     68.2 1.146e+04 4.432e-09
 70.66650     68.4 1.146e+04 4.450e-09
 70.68437     68.7 1.144e+04 4.359e-09
 70.69428     68.1 1.128e+04 3.735e-09
 70.70616     68.3 1.122e+04 3.548e-09
 70.72598     68.4 1.117e+04 3.459e-09
 70.74581     68.5 1.117e+04 3.476e-09
 70.76564     68.5 1.120e+04 3.622e-09
 70.78547     68.4 1.129e+04 4.029e-09
 70.80530     68.4 1.139e+04 4.647e-09
 70.81650     68.5 1.150e+04 5.357e-09
 70.82642     68.3 1.125e+04 4.503e-09
 70.84495     68.5 1.141e+04 5.014e-09
 70.86478     68.7 1.158e+04 5.282e-09
 70.88008     68.7 1.168e+04 5.314e-09
 70.88999     68.2 1.188e+04 6.508e-09
 70.90443     68.1 1.187e+04 6.177e-09
 70.92426     68.1 1.183e+04 5.633e-09
 70.93872     68.2 1.180e+04 5.048e-09
 70.94864     68.2 1.173e+04 4.768e-09
 70.96392     68.4 1.173e+04 4.446e-09
 70.98375     68.5 1.176e+04 4.160e-09
 71.00357     68.7 1.179e+04 3.928e-09
 71.02340     68.9 1.183e+04 3.808e-09
 71.04323     69.2 1.184e+04 3.811e-09
 71.06094     69.6 1.189e+04 3.862e-09
 71.07086     69.7 1.188e+04 3.923e-09
 71.08288     70.1 1.196e+04 4.120e-09
 71.10271     70.4 1.202e+04 4.528e-09
 71.12254     70.8 1.208e+04 5.098e-09
 71.14120     71.2 1.216e+04 5.699e-09
 71.15112     70.5 1.223e+04 5.870e-09
 71.16220     70.9 1.230e+04 6.280e-09
 71.18202     71.2 1.235e+04 6.425e-09
 71.19308     71.5 1.236e+04 6.421e-09
 71.20299     71.7 1.231e+04 5.821e-09
 71.22168     71.9 1.231e+04 5.596e-09
 71.24151     72.2 1.231e+04 5.536e-09
 71.26133     72.5 1.232e+04 5.614e-09
 71.28116     72.7 1.234e+04 5.940e-09
 71.30099     72.8 1.244e+04 6.472e-09
 71.31530     72.8 1.263e+04 7.576e-09
 71.32521     72.8 1.256e+04 7.160e-09
 71.34064     72.8 1.278e+04 8.621e-09
 71.36047     72.8 1.297e+04 1.031e-08
 71.38030     72.8 1.312e+04 1.166e-08
 71.40013     72.6 1.323e+04 1.259e-08
 71.41224     72.5 1.326e+04 1.276e-08
 71.42216     71.8 1.343e+04 1.490e-08
 71.43752     71.7 1.335e+04 1.414e-08
 71.44743     71.7 1.314e+04 1.350e-08
 71.45961     71.9 1.297e+04 1.195e-08
 71.47944     72.3 1.282e+04 1.048e-08
 71.49927     72.9 1.270e+04 9.120e-09
 71.51909     73.7 1.261e+04 7.857e-09
 71.53892     74.4 1.254e+04 6.733e-09
 71.55875     75.1 1.247e+04 5.825e-09
 71.56965     75.8 1.242e+04 5.188e-09
 71.57957     75.7 1.231e+04 5.284e-09
 71.59841     76.3 1.231e+04 4.986e-09
 71.61823     76.8 1.233e+04 4.839e-09
 71.63806     77.3 1.237e+04 4.781e-09
 71.65789     77.8 1.241e+04 4.725e-09
 71.67337     78.2 1.247e+04 4.606e-09
 71.68328     77.4 1.256e+04 5.358e-09
 71.69187     77.7 1.258e+04 4.957e-09
 71.70179     77.7 1.249e+04 4.602e-09
 71.71737     77.9 1.251e+04 4.090e-09
 71.73720     78.1 1.253e+04 3.648e-09
 71.75703     78.3 1.255e+04 3.281e-09
 71.77685     78.5 1.258e+04 3.043e-09
 71.80669     79.1 1.257e+04 2.848e-09
 71.84645     79.9 1.256e+04 2.715e-09
 71.88610     80.8 1.263e+04 2.628e-09
 71.92478     81.7 1.272e+04 2.571e-09
 71.94461     80.5 1.269e+04 2.674e-09
 71.94642     81.4 1.278e+04 2.469e-09
 71.96625     82.0 1.270e+04 2.030e-09
 72.00507     83.2 1.273e+04 1.827e-09
 72.04472     84.6 1.275e+04 1.686e-09
 72.08438     86.2 1.287e+04 1.621e-09
 72.12404     87.8 1.295e+04 1.595e-09
 72.16369     89.5 1.300e+04 1.584e-09
 72.19087     91.4 1.300e+04 1.587e-09
 72.21069     92.6 1.298e+04 1.365e-09
 72.24300     94.7 1.295e+04 1.483e-09
 72.28266     96.8 1.290e+04 1.646e-09
 72.32231     98.9 1.286e+04 1.890e-09
 72.36197    100.7 1.283e+04 2.190e-09
 72.40162    102.3 1.277e+04 2.465e-09
 72.43531    103.8 1.271e+04 2.662e-09
 72.45513    105.1 1.290e+04 3.638e-09
 72.46686    106.1 1.285e+04 3.705e-09
 72.48669    105.4 1.286e+04 3.694e-09
 72.52059    105.9 1.295e+04 3.919e-09
 72.56025    105.3 1.314e+04 4.415e-09
 72.58989    102.6 1.419e+04 9.735e-09
 72.60962    102.0 1.414e+04 1.066e-08
 72.62945    101.0 1.405e+04 1.450e-08
 72.64928    100.5 1.405e+04 1.785e-08
 72.66910    100.7 1.378e+04 1.582e-08
 72.68893    100.7 1.369e+04 1.533e-08
 72.69948    101.6 1.319e+04 9.964e-09
 72.70939     99.8 1.363e+04 1.644e-08
 72.72779    100.1 1.340e+04 1.238e-08
 72.73771    100.3 1.321e+04 1.018e-08
 72.75843    100.4 1.311e+04 8.231e-09
 72.79818    101.8 1.278e+04 5.877e-09
 72.83783    103.6 1.250e+04 4.704e-09
 72.87749    105.6 1.242e+04 4.408e-09
 72.91715    108.1 1.255e+04 4.594e-09
 72.94392    109.3 1.232e+04 3.664e-09
 72.95374    108.9 1.220e+04 3.627e-09
 72.96652    110.2 1.217e+04 3.394e-09
 72.98635    111.1 1.222e+04 3.498e-09
 72.99883    112.1 1.232e+04 3.752e-09
 73.00884    112.6 1.206e+04 2.301e-09
 73.02610    113.7 1.214e+04 2.378e-09
 73.04583    114.5 1.224e+04 2.532e-09
 73.06566    115.3 1.233e+04 2.837e-09
 73.07596    116.1 1.236e+04 3.345e-09
 73.08587    116.0 1.228e+04 3.147e-09
 73.10531    116.8 1.222e+04 3.738e-09
 73.12514    117.7 1.215e+04 4.446e-09
 73.14497    118.5 1.211e+04 5.244e-09
 73.16480    119.3 1.212e+04 6.143e-09
 73.18462    120.1 1.214e+04 7.179e-09
 73.19818    121.0 1.217e+04 8.332e-09
 73.20809    120.9 1.209e+04 7.513e-09
 73.22428    121.7 1.212e+04 8.467e-09
 73.24411    122.4 1.216e+04 9.341e-09
 73.25996    123.1 1.219e+04 1.005e-08
 73.26987    123.2 1.191e+04 8.241e-09
 73.28376    123.5 1.190e+04 8.245e-09
 73.30359    123.8 1.183e+04 7.975e-09
 73.32040    124.0 1.173e+04 7.356e-09
 73.33031    123.6 1.165e+04 6.733e-09
 73.34325    123.8 1.150e+04 6.108e-09
 73.36307    124.0 1.133e+04 5.457e-09
 73.38290    124.2 1.117e+04 4.887e-09
 73.40273    124.4 1.102e+04 4.445e-09
 73.42256    124.6 1.087e+04 4.144e-09
 73.44238    124.7 1.075e+04 4.076e-09
 73.45253    124.8 1.071e+04 4.336e-09
 73.46245    124.9 1.067e+04 4.052e-09
 73.48204    125.2 1.071e+04 4.570e-09
 73.50187    125.5 1.083e+04 5.314e-09
 73.52109    125.8 1.103e+04 6.426e-09
 73.53100    126.9 1.101e+04 6.419e-09
 73.54152    127.4 1.129e+04 8.100e-09
 73.56135    127.8 1.166e+04 1.053e-08
 73.57475    128.0 1.209e+04 1.370e-08
 73.58467    128.2 1.205e+04 1.354e-08
 73.60101    128.2 1.270e+04 1.902e-08
 73.62083    128.1 1.355e+04 2.752e-08
 73.64066    128.0 1.432e+04 3.764e-08
 73.65548    127.5 1.464e+04 4.289e-08
 73.66147    127.1 1.487e+04 4.800e-08
 73.66642    128.0 1.492e+04 4.909e-08
 73.67526    127.6 1.531e+04 5.838e-08
 73.68518    127.3 1.576e+04 7.146e-08
 73.69509    127.0 1.623e+04 8.823e-08
 73.70183    126.7 1.670e+04 1.053e-07
 73.70679    126.8 1.673e+04 1.019e-07
 73.71492    126.1 1.695e+04 1.061e-07
 73.72483    125.3 1.692e+04 1.029e-07
 73.73475    124.5 1.676e+04 9.265e-08
 73.74466    123.5 1.651e+04 8.143e-08
 73.75457    122.5 1.625e+04 7.233e-08
 73.76294    121.6 1.617e+04 7.143e-08
 73.76790    122.1 1.587e+04 6.387e-08
 73.77941    122.3 1.556e+04 5.683e-08
 73.79213    122.3 1.562e+04 5.914e-08
 73.80204    120.7 1.713e+04 1.137e-07
 73.81911    120.9 1.719e+04 9.714e-08
 73.83894    121.4 1.710e+04 9.819e-08
 73.85877    121.6 1.822e+04 1.250e-07
 73.87859    121.7 1.911e+04 1.613e-07
 73.89017    121.7 1.946e+04 1.986e-07
 73.89508    122.2 1.941e+04 2.119e-07
 73.90328    122.3 1.959e+04 2.965e-07
 73.91320    122.1 1.959e+04 4.738e-07
 73.92259    121.3 1.912e+04 9.348e-07
 73.92755    118.1 1.972e+04 5.650e-07
 73.93302    116.6 1.979e+04 6.613e-07
 73.94294    114.4 2.073e+04 5.402e-07
 73.95123    111.0 2.339e+04 2.743e-07
 73.95619    111.3 2.280e+04 4.761e-07
 73.96277    106.6 2.693e+04 1.677e-07
 73.97268    101.7 2.795e+04 7.553e-08
 73.98259     96.9 2.737e+04 3.597e-08
 73.99751     93.4 2.378e+04 2.655e-08
 74.01739     87.6 1.259e+04 1.710e-08
 74.03722     86.9 1.163e+04 1.327e-08
 74.05325     87.0 1.170e+04 1.080e-08
 74.06317     86.9 1.144e+04 8.485e-09
 74.07355     86.3 1.108e+04 6.799e-09
 74.08346     85.6 1.083e+04 6.235e-09
 74.09670     85.7 1.072e+04 6.205e-09
 74.11653     85.9 1.076e+04 6.296e-09
 74.13636     85.7 1.097e+04 6.715e-09
 74.15618     85.1 1.146e+04 9.050e-09
 74.17601     83.9 1.247e+04 1.548e-08
 74.19577     82.3 1.380e+04 2.902e-08
 74.21560     78.9 1.540e+04 5.860e-08
 74.23549     76.4 1.610e+04 7.136e-08
 74.25532     72.8 1.658e+04 7.418e-08
 74.27515     68.0 1.682e+04 7.577e-08
 74.29498     62.4 1.707e+04 8.295e-08
 74.31438     57.6 1.686e+04 9.724e-08
 74.32429     56.6 1.704e+04 1.024e-07
 74.32790     53.3 1.675e+04 9.520e-08
 74.33782     51.5 1.568e+04 6.697e-08
 74.35446     49.5 1.485e+04 4.566e-08
 74.37429     46.8 1.370e+04 2.655e-08
 74.39412     43.6 1.240e+04 1.761e-08
 74.41394     41.5 1.187e+04 1.668e-08
 74.43377     41.4 1.192e+04 1.751e-08
 74.45013     41.2 1.191e+04 1.733e-08
 74.47005     41.0 1.146e+04 1.434e-08
 74.50336     40.9 1.141e+04 1.452e-08
 74.54302     40.9 1.128e+04 1.418e-08
 74.57570     40.9 1.114e+04 1.358e-08
 74.59543     40.7 1.103e+04 1.303e-08
 74.61222     40.8 1.096e+04 1.280e-08
 74.63205     41.0 1.095e+04 1.286e-08
 74.65188     41.2 1.100e+04 1.325e-08
 74.67170     41.5 1.107e+04 1.358e-08
 74.69153     41.7 1.107e+04 1.354e-08
 74.70448     42.0 1.104e+04 1.320e-08
 74.71439     42.3 1.058e+04 1.058e-08
 74.73119     42.6 1.050e+04 1.001e-08
 74.75102     42.9 1.039e+04 9.230e-09
 74.77084     43.1 1.026e+04 8.435e-09
 74.79067     43.2 1.014e+04 7.810e-09
 74.81050     43.4 1.007e+04 7.599e-09
 74.82670     43.7 1.009e+04 7.660e-09
 74.83662     44.4 9.918e+03 6.837e-09
 74.84655     44.6 1.005e+04 7.226e-09
 74.85646     44.1 1.014e+04 7.420e-09
 74.86998     44.0 1.037e+04 8.169e-09
 74.88981     43.7 1.066e+04 9.304e-09
 74.90964     43.3 1.096e+04 1.079e-08
 74.92946     42.6 1.136e+04 1.294e-08
 74.94892     40.8 1.233e+04 1.693e-08
 74.95884     40.5 1.292e+04 1.879e-08
 74.96912     37.3 1.451e+04 3.180e-08
 74.98895     34.7 1.535e+04 5.028e-08
 75.00878     32.9 1.540e+04 5.910e-08
 75.02860     31.4 1.522e+04 5.574e-08
 75.04843     29.9 1.470e+04 4.175e-08
 75.06826     27.4 1.391e+04 2.565e-08
 75.08106     23.6 1.276e+04 1.623e-08
 75.09097     21.0 1.194e+04 1.344e-08
 75.10767     17.8 1.141e+04 1.345e-08
 75.11759     15.2 1.115e+04 1.259e-08
 75.12774     13.6 1.175e+04 1.699e-08
 75.14757     11.3 1.295e+04 2.599e-08
 75.16740      0.7 1.874e+04 5.940e-08
 75.18222    -10.2 2.049e+04 3.253e-07
 75.19208    -13.7 1.860e+04 9.023e-07
 75.20200    -15.2 1.795e+04 1.508e-06
 75.20814    -17.7 1.848e+04 1.209e-06
 75.21309    -19.8 1.891e+04 8.076e-07
 75.22183    -24.7 1.964e+04 4.683e-07
 75.23174    -30.1 2.004e+04 2.634e-07
 75.24165    -35.4 2.069e+04 1.471e-07
 75.24805    -41.2 1.955e+04 7.046e-08
 75.25301    -36.0 2.047e+04 1.632e-07
 75.26148    -42.3 1.921e+04 6.758e-08
 75.26925    -48.6 1.464e+04 3.317e-08
 75.27420    -49.9 1.356e+04 2.748e-08
 75.28632    -52.0 1.234e+04 2.164e-08
 75.30619    -54.0 1.108e+04 1.483e-08
 75.32550    -54.5 1.070e+04 1.214e-08
 75.33541    -54.6 1.061e+04 1.154e-08
 75.34585    -55.0 1.034e+04 9.503e-09
 75.36568    -55.3 1.008e+04 8.106e-09
 75.37872    -55.4 9.903e+03 7.288e-09
 75.38863    -54.9 1.013e+04 7.808e-09
 75.40533    -54.7 9.930e+03 6.835e-09
 75.42516    -54.3 9.724e+03 5.913e-09
 75.44499    -53.9 9.493e+03 5.046e-09
 75.45763    -53.5 9.238e+03 4.350e-09
 75.46755    -53.3 9.112e+03 3.996e-09
 75.48464    -52.8 8.874e+03 3.479e-09
 75.50447    -52.6 8.799e+03 3.345e-09
 75.53431    -52.3 8.796e+03 3.345e-09
 75.57406    -51.9 8.761e+03 3.389e-09
 75.61372    -51.6 8.761e+03 3.444e-09
 75.64004    -51.5 8.738e+03 3.376e-09
 75.65987    -50.7 8.708e+03 3.621e-09
 75.68302    -50.9 8.696e+03 3.482e-09
 75.70207    -50.9 8.716e+03 3.470e-09
 75.71199    -50.6 8.720e+03 3.435e-09
 75.72257    -50.8 8.836e+03 3.587e-09
 75.74240    -51.2 8.928e+03 3.701e-09
 75.76223    -51.7 9.059e+03 3.947e-09
 75.78206    -52.3 9.288e+03 4.293e-09
 75.80189    -53.6 9.402e+03 4.680e-09
 75.82171    -54.2 9.589e+03 5.116e-09
 75.83421    -55.9 9.911e+03 6.593e-09
 75.84412    -55.6 1.023e+04 7.435e-09
 75.86137    -56.6 1.050e+04 8.341e-09
 75.88120    -58.7 1.087e+04 1.056e-08
 75.90097    -60.7 1.130e+04 1.222e-08
 75.92080    -61.7 1.131e+04 1.201e-08
 75.94068    -64.7 1.150e+04 1.316e-08
 75.95643    -67.4 1.147e+04 1.386e-08
 75.96634    -67.4 1.204e+04 1.708e-08
 75.98033    -69.6 1.169e+04 1.548e-08
 76.00016    -71.8 1.122e+04 1.287e-08
 76.01999    -73.8 1.090e+04 1.141e-08
 76.03982    -75.2 1.079e+04 1.106e-08
 76.05965    -76.1 1.077e+04 1.106e-08
 76.07865    -76.7 1.082e+04 1.131e-08
 76.08856    -76.4 1.069e+04 1.052e-08
 76.09930    -76.8 1.074e+04 1.035e-08
 76.11913    -77.1 1.072e+04 9.788e-09
 76.13896    -77.7 1.066e+04 8.918e-09
 76.15878    -78.2 1.067e+04 8.541e-09
 76.17201    -78.8 1.069e+04 8.512e-09
 76.18192    -78.6 1.070e+04 8.206e-09
 76.19844    -79.4 1.085e+04 8.532e-09
 76.21078    -80.2 1.096e+04 9.123e-09
 76.22070    -79.6 1.102e+04 8.793e-09
 76.23810    -80.6 1.113e+04 9.624e-09
 76.25792    -81.8 1.120e+04 1.022e-08
 76.27775    -83.1 1.122e+04 1.045e-08
 76.29758    -84.5 1.120e+04 1.049e-08
 76.31741    -85.9 1.107e+04 9.807e-09
 76.33300    -87.1 1.083e+04 8.673e-09
 76.34292    -86.7 1.082e+04 8.491e-09
 76.35706    -87.8 1.057e+04 7.278e-09
 76.37689    -88.6 1.043e+04 6.310e-09
 76.39672    -89.3 1.035e+04 5.555e-09
 76.41655    -90.1 1.028e+04 4.890e-09
 76.43314    -90.9 1.018e+04 4.360e-09
 76.44305    -91.1 1.009e+04 4.133e-09
 76.45523    -91.7 1.007e+04 3.901e-09
 76.46514    -91.1 1.007e+04 3.554e-09
 76.47603    -91.7 9.998e+03 3.308e-09
 76.49586    -91.9 1.001e+04 3.309e-09
 76.51568    -92.3 1.004e+04 3.373e-09
 76.53551    -92.6 1.030e+04 3.732e-09
 76.55534    -93.1 1.058e+04 4.293e-09
 76.57517    -93.7 1.084e+04 5.087e-09
 76.58736    -94.1 1.102e+04 5.766e-09
 76.59727    -93.3 1.093e+04 5.021e-09
 76.61482    -93.5 1.107e+04 5.487e-09
 76.63465    -93.7 1.111e+04 5.597e-09
 76.65448    -94.0 1.113e+04 5.025e-09
 76.67431    -94.4 1.104e+04 4.441e-09
 76.69413    -94.8 1.093e+04 4.039e-09
 76.70418    -95.2 1.086e+04 3.829e-09
 76.70971    -95.2 1.080e+04 3.929e-09
 76.71949    -94.5 1.094e+04 4.331e-09
 76.73379    -95.1 1.091e+04 4.137e-09
 76.76363    -96.0 1.090e+04 4.103e-09
 76.80338    -97.4 1.085e+04 3.887e-09
 76.84304    -99.3 1.084e+04 3.789e-09
 76.88269   -101.2 1.114e+04 4.196e-09
 76.92235   -103.2 1.154e+04 5.417e-09
 76.95422   -105.5 1.207e+04 7.536e-09
 76.97404   -105.5 1.212e+04 6.896e-09
 77.00166   -108.0 1.252e+04 8.918e-09
 77.03130   -109.7 1.278e+04 9.898e-09
 77.05103   -111.1 1.288e+04 9.909e-09
 77.07086   -113.6 1.285e+04 8.550e-09
 77.08616   -115.9 1.265e+04 6.754e-09
 77.09607   -114.9 1.268e+04 6.044e-09
 77.11052   -117.4 1.233e+04 4.947e-09
 77.13034   -119.3 1.199e+04 4.704e-09
 77.15017   -120.5 1.181e+04 4.695e-09
 77.17000   -121.3 1.166e+04 4.754e-09
 77.18983   -121.8 1.149e+04 4.736e-09
 77.20838   -122.2 1.148e+04 4.355e-09
 77.21829   -121.8 1.150e+04 4.054e-09
 77.22643   -122.3 1.151e+04 3.852e-09
 77.24636   -122.8 1.148e+04 2.979e-09
 77.27925   -124.2 1.146e+04 2.754e-09
 77.31890   -125.3 1.146e+04 2.667e-09
 77.35856   -126.2 1.160e+04 3.039e-09
 77.38820   -126.0 1.175e+04 3.585e-09
 77.40793   -126.2 1.180e+04 3.851e-09
 77.42776   -126.6 1.185e+04 4.304e-09
 77.44759   -127.1 1.190e+04 4.549e-09
 77.46273   -127.7 1.191e+04 4.692e-09
 77.47265   -127.1 1.198e+04 4.871e-09
 77.48724   -127.6 1.200e+04 5.031e-09
 77.49747   -128.3 1.202e+04 5.127e-09
 77.50739   -129.1 1.221e+04 5.648e-09
 77.52690   -129.8 1.224e+04 5.523e-09
 77.54673   -130.5 1.228e+04 5.457e-09
 77.56655   -131.3 1.236e+04 5.452e-09
 77.58495   -131.9 1.250e+04 5.715e-09
 77.59487   -131.6 1.253e+04 6.002e-09
 77.60621   -132.2 1.268e+04 6.424e-09
 77.62604   -132.8 1.284e+04 6.947e-09
 77.64586   -133.6 1.299e+04 7.473e-09
 77.66569   -135.2 1.314e+04 8.265e-09
 77.68552   -136.1 1.323e+04 8.998e-09
 77.70535   -137.5 1.331e+04 1.045e-08
 77.71709   -139.0 1.371e+04 1.452e-08
 77.72700   -139.2 1.366e+04 1.360e-08
 77.74500   -140.7 1.423e+04 2.187e-08
 77.75860   -142.2 1.490e+04 3.419e-08
 77.76851   -141.8 1.442e+04 2.751e-08
 77.78466   -143.3 1.495e+04 3.722e-08
 77.80449   -145.1 1.526e+04 4.217e-08
 77.82431   -147.3 1.530e+04 4.279e-08
 77.83931   -149.2 1.504e+04 3.765e-08
 77.84922   -149.3 1.456e+04 2.876e-08
 77.86397   -150.9 1.414e+04 2.191e-08
 77.88380   -152.2 1.374e+04 1.691e-08
 77.90363   -153.2 1.342e+04 1.375e-08
 77.92345   -153.7 1.319e+04 1.160e-08
 77.94328   -154.1 1.301e+04 1.006e-08
 77.96153   -154.3 1.289e+04 9.279e-09
 77.97144   -154.0 1.276e+04 7.822e-09
 77.98294   -154.2 1.274e+04 7.699e-09
 78.00276   -154.2 1.272e+04 8.023e-09
 78.01973   -154.2 1.272e+04 8.893e-09
 78.02964   -152.9 1.277e+04 7.780e-09
 78.04242   -152.9 1.284e+04 8.905e-09
 78.06225   -152.7 1.289e+04 9.855e-09
 78.08207   -152.7 1.291e+04 1.010e-08
 78.09366   -152.7 1.282e+04 9.772e-09
 78.10358   -152.5 1.291e+04 1.044e-08
 78.12173   -152.5 1.272e+04 9.556e-09
 78.14156   -152.5 1.248e+04 8.070e-09
 78.16139   -152.4 1.225e+04 6.745e-09
 78.18121   -152.2 1.206e+04 5.809e-09
 78.20104   -151.7 1.189e+04 5.234e-09
 78.21588   -151.1 1.176e+04 4.919e-09
 78.22580   -150.9 1.186e+04 5.435e-09
 78.24070   -150.4 1.174e+04 5.180e-09
 78.26052   -149.8 1.163e+04 5.036e-09
 78.28035   -149.2 1.155e+04 4.965e-09
 78.29077   -148.6 1.148e+04 4.945e-09
 78.30068   -148.0 1.175e+04 5.983e-09
 78.32001   -147.6 1.168e+04 6.147e-09
 78.33810   -147.2 1.167e+04 6.412e-09
 78.34802   -147.2 1.167e+04 6.547e-09
 78.35966   -147.0 1.164e+04 6.701e-09
 78.37949   -146.8 1.159e+04 7.009e-09
 78.39932   -146.7 1.155e+04 7.401e-09
 78.41915   -146.6 1.152e+04 7.787e-09
 78.43897   -146.7 1.148e+04 8.032e-09
 78.45880   -146.9 1.145e+04 8.090e-09
 78.47024   -147.1 1.128e+04 7.961e-09
 78.48015   -147.1 1.121e+04 7.657e-09
 78.49846   -147.4 1.108e+04 7.197e-09
 78.51829   -147.7 1.093e+04 6.755e-09
 78.53811   -148.1 1.084e+04 6.389e-09
 78.55189   -148.7 1.076e+04 6.160e-09
 78.56181   -148.7 1.086e+04 6.519e-09
 78.57777   -149.6 1.084e+04 6.465e-09
 78.59246   -150.5 1.082e+04 6.518e-09
 78.60237   -150.7 1.071e+04 5.942e-09
 78.61742   -151.7 1.070e+04 6.045e-09
 78.63725   -152.8 1.068e+04 6.153e-09
 78.65708   -153.8 1.065e+04 6.155e-09
 78.67691   -154.8 1.051e+04 5.911e-09
 78.69673   -155.7 1.031e+04 5.330e-09
 78.71468   -156.6 1.011e+04 4.711e-09
 78.72459   -156.7 1.003e+04 4.270e-09
 78.73639   -157.5 9.890e+03 3.976e-09
 78.75622   -158.4 9.826e+03 3.871e-09
 78.77605   -159.3 9.819e+03 3.849e-09
 78.79587   -160.4 1.001e+04 3.990e-09
 78.81302   -162.1 1.082e+04 5.171e-09
 78.82293   -163.2 1.162e+04 7.391e-09
 78.83553   -165.8 1.310e+04 1.344e-08
 78.84681   -168.3 1.426e+04 2.514e-08
 78.85673   -165.0 1.198e+04 9.365e-09
 78.87518   -167.4 1.305e+04 1.568e-08
 78.89501   -169.3 1.351e+04 2.376e-08
 78.91484   -170.4 1.344e+04 3.011e-08
 78.93467   -170.8 1.335e+04 3.245e-08
 78.95450   -170.8 1.272e+04 2.974e-08
 78.96904   -170.7 1.223e+04 2.389e-08
 78.97895   -169.3 1.237e+04 2.522e-08
 78.99415   -169.1 1.203e+04 2.129e-08
 79.01398   -168.8 1.173e+04 1.898e-08
 79.03381   -168.5 1.138e+04 1.565e-08
 79.05363   -168.1 1.102e+04 1.250e-08
 79.07346   -167.7 1.068e+04 9.726e-09
 79.08406   -167.3 1.037e+04 7.542e-09
 79.09194   -166.8 1.020e+04 6.419e-09
 79.10117   -165.8 1.081e+04 1.064e-08
 79.11312   -165.5 1.058e+04 8.711e-09
 79.13294   -165.4 1.036e+04 7.114e-09
 79.15277   -165.4 1.022e+04 5.987e-09
 79.17260   -166.1 1.016e+04 5.467e-09
 79.19243   -167.2 1.016e+04 5.382e-09
 79.21357   -168.7 1.045e+04 6.479e-09
 79.23340   -167.8 1.056e+04 7.388e-09
 79.25191   -168.7 1.083e+04 8.825e-09
 79.27174   -169.6 1.120e+04 1.145e-08
 79.29157   -170.2 1.150e+04 1.377e-08
 79.31139   -170.8 1.173e+04 1.547e-08
 79.33122   -171.5 1.179e+04 1.584e-08
 79.34519   -172.3 1.177e+04 1.557e-08
 79.34966   -171.2 1.172e+04 1.474e-08
 79.35552   -171.0 1.189e+04 1.593e-08
 79.38089   -171.8 1.168e+04 1.392e-08
 79.42064   -172.4 1.141e+04 1.209e-08
 79.45811   -172.7 1.128e+04 1.077e-08
 79.47794   -172.7 1.152e+04 1.204e-08
 79.49995   -173.0 1.147e+04 1.141e-08
 79.53961   -174.0 1.145e+04 1.109e-08
 79.57926   -175.1 1.131e+04 1.014e-08
 79.61892   -175.6 1.097e+04 8.322e-09
 79.65858   -175.7 1.053e+04 6.195e-09
 79.69823   -175.4 1.011e+04 4.418e-09
 79.72238   -174.1 9.756e+03 3.238e-09
 79.74221   -173.6 9.782e+03 3.168e-09
 79.77754   -171.9 9.559e+03 2.408e-09
 79.81720   -170.1 9.466e+03 1.986e-09
 79.85685   -168.2 9.414e+03 1.745e-09
 79.87755   -166.2 9.376e+03 1.610e-09
 79.89738   -166.1 9.357e+03 1.636e-09
 79.93616   -164.0 9.364e+03 1.612e-09
 79.96682   -161.9 9.378e+03 1.614e-09
 79.98665   -161.2 9.406e+03 1.449e-09
 80.01547   -159.3 9.544e+03 1.591e-09
 80.05513   -157.5 9.688e+03 1.908e-09
 80.09479   -155.8 9.857e+03 2.365e-09
 80.13444   -154.4 1.004e+04 2.954e-09
 80.17410   -153.1 1.023e+04 3.664e-09
 80.21126   -151.8 1.041e+04 4.466e-09
 80.23109   -152.0 1.055e+04 4.970e-09
 80.25341   -150.8 1.065e+04 5.395e-09
 80.29306   -149.5 1.074e+04 5.715e-09
 80.33272   -148.1 1.086e+04 5.871e-09
 80.37237   -146.6 1.096e+04 5.886e-09
 80.39980   -145.0 1.103e+04 5.858e-09
 80.41963   -146.0 1.135e+04 6.840e-09
 80.45168   -144.4 1.139e+04 6.609e-09
 80.47544   -142.6 1.129e+04 6.242e-09
 80.48525   -142.5 1.119e+04 5.461e-09
 80.50106   -141.7 1.122e+04 5.443e-09
 80.52089   -140.9 1.135e+04 5.437e-09
 80.54071   -140.0 1.150e+04 5.621e-09
 80.56054   -139.3 1.166e+04 5.987e-09
 80.58037   -138.6 1.186e+04 6.547e-09
 80.59756   -138.1 1.204e+04 7.320e-09
 80.60747   -137.5 1.175e+04 5.680e-09
 80.62003   -137.1 1.198e+04 6.680e-09
 80.64986   -136.9 1.219e+04 8.498e-09
 80.68962   -135.5 1.241e+04 1.062e-08
 80.71997   -134.5 1.256e+04 1.190e-08
 80.73980   -132.7 1.209e+04 8.482e-09
 80.76893   -131.7 1.231e+04 1.006e-08
 80.80858   -130.8 1.241e+04 1.068e-08
 80.84824   -129.9 1.229e+04 9.387e-09
 80.88789   -128.9 1.206e+04 7.276e-09
 80.92206   -127.7 1.184e+04 5.074e-09
 80.94189   -128.6 1.171e+04 3.189e-09
 80.96442   -127.5 1.167e+04 2.338e-09
 80.98424   -126.1 1.171e+04 3.672e-09
 81.00686   -125.3 1.169e+04 2.661e-09
 81.04652   -124.7 1.170e+04 2.065e-09
 81.08617   -124.4 1.174e+04 1.842e-09
 81.12583   -124.2 1.176e+04 1.810e-09
 81.16548   -124.1 1.184e+04 1.945e-09
 81.20514   -124.3 1.201e+04 2.185e-09
 81.22869   -125.0 1.223e+04 2.311e-09
 81.24851   -124.4 1.225e+04 3.034e-09
 81.28445   -125.7 1.234e+04 3.111e-09
 81.32410   -127.0 1.247e+04 2.923e-09
 81.36376   -127.9 1.259e+04 2.538e-09
 81.40342   -128.4 1.267e+04 2.244e-09
 81.44307   -128.5 1.273e+04 2.005e-09
 81.46414   -128.3 1.271e+04 1.717e-09
 81.47437   -129.1 1.277e+04 1.924e-09
 81.49295   -128.9 1.282e+04 2.126e-09
 81.52238   -128.0 1.267e+04 1.746e-09
 81.56204   -126.8 1.251e+04 1.612e-09
 81.60169   -125.6 1.246e+04 1.591e-09
 81.64135   -124.4 1.240e+04 1.629e-09
 81.68100   -123.3 1.227e+04 1.803e-09
 81.71757   -122.2 1.218e+04 2.043e-09
 81.73740   -122.2 1.219e+04 2.520e-09
 81.76032   -121.2 1.213e+04 2.600e-09
 81.79997   -120.4 1.211e+04 2.582e-09
 81.83963   -119.4 1.195e+04 2.569e-09
 81.87928   -118.4 1.182e+04 2.552e-09
 81.91894   -117.2 1.178e+04 2.464e-09
 81.95859   -115.9 1.178e+04 2.425e-09
 81.98184   -114.7 1.184e+04 2.434e-09
 81.98981   -114.7 1.198e+04 2.468e-09
 82.00622   -117.1 1.243e+04 3.569e-09
 82.03790   -116.3 1.258e+04 4.440e-09
 82.07756   -115.7 1.276e+04 5.591e-09
 82.11721   -115.6 1.305e+04 6.968e-09
 82.14686   -115.0 1.332e+04 8.452e-09
 82.16659   -115.8 1.363e+04 1.031e-08
 82.18642   -116.3 1.400e+04 1.187e-08
 82.20624   -117.9 1.427e+04 1.567e-08
 82.22607   -120.0 1.416e+04 1.965e-08
 82.24590   -122.2 1.372e+04 1.829e-08
 82.25724   -124.1 1.354e+04 1.837e-08
 82.26715   -124.8 1.334e+04 1.737e-08
 82.28555   -126.2 1.282e+04 1.368e-08
 82.30538   -127.6 1.247e+04 1.019e-08
 82.32521   -129.0 1.223e+04 8.185e-09
 82.34504   -130.2 1.204e+04 7.163e-09
 82.35822   -131.2 1.187e+04 6.516e-09
 82.36813   -130.9 1.188e+04 6.219e-09
 82.38469   -131.8 1.173e+04 5.611e-09
 82.40452   -132.5 1.155e+04 5.190e-09
 82.42435   -133.0 1.141e+04 4.917e-09
 82.44418   -133.3 1.132e+04 4.808e-09
 82.46400   -133.4 1.130e+04 4.785e-09
 82.48044   -133.3 1.130e+04 4.782e-09
 82.49035   -133.3 1.133e+04 4.577e-09
 82.50366   -133.2 1.131e+04 4.706e-09
 82.51837   -132.9 1.128e+04 4.881e-09
 82.52828   -132.8 1.125e+04 4.426e-09
 82.54332   -132.3 1.126e+04 4.560e-09
 82.56314   -131.6 1.130e+04 4.739e-09
 82.58297   -130.6 1.138e+04 4.967e-09
 82.60266   -129.5 1.155e+04 5.316e-09
 82.61257   -130.4 1.162e+04 5.306e-09
 82.62263   -129.2 1.174e+04 5.801e-09
 82.64245   -128.2 1.193e+04 6.767e-09
 82.66228   -128.0 1.247e+04 8.940e-09
 82.68211   -128.2 1.380e+04 1.470e-08
 82.70194   -128.2 1.579e+04 2.936e-08
 82.72177   -128.4 1.767e+04 5.827e-08
 82.73474   -129.6 1.828e+04 7.541e-08
 82.74466   -132.5 1.848e+04 7.320e-08
 82.75641   -133.4 1.904e+04 1.162e-07
 82.76628   -135.4 1.918e+04 1.521e-07
 82.77619   -137.6 1.929e+04 2.015e-07
 82.78435   -140.4 1.949e+04 2.770e-07
 82.78931   -140.1 1.897e+04 2.459e-07
 82.79581   -143.3 1.932e+04 3.214e-07
 82.80076   -144.7 1.958e+04 3.484e-07
 82.80594   -148.8 1.979e+04 3.990e-07
 82.81585   -153.3 1.981e+04 4.073e-07
 82.82576   -157.6 1.954e+04 3.552e-07
 82.83568   -161.8 1.909e+04 2.299e-07
 82.84559   -166.0 1.830e+04 1.294e-07
 82.85550   -170.2 1.715e+04 6.988e-08
 82.86187   -174.0 1.588e+04 3.855e-08
 82.86683   -173.9 1.559e+04 3.686e-08
 82.88034   -177.2 1.435e+04 2.083e-08
 82.90021   -180.4 1.331e+04 1.249e-08
 82.92004   -183.6 1.207e+04 6.672e-09
 82.93987   -184.5 1.172e+04 5.227e-09
 82.95970   -184.6 1.159e+04 4.839e-09
 82.97923   -184.5 1.156e+04 4.746e-09
 82.98915   -183.2 1.151e+04 4.234e-09
 82.99935   -183.1 1.151e+04 4.216e-09
 83.01918   -182.9 1.150e+04 4.507e-09
 83.03901   -182.5 1.153e+04 5.406e-09
 83.05053   -182.0 1.160e+04 6.534e-09
 83.06045   -181.3 1.128e+04 5.429e-09
 83.07866   -180.9 1.132e+04 6.185e-09
 83.09849   -180.7 1.135e+04 6.773e-09
 83.11137   -180.5 1.143e+04 7.459e-09
 83.12128   -179.5 1.128e+04 6.465e-09
 83.13815   -179.4 1.140e+04 7.394e-09
 83.15798   -179.7 1.173e+04 9.342e-09
 83.17780   -180.2 1.227e+04 1.311e-08
 83.19763   -180.8 1.293e+04 1.924e-08
 83.21746   -181.4 1.354e+04 2.703e-08
 83.23359   -182.2 1.397e+04 3.399e-08
 83.24350   -180.4 1.339e+04 2.446e-08
 83.25711   -181.3 1.370e+04 2.863e-08
 83.27694   -182.3 1.381e+04 3.026e-08
 83.29677   -183.3 1.382e+04 3.060e-08
 83.31166   -184.4 1.376e+04 3.066e-08
 83.32157   -183.3 1.357e+04 2.617e-08
 83.33642   -184.5 1.365e+04 2.763e-08
 83.35581   -185.8 1.379e+04 3.030e-08
 83.36572   -184.4 1.396e+04 2.987e-08
 83.37608   -185.8 1.427e+04 3.625e-08
 83.39591   -187.1 1.457e+04 4.230e-08
 83.41574   -188.6 1.476e+04 4.577e-08
 83.43556   -190.1 1.480e+04 4.644e-08
 83.45539   -191.5 1.475e+04 4.588e-08
 83.47522   -192.8 1.467e+04 4.425e-08
 83.48794   -193.8 1.465e+04 4.364e-08
 83.49786   -192.8 1.440e+04 3.663e-08
 83.51487   -193.5 1.439e+04 3.571e-08
 83.53470   -194.0 1.460e+04 3.730e-08
 83.55453   -194.3 1.510e+04 4.719e-08
 83.57279   -194.2 1.558e+04 6.090e-08
 83.58270   -194.2 1.538e+04 5.379e-08
 83.59419   -193.9 1.568e+04 6.468e-08
 83.61017   -193.6 1.580e+04 6.894e-08
 83.62008   -192.8 1.571e+04 6.592e-08
 83.63384   -192.4 1.610e+04 7.854e-08
 83.65367   -192.2 1.636e+04 8.611e-08
 83.67350   -192.1 1.662e+04 9.241e-08
 83.69332   -192.2 1.694e+04 9.854e-08
 83.71315   -193.1 1.743e+04 1.100e-07
 83.73239   -194.6 1.795e+04 1.291e-07
 83.74225   -195.2 1.843e+04 1.673e-07
 83.74775   -196.0 1.847e+04 1.631e-07
 83.75767   -197.0 1.824e+04 1.557e-07
 83.76758   -198.0 1.797e+04 1.440e-07
 83.77749   -199.2 1.764e+04 1.272e-07
 83.78741   -200.2 1.722e+04 1.069e-07
 83.79732   -201.1 1.672e+04 8.561e-08
 83.80331   -201.9 1.617e+04 6.672e-08
 83.80827   -202.1 1.599e+04 5.743e-08
 83.81715   -202.6 1.539e+04 4.280e-08
 83.82706   -203.0 1.487e+04 3.254e-08
 83.83698   -203.3 1.454e+04 2.672e-08
 83.84378   -203.6 1.430e+04 2.257e-08
 83.84874   -203.6 1.459e+04 2.507e-08
 83.85681   -203.6 1.450e+04 2.408e-08
 83.86447   -203.6 1.430e+04 2.278e-08
 83.87443   -203.6 1.382e+04 1.650e-08
 83.89160   -203.6 1.349e+04 1.246e-08
 83.91143   -203.4 1.338e+04 1.131e-08
 83.93126   -202.7 1.336e+04 1.112e-08
 83.95108   -202.1 1.341e+04 1.126e-08
 83.97091   -201.7 1.339e+04 1.165e-08
 83.98674   -201.3 1.336e+04 1.172e-08
 83.99666   -201.7 1.313e+04 1.088e-08
 84.01057   -201.2 1.289e+04 1.059e-08
 84.03040   -200.5 1.265e+04 9.262e-09
 84.05022   -199.8 1.242e+04 7.684e-09
 84.07005   -199.0 1.222e+04 6.291e-09
 84.08988   -198.2 1.207e+04 5.242e-09
 84.10495   -197.3 1.197e+04 4.531e-09
 84.11412   -197.5 1.205e+04 5.182e-09
 84.11888   -197.6 1.201e+04 4.615e-09
 84.12953   -196.7 1.194e+04 4.127e-09
 84.14936   -195.7 1.187e+04 3.790e-09
 84.16919   -194.6 1.181e+04 3.497e-09
 84.18902   -193.3 1.174e+04 3.189e-09
 84.20885   -191.9 1.170e+04 2.874e-09
 84.22867   -190.4 1.170e+04 2.618e-09
 84.24110   -189.1 1.175e+04 2.476e-09
 84.26102   -189.1 1.191e+04 2.639e-09
 84.29827   -187.4 1.195e+04 2.422e-09
 84.33792   -185.3 1.193e+04 2.193e-09
 84.37758   -183.1 1.192e+04 2.091e-09
 84.41723   -180.9 1.194e+04 2.079e-09
 84.45689   -179.0 1.210e+04 2.194e-09
 84.48573   -177.5 1.222e+04 2.475e-09
 84.50556   -177.9 1.210e+04 2.266e-09
 84.53620   -176.5 1.220e+04 2.413e-09
 84.57585   -175.3 1.225e+04 2.522e-09
 84.60550   -174.4 1.227e+04 2.787e-09
 84.61767   -173.7 1.227e+04 2.927e-09
 84.62759   -173.9 1.217e+04 2.643e-09
 84.63712   -173.1 1.219e+04 2.775e-09
 84.64704   -173.4 1.228e+04 3.173e-09
 84.66488   -172.7 1.229e+04 3.319e-09
 84.68471   -172.0 1.228e+04 3.407e-09
 84.70454   -171.3 1.227e+04 3.421e-09
 84.72437   -170.5 1.222e+04 3.338e-09
 84.73989   -169.7 1.217e+04 3.126e-09
 84.74990   -170.2 1.212e+04 2.641e-09
 84.77413   -169.2 1.208e+04 2.304e-09
 84.81379   -168.0 1.189e+04 1.841e-09
 84.85344   -166.6 1.162e+04 1.381e-09
 84.89310   -165.0 1.138e+04 1.047e-09
 84.93275   -163.4 1.125e+04 8.695e-10
 84.97241   -161.8 1.124e+04 8.092e-10
 84.99444   -160.2 1.126e+04 8.038e-10
 85.01427   -159.7 1.119e+04 6.230e-10
 85.05172   -158.2 1.129e+04 6.756e-10
 85.09137   -156.8 1.141e+04 7.929e-10
 85.13103   -155.4 1.149e+04 9.818e-10
 85.15957   -153.9 1.159e+04 1.296e-09
 85.17940   -155.6 1.184e+04 2.670e-09
 85.21034   -154.3 1.192e+04 3.196e-09
 85.23888   -153.1 1.195e+04 3.441e-09
 85.25871   -151.9 1.186e+04 2.831e-09
 85.28965   -150.8 1.201e+04 2.992e-09
 85.32931   -149.9 1.209e+04 2.950e-09
 85.36896   -149.2 1.227e+04 2.355e-09
 85.40862   -148.7 1.238e+04 1.908e-09
 85.44827   -148.4 1.236e+04 1.679e-09
 85.48333   -148.2 1.227e+04 1.613e-09
 85.50315   -147.7 1.224e+04 2.326e-09
 85.52758   -147.4 1.214e+04 2.008e-09
 85.56724   -146.9 1.207e+04 1.688e-09
 85.60690   -146.3 1.199e+04 1.433e-09
 85.64655   -145.7 1.194e+04 1.298e-09
 85.68182   -145.1 1.196e+04 1.258e-09
 85.70165   -146.0 1.177e+04 1.204e-09
 85.72586   -145.4 1.197e+04 1.338e-09
 85.74760   -144.8 1.202e+04 1.811e-09
 85.76742   -145.0 1.201e+04 2.763e-09
 85.80517   -144.0 1.200e+04 3.479e-09
 85.84483   -142.9 1.203e+04 3.876e-09
 85.88448   -141.9 1.204e+04 3.942e-09
 85.92414   -140.8 1.200e+04 3.721e-09
 85.96380   -139.5 1.195e+04 3.025e-09
 85.99204   -138.0 1.192e+04 2.352e-09
 86.01186   -138.0 1.200e+04 2.243e-09
 86.04311   -136.2 1.199e+04 1.681e-09
 86.08276   -134.4 1.189e+04 1.434e-09
 86.12242   -132.5 1.184e+04 1.386e-09
 86.16207   -130.6 1.184e+04 1.387e-09
 86.20173   -128.9 1.166e+04 1.653e-09
 86.22391   -127.4 1.140e+04 2.518e-09
 86.23883   -127.7 1.144e+04 2.748e-09
 86.25631   -127.5 1.145e+04 3.438e-09
 86.28104   -125.4 1.134e+04 4.238e-09
 86.32069   -123.4 1.131e+04 5.253e-09
 86.36035   -121.8 1.136e+04 6.682e-09
 86.40001   -120.4 1.157e+04 8.935e-09
 86.42965   -119.0 1.150e+04 1.001e-08
 86.44938   -118.4 1.169e+04 1.186e-08
 86.46921   -117.9 1.187e+04 1.409e-08
 86.48484   -117.6 1.208e+04 1.662e-08
 86.49475   -117.6 1.230e+04 1.889e-08
 86.50055   -117.3 1.233e+04 2.213e-08
 86.51047   -116.6 1.210e+04 1.808e-08
 86.52869   -116.2 1.209e+04 1.892e-08
 86.54852   -115.7 1.203e+04 1.923e-08
 86.56835   -114.8 1.153e+04 1.833e-08
 86.58817   -113.8 1.097e+04 1.545e-08
 86.60800   -112.7 1.048e+04 1.229e-08
 86.62277   -111.7 1.014e+04 9.716e-09
 86.63269   -111.3 1.061e+04 1.180e-08
 86.64766   -110.3 1.024e+04 9.931e-09
 86.66748   -109.4 9.943e+03 8.502e-09
 86.68731   -108.5 9.715e+03 7.410e-09
 86.70714   -107.5 9.552e+03 6.576e-09
 86.72697   -106.7 9.405e+03 5.899e-09
 86.74499   -105.8 9.273e+03 5.379e-09
 86.75408   -105.4 9.597e+03 6.969e-09
 86.76589   -105.7 9.762e+03 6.505e-09
 86.79656   -103.4 9.296e+03 5.231e-09
 86.82620   -102.2 8.969e+03 4.742e-09
 86.84593   -101.2 8.892e+03 4.656e-09
 86.86576   -100.1 8.822e+03 4.579e-09
 86.87713    -98.8 8.777e+03 4.426e-09
 86.88704    -98.6 8.959e+03 4.574e-09
 86.91543    -97.6 8.762e+03 4.201e-09
 86.95518    -95.9 8.596e+03 3.895e-09
 86.98963    -93.9 8.388e+03 3.526e-09
 87.00946    -93.4 8.182e+03 2.709e-09
 87.03449    -91.4 7.993e+03 2.522e-09
 87.07415    -89.4 7.947e+03 2.493e-09
 87.11380    -87.6 7.936e+03 2.575e-09
 87.15346    -86.2 8.013e+03 2.817e-09
 87.19311    -85.0 8.083e+03 3.022e-09
 87.23277    -83.8 8.098e+03 3.094e-09
 87.25390    -82.6 8.090e+03 3.096e-09
 87.26971    -82.7 8.485e+03 4.237e-09
 87.28824    -83.4 8.643e+03 4.332e-09
 87.31208    -82.1 8.640e+03 4.364e-09
 87.35174    -80.7 8.574e+03 4.326e-09
 87.39139    -79.1 8.471e+03 4.034e-09
 87.43105    -77.4 8.355e+03 3.567e-09
 87.47070    -75.6 8.225e+03 3.010e-09
 87.49834    -73.9 8.130e+03 2.463e-09
 87.51817    -74.0 8.361e+03 2.913e-09
 87.55001    -72.3 8.320e+03 2.593e-09
 87.58967    -70.6 8.332e+03 2.332e-09
 87.62932    -68.9 8.350e+03 2.166e-09
 87.66898    -67.1 8.381e+03 2.050e-09
 87.70864    -65.2 8.432e+03 1.911e-09
 87.74278    -63.2 8.460e+03 1.757e-09
 87.76261    -63.1 8.564e+03 1.684e-09
 87.78795    -61.1 8.568e+03 1.536e-09
 87.81049    -58.9 8.579e+03 1.416e-09
 87.83032    -58.7 8.571e+03 9.746e-10
 87.86726    -56.5 8.610e+03 9.449e-10
 87.90691    -54.2 8.646e+03 9.146e-10
 87.94657    -51.9 8.699e+03 8.792e-10
 87.98622    -49.6 8.788e+03 8.376e-10
 88.00705    -47.2 8.927e+03 7.801e-10
 88.02688    -47.1 8.971e+03 6.713e-10
 88.06554    -44.5 9.134e+03 5.576e-10
 88.10519    -42.1 9.266e+03 4.717e-10
 88.14485    -39.8 9.336e+03 4.377e-10
 88.18450    -38.0 9.448e+03 4.415e-10
 88.22416    -36.8 9.446e+03 7.136e-10
 88.25149    -35.0 9.270e+03 1.504e-09
 88.27132    -34.7 9.238e+03 1.713e-09
 88.30347    -31.9 9.426e+03 2.852e-09
 88.33275    -29.6 9.559e+03 3.246e-09
 88.35258    -29.3 9.412e+03 2.661e-09
 88.38278    -27.2 9.355e+03 2.474e-09
 88.42243    -25.0 9.269e+03 1.634e-09
 88.46209    -23.5 9.285e+03 1.025e-09
 88.49593    -22.0 9.338e+03 8.503e-10
 88.51576    -22.3 9.421e+03 1.359e-09
 88.54140    -20.4 9.474e+03 1.353e-09
 88.58106    -18.5 9.643e+03 1.403e-09
 88.62071    -16.9 9.793e+03 1.544e-09
 88.66037    -15.4 9.737e+03 2.008e-09
 88.70002    -13.3 9.809e+03 2.788e-09
 88.73968    -11.1 1.001e+04 3.524e-09
 88.76020     -9.2 1.013e+04 3.815e-09
 88.78003    -10.5 1.048e+04 6.191e-09
 88.81899     -8.5 1.025e+04 6.359e-09
 88.85500     -6.2 1.017e+04 5.949e-09
 88.87483     -5.1 1.003e+04 7.042e-09
 88.89830     -3.3 9.995e+03 5.076e-09
 88.93796     -1.4 9.778e+03 3.889e-09
 88.97761      0.6 9.647e+03 3.245e-09
 89.00464      2.7 9.523e+03 2.937e-09
 89.02447      1.3 9.623e+03 3.038e-09
 89.05692      3.5 9.628e+03 2.785e-09
 89.09658      5.6 9.694e+03 2.565e-09
 89.13623      7.6 9.859e+03 2.428e-09
 89.17589      9.5 9.944e+03 2.543e-09
 89.21554     11.2 1.018e+04 2.931e-09
 89.24908     12.8 1.064e+04 4.187e-09
 89.26891     10.2 1.144e+04 1.011e-08
 89.28484     11.7 1.126e+04 1.040e-08
 89.30457     12.1 1.155e+04 1.287e-08
 89.32440     12.7 1.206e+04 1.651e-08
 89.34423     13.3 1.275e+04 2.102e-08
 89.36406     13.2 1.378e+04 2.585e-08
 89.38102     12.1 1.486e+04 3.297e-08
 89.39094      8.2 1.506e+04 2.862e-08
 89.39689      6.3 1.473e+04 3.506e-08
 89.40680      8.8 1.527e+04 3.184e-08
 89.42354      7.0 1.478e+04 3.509e-08
 89.44337      6.2 1.402e+04 3.517e-08
 89.46320      6.0 1.352e+04 2.864e-08
 89.48302      5.2 1.311e+04 1.956e-08
 89.50285      3.8 1.248e+04 1.335e-08
 89.51316      2.7 1.175e+04 1.028e-08
 89.52307      1.8 1.104e+04 6.075e-09
 89.54251      2.0 1.085e+04 5.756e-09
 89.56233      2.6 1.076e+04 5.369e-09
 89.58216      3.3 1.071e+04 4.877e-09
 89.60199      4.2 1.061e+04 3.990e-09
 89.62182      4.7 1.059e+04 3.197e-09
 89.63538      5.0 1.070e+04 2.491e-09
 89.64529      4.8 1.059e+04 2.629e-09
 89.65802      4.8 1.062e+04 2.440e-09
 89.66793      5.5 1.068e+04 3.310e-09
 89.68130      5.7 1.064e+04 3.041e-09
 89.70113      5.9 1.070e+04 3.079e-09
 89.72096      5.9 1.082e+04 3.368e-09
 89.74078      6.3 1.085e+04 3.825e-09
 89.75760      6.4 1.108e+04 4.750e-09
 89.76751      5.9 1.118e+04 5.190e-09
 89.78044      6.2 1.126e+04 6.243e-09
 89.80027      6.6 1.135e+04 7.049e-09
 89.82009      6.8 1.144e+04 7.195e-09
 89.83992      7.2 1.139e+04 6.714e-09
 89.85975      7.2 1.143e+04 6.109e-09
 89.87958      7.0 1.141e+04 5.520e-09
 89.88973      6.4 1.169e+04 5.243e-09
 89.89965      4.6 1.197e+04 6.105e-09
 89.91914      3.9 1.206e+04 7.387e-09
 89.93897      3.0 1.226e+04 9.603e-09
 89.95889      2.3 1.253e+04 1.080e-08
 89.97872      1.4 1.274e+04 1.195e-08
 89.99854      0.1 1.284e+04 1.359e-08
 90.01195     -0.6 1.283e+04 1.617e-08
 90.02187     -1.6 1.254e+04 1.360e-08
 90.03820     -1.8 1.251e+04 1.185e-08
 90.05803     -2.1 1.249e+04 9.699e-09
 90.07785     -2.6 1.256e+04 8.141e-09
 90.09768     -3.6 1.259e+04 7.932e-09
 90.11751     -4.8 1.277e+04 9.298e-09
 90.13417     -6.2 1.310e+04 1.375e-08
 90.14409     -8.0 1.314e+04 1.690e-08
 90.15717     -8.7 1.354e+04 2.737e-08
 90.17699     -8.7 1.382e+04 3.720e-08
 90.19018     -8.5 1.379e+04 4.021e-08
 90.20010     -8.8 1.326e+04 2.599e-08
 90.21665     -8.6 1.288e+04 2.016e-08
 90.23648     -9.1 1.272e+04 1.333e-08
 90.25630     -9.5 1.215e+04 1.019e-08
 90.27613    -11.2 1.170e+04 5.612e-09
 90.29596    -11.1 1.162e+04 5.496e-09
 90.31579    -10.5 1.152e+04 5.068e-09
 90.33562    -10.1 1.138e+04 4.899e-09
 90.35544     -9.5 1.146e+04 4.301e-09
 90.37527     -9.2 1.138e+04 4.124e-09
 90.40511     -8.8 1.126e+04 3.252e-09
 90.44159     -7.5 1.107e+04 2.816e-09
 90.46142     -6.0 1.100e+04 2.962e-09
 90.48452     -4.3 1.105e+04 2.149e-09
 90.51095     -3.1 1.117e+04 1.648e-09
 90.53077     -5.2 1.131e+04 2.086e-09
 90.56383     -4.2 1.147e+04 2.766e-09
 90.60349     -3.1 1.173e+04 4.691e-09
 90.63307     -2.3 1.211e+04 7.408e-09
 90.65280     -3.1 1.235e+04 8.870e-09
 90.67269     -3.3 1.267e+04 1.234e-08
 90.69251     -2.9 1.288e+04 1.558e-08
 90.71234     -3.0 1.325e+04 1.770e-08
 90.73217     -2.3 1.368e+04 1.961e-08
 90.75200     -3.7 1.406e+04 2.538e-08
 90.76511     -4.9 1.416e+04 3.085e-08
 90.77502     -6.2 1.375e+04 2.458e-08
 90.79165     -7.2 1.393e+04 2.993e-08
 90.81148     -8.2 1.414e+04 2.942e-08
 90.83131     -9.3 1.371e+04 2.427e-08
 90.85114     -9.5 1.320e+04 1.473e-08
 90.87096    -10.4 1.285e+04 9.034e-09
 90.88733    -12.0 1.254e+04 5.631e-09
 90.89724    -12.2 1.264e+04 4.495e-09
 90.91062    -12.7 1.174e+04 4.867e-09
 90.93045    -12.0 1.161e+04 4.349e-09
 90.95028    -12.2 1.190e+04 3.571e-09
 90.97010    -12.5 1.149e+04 3.907e-09
 90.98348    -12.5 1.156e+04 3.768e-09
 90.99339    -12.5 1.155e+04 3.808e-09
 91.00955    -12.6 1.141e+04 4.119e-09
 91.01946    -12.5 1.138e+04 3.442e-09
 91.02959    -12.5 1.141e+04 3.375e-09
 91.04941    -12.8 1.139e+04 3.450e-09
 91.06924    -13.0 1.122e+04 3.531e-09
 91.08907    -13.1 1.117e+04 3.333e-09
 91.10890    -13.4 1.115e+04 3.063e-09
 91.12872    -13.7 1.107e+04 2.911e-09
 91.14168    -13.8 1.084e+04 2.914e-09
 91.15160    -13.4 1.093e+04 2.770e-09
 91.16838    -13.3 1.088e+04 2.783e-09
 91.19822    -13.1 1.076e+04 2.881e-09
 91.23797    -12.6 1.075e+04 2.622e-09
 91.26400    -12.3 1.068e+04 2.800e-09
 91.28383    -11.5 1.085e+04 2.454e-09
 91.30727    -12.6 1.092e+04 4.443e-09
 91.32700    -12.9 1.132e+04 5.684e-09
 91.34683    -12.6 1.116e+04 7.775e-09
 91.36666    -12.3 1.113e+04 8.222e-09
 91.39650    -12.2 1.142e+04 6.789e-09
 91.43625    -14.1 1.141e+04 5.910e-09
 91.46589    -15.7 1.148e+04 5.642e-09
 91.48562    -16.7 1.150e+04 5.713e-09
 91.50545    -18.4 1.142e+04 6.017e-09
 91.51564    -19.4 1.147e+04 6.466e-09
 91.51854    -19.7 1.127e+04 6.129e-09
 91.52817    -19.4 1.152e+04 6.709e-09
 91.54511    -20.3 1.135e+04 8.515e-09
 91.56494    -20.5 1.143e+04 8.603e-09
 91.58476    -21.5 1.127e+04 7.661e-09
 91.60459    -21.6 1.121e+04 7.400e-09
 91.63443    -22.5 1.094e+04 5.383e-09
 91.67418    -22.7 1.064e+04 4.263e-09
 91.71384    -22.4 1.050e+04 3.804e-09
 91.75298    -22.1 1.059e+04 4.338e-09
 91.77281    -21.9 1.064e+04 4.136e-09
 91.79315    -21.8 1.088e+04 6.172e-09
 91.83280    -20.9 1.127e+04 1.074e-08
 91.87246    -19.7 1.152e+04 1.301e-08
 91.91212    -18.5 1.120e+04 1.044e-08
 91.95177    -17.1 1.059e+04 5.917e-09
 91.99143    -16.4 1.013e+04 3.677e-09
 92.01725    -14.9 1.009e+04 3.345e-09
 92.03417    -14.4 1.012e+04 2.980e-09
 92.04801    -14.0 1.032e+04 4.043e-09
 92.07074    -13.6 1.062e+04 5.551e-09
 92.11039    -12.4 1.093e+04 8.713e-09
 92.15005    -10.9 1.121e+04 1.005e-08
 92.18970     -9.7 1.120e+04 8.329e-09
 92.22936     -9.0 1.112e+04 6.685e-09
 92.26169     -8.2 1.097e+04 6.336e-09
 92.28152     -7.9 1.099e+04 5.968e-09
 92.30867     -6.7 1.096e+04 5.191e-09
 92.34833     -5.4 1.092e+04 4.188e-09
 92.38798     -4.1 1.089e+04 3.258e-09
 92.42764     -2.9 1.088e+04 2.522e-09
 92.46729     -1.8 1.096e+04 2.571e-09
 92.50613     -1.3 1.127e+04 3.473e-09
 92.52596     -0.7 1.125e+04 2.501e-09
 92.54660     -0.1 1.151e+04 4.839e-09
 92.57026      0.7 1.198e+04 6.745e-09
 92.59009     -0.5 1.217e+04 7.121e-09
 92.62591      0.2 1.207e+04 5.320e-09
 92.64808      0.6 1.205e+04 4.062e-09
 92.65790      1.1 1.198e+04 3.883e-09
 92.67529      0.8 1.197e+04 3.178e-09
 92.69512      0.4 1.167e+04 2.906e-09
 92.71494      0.4 1.154e+04 2.911e-09
 92.73477      0.7 1.132e+04 2.951e-09
 92.75460      0.8 1.130e+04 2.969e-09
 92.77030      1.0 1.110e+04 2.978e-09
 92.79023      1.8 1.108e+04 2.984e-09
 92.82419      2.2 1.098e+04 2.897e-09
 92.86385      2.1 1.094e+04 2.884e-09
 92.90350      2.1 1.083e+04 3.036e-09
 92.94316      2.3 1.072e+04 2.883e-09
 92.98281      2.8 1.048e+04 2.293e-09
 93.01484      3.5 1.038e+04 1.460e-09
 93.03467      3.5 1.039e+04 1.351e-09
 93.06212      3.1 1.032e+04 9.256e-10
 93.09252      3.3 1.015e+04 9.405e-10
 93.11234      2.7 1.007e+04 8.896e-10
 93.14144      3.6 9.937e+03 1.100e-09
 93.18109      4.6 9.855e+03 1.296e-09
 93.22075      5.3 9.879e+03 1.468e-09
 93.25928      5.8 9.945e+03 1.774e-09
 93.27911      5.9 9.834e+03 1.391e-09
 93.30006      6.5 9.860e+03 1.888e-09
 93.33971      7.4 9.874e+03 2.284e-09
 93.37937      8.3 9.859e+03 2.266e-09
 93.41902      9.6 9.714e+03 1.920e-09
 93.45868     11.1 9.651e+03 1.335e-09
 93.49833     12.2 9.646e+03 1.012e-09
 93.52355     13.4 9.653e+03 1.048e-09
 93.54338     14.0 9.582e+03 9.753e-10
 93.57765     14.8 9.666e+03 1.488e-09
 93.61477     16.0 9.883e+03 2.661e-09
 93.63460     16.2 9.773e+03 2.046e-09
 93.65696     17.5 9.888e+03 3.250e-09
 93.69661     18.4 9.847e+03 3.263e-09
 93.73627     19.7 9.648e+03 2.769e-09
 93.76799     21.4 9.329e+03 1.754e-09
 93.78782     22.1 9.255e+03 1.660e-09
 93.81558     23.4 9.167e+03 9.245e-10
 93.85523     24.7 9.024e+03 6.688e-10
 93.89489     26.6 8.912e+03 6.555e-10
 93.93454     28.8 8.911e+03 6.602e-10
 93.97420     31.1 8.918e+03 6.695e-10
 94.01244     33.4 8.938e+03 6.716e-10
 94.03226     34.1 8.844e+03 7.148e-10
 94.05351     36.4 8.869e+03 7.147e-10
 94.09317     38.6 8.874e+03 7.211e-10
 94.13282     40.7 8.849e+03 7.485e-10
 94.15685     42.7 8.765e+03 8.308e-10
 94.17668     42.8 8.955e+03 1.232e-09
 94.21213     44.7 8.873e+03 1.368e-09
 94.25179     46.6 8.812e+03 1.554e-09
 94.27670     48.3 8.779e+03 1.796e-09
 94.29653     48.6 8.753e+03 1.830e-09
 94.33110     50.3 8.717e+03 2.065e-09
 94.37076     51.8 8.718e+03 2.404e-09
 94.41041     53.1 8.775e+03 2.939e-09
 94.45007     54.2 8.920e+03 3.854e-09
 94.48972     55.2 9.053e+03 4.821e-09
 94.52115     55.9 9.100e+03 5.397e-09
 94.54097     55.9 9.013e+03 5.079e-09
 94.56903     56.6 8.976e+03 5.069e-09
 94.60869     57.8 8.691e+03 4.390e-09
 94.64834     59.3 8.219e+03 3.120e-09
 94.67910     61.1 7.753e+03 2.015e-09
 94.69893     60.5 8.221e+03 3.016e-09
 94.72765     62.5 7.765e+03 1.946e-09
 94.76559     64.6 7.444e+03 1.363e-09
 94.78541     64.8 7.583e+03 1.605e-09
 94.80697     67.1 7.406e+03 1.337e-09
 94.84662     69.6 7.207e+03 1.236e-09
 94.88628     72.4 7.059e+03 1.239e-09
 94.92593     75.2 7.052e+03 1.246e-09
 94.96559     78.2 7.038e+03 1.284e-09
 95.00524     81.1 7.052e+03 1.385e-09
 95.02986     84.2 7.108e+03 1.546e-09
 95.04968     84.1 7.355e+03 1.858e-09
 95.08455     87.3 7.476e+03 2.099e-09
 95.12421     90.8 7.624e+03 2.356e-09
 95.16386     94.5 7.816e+03 2.624e-09
 95.20136     97.6 7.928e+03 2.807e-09
 95.22109     97.5 8.328e+03 3.915e-09
 95.23307     99.4 8.387e+03 4.209e-09
 95.25289    101.3 8.418e+03 4.412e-09
 95.27272    103.4 8.435e+03 4.508e-09
 95.28402    105.6 8.518e+03 4.632e-09
 95.29393    105.7 8.625e+03 4.154e-09
 95.31238    107.1 9.307e+03 4.540e-09
 95.33220    107.3 1.212e+04 5.889e-09
 95.35203    107.2 1.694e+04 1.019e-08
 95.37186    107.1 1.961e+04 1.781e-08
 95.38668    105.0 1.959e+04 4.216e-08
 95.39655    104.7 1.812e+04 8.268e-08
 95.40614    105.4 1.703e+04 1.323e-07
 95.41110    105.7 1.655e+04 1.594e-07
 95.41638    107.3 1.633e+04 2.030e-07
 95.42629    109.1 1.634e+04 2.402e-07
 95.43620    110.7 1.649e+04 2.706e-07
 95.44612    112.1 1.676e+04 2.843e-07
 95.45603    113.4 1.713e+04 2.819e-07
 95.46594    114.3 1.734e+04 2.732e-07
 95.47221    114.5 1.817e+04 2.325e-07
 95.47716    114.3 1.890e+04 1.929e-07
 95.48202    113.5 2.188e+04 1.248e-07
 95.48698    106.5 2.361e+04 2.994e-08
 95.49569    101.5 2.115e+04 2.425e-08
 95.51061     92.3 1.735e+04 2.806e-08
 95.52548     88.5 1.674e+04 3.581e-08
 95.53332     82.9 1.842e+04 8.871e-08
 95.53827     82.3 1.890e+04 9.510e-08
 95.54526     76.8 1.930e+04 6.644e-07
 95.55517     72.4 1.845e+04 2.408e-06
 95.56508     68.0 1.823e+04 2.964e-06
 95.57500     64.8 1.830e+04 2.301e-06
 95.58491     63.8 1.854e+04 9.942e-07
 95.59443     62.9 1.913e+04 2.440e-07
 95.59938     62.7 1.912e+04 2.365e-07
 95.60974     55.9 1.935e+04 3.305e-08
 95.62962     43.6 1.265e+04 1.790e-08
 95.64945     38.7 1.181e+04 1.737e-08
 95.66059     37.8 1.196e+04 1.948e-08
 95.67051     38.4 1.182e+04 1.866e-08
 95.68910     38.3 1.224e+04 2.214e-08
 95.70893     38.3 1.241e+04 2.303e-08
 95.72876     38.5 1.234e+04 2.217e-08
 95.74324     38.8 1.201e+04 1.932e-08
 95.75316     40.4 1.199e+04 1.958e-08
 95.76842     40.6 1.164e+04 1.662e-08
 95.78281     41.1 1.111e+04 1.264e-08
 95.79273     41.4 1.140e+04 1.397e-08
 95.80807     41.5 1.115e+04 1.214e-08
 95.83791     42.5 1.086e+04 1.036e-08
 95.87766     42.8 1.036e+04 7.999e-09
 95.91732     43.5 9.986e+03 6.612e-09
 95.95697     44.7 9.695e+03 5.695e-09
 95.99663     46.3 9.480e+03 5.055e-09
 96.02745     48.3 9.307e+03 4.241e-09
 96.04728     48.7 9.412e+03 4.044e-09
 96.07594     51.1 9.158e+03 2.729e-09
 96.11560     53.5 9.034e+03 1.847e-09
 96.15525     56.2 8.967e+03 1.495e-09
 96.19491     59.2 8.934e+03 1.477e-09
 96.23456     62.4 8.949e+03 1.495e-09
 96.26569     65.5 9.084e+03 1.634e-09
 96.28319     66.3 8.973e+03 1.337e-09
 96.29172     66.7 8.975e+03 1.327e-09
 96.31387     69.8 9.365e+03 1.665e-09
 96.35353     72.2 9.703e+03 2.281e-09
 96.39318     74.5 1.022e+04 3.692e-09
 96.43284     76.4 1.079e+04 5.820e-09
 96.47250     77.7 1.158e+04 8.090e-09
 96.50214     77.6 1.178e+04 7.534e-09
 96.52187     77.4 1.197e+04 6.835e-09
 96.53596     77.3 1.206e+04 6.118e-09
 96.54072     76.1 1.239e+04 9.448e-09
 96.54645     76.4 1.272e+04 1.453e-08
 96.56152     76.3 1.257e+04 1.348e-08
 96.58135     76.3 1.237e+04 1.250e-08
 96.60118     76.6 1.221e+04 1.194e-08
 96.62101     77.1 1.217e+04 1.189e-08
 96.64084     77.7 1.219e+04 1.208e-08
 96.65818     78.5 1.226e+04 1.227e-08
 96.66810     77.4 1.249e+04 1.327e-08
 96.68049     78.1 1.256e+04 1.324e-08
 96.70032     78.8 1.271e+04 1.345e-08
 96.72015     79.2 1.299e+04 1.460e-08
 96.73997     79.3 1.344e+04 1.800e-08
 96.75980     79.3 1.414e+04 2.554e-08
 96.77963     79.2 1.501e+04 3.929e-08
 96.79032     79.0 1.584e+04 5.943e-08
 96.79844     78.1 1.649e+04 8.509e-08
 96.80758     76.1 1.699e+04 1.027e-07
 96.81929     75.7 1.741e+04 1.204e-07
 96.83911     75.1 1.738e+04 1.198e-07
 96.85894     74.8 1.715e+04 1.104e-07
 96.87877     74.6 1.671e+04 9.232e-08
 96.89860     74.3 1.614e+04 7.448e-08
 96.91254     74.0 1.570e+04 6.319e-08
 96.92245     72.6 1.520e+04 5.832e-08
 96.93825     72.1 1.538e+04 6.270e-08
 96.95808     71.4 1.584e+04 7.573e-08
 96.97791     70.6 1.647e+04 9.639e-08
 96.99773     69.4 1.701e+04 1.144e-07
 97.01756     67.8 1.710e+04 1.156e-07
 97.03476     66.5 1.687e+04 1.081e-07
 97.04467     65.1 1.652e+04 9.403e-08
 97.05221     64.9 1.616e+04 7.891e-08
 97.06208     64.4 1.576e+04 6.480e-08
 97.06861     63.9 1.512e+04 4.733e-08
 97.07857     62.4 1.422e+04 3.520e-08
 97.09687     62.0 1.358e+04 2.206e-08
 97.11670     61.1 1.306e+04 1.282e-08
 97.13653     59.6 1.256e+04 8.589e-09
 97.15636     58.4 1.226e+04 7.889e-09
 97.16689     57.8 1.225e+04 7.935e-09
 97.17681     57.2 1.216e+04 7.734e-09
 97.19601     57.0 1.226e+04 8.165e-09
 97.21584     56.6 1.245e+04 9.049e-09
 97.23567     56.2 1.268e+04 1.006e-08
 97.25550     55.6 1.300e+04 1.135e-08
 97.27532     54.7 1.353e+04 1.419e-08
 97.28912     53.8 1.427e+04 2.047e-08
 97.29903     52.5 1.425e+04 2.305e-08
 97.31498     51.6 1.485e+04 3.228e-08
 97.32978     50.8 1.524e+04 3.759e-08
 97.33965     48.9 1.546e+04 4.245e-08
 97.34958     48.1 1.564e+04 4.711e-08
 97.35509     47.2 1.578e+04 5.142e-08
 97.36004     46.5 1.542e+04 4.373e-08
 97.36941     45.5 1.546e+04 4.492e-08
 97.37932     44.5 1.542e+04 4.490e-08
 97.38923     43.5 1.535e+04 4.457e-08
 97.39915     42.1 1.536e+04 4.427e-08
 97.40906     40.2 1.559e+04 4.525e-08
 97.41620     37.8 1.626e+04 5.222e-08
 97.42115     38.1 1.519e+04 4.035e-08
 97.42889     35.6 1.596e+04 4.932e-08
 97.43880     32.7 1.716e+04 7.196e-08
 97.44872     30.2 1.807e+04 1.197e-07
 97.45863     28.5 1.856e+04 1.991e-07
 97.46526     27.2 1.887e+04 2.930e-07
 97.47021     27.2 1.843e+04 2.095e-07
 97.47731     26.0 1.880e+04 2.586e-07
 97.48226     26.6 1.811e+04 1.752e-07
 97.48837     25.2 1.836e+04 1.934e-07
 97.49829     23.9 1.833e+04 1.914e-07
 97.51321     21.6 1.863e+04 1.772e-07
 97.53308     20.1 1.732e+04 9.458e-08
 97.54347     19.4 1.558e+04 4.423e-08
 97.55338     21.7 1.562e+04 4.802e-08
 97.57274     20.8 1.413e+04 2.345e-08
 97.59096     19.7 1.299e+04 1.283e-08
 97.60087     20.8 1.307e+04 1.431e-08
 97.61239     20.1 1.236e+04 1.015e-08
 97.63222     20.0 1.194e+04 8.718e-09
 97.65205     20.4 1.183e+04 8.388e-09
 97.66569     20.7 1.178e+04 8.552e-09
 97.67561     22.3 1.181e+04 7.982e-09
 97.69171     22.4 1.176e+04 8.187e-09
 97.71153     22.3 1.177e+04 8.926e-09
 97.73136     21.7 1.197e+04 1.077e-08
 97.75119     21.4 1.214e+04 1.291e-08
 97.77102     21.2 1.230e+04 1.500e-08
 97.78791     20.9 1.235e+04 1.568e-08
 97.79783     22.6 1.237e+04 1.600e-08
 97.81067     22.3 1.237e+04 1.585e-08
 97.83050     22.0 1.222e+04 1.460e-08
 97.85033     21.6 1.191e+04 1.168e-08
 97.86200     20.8 1.150e+04 8.810e-09
 97.87191     21.9 1.150e+04 8.600e-09
 97.88998     20.9 1.112e+04 6.888e-09
 97.90981     19.8 1.082e+04 6.299e-09
 97.93965     20.0 1.071e+04 6.073e-09
 97.97940     18.9 1.081e+04 6.732e-09
 98.01906     18.4 1.109e+04 8.966e-09
 98.04246     18.2 1.153e+04 1.157e-08
 98.06229     18.7 1.150e+04 1.145e-08
 98.08836     18.4 1.176e+04 1.307e-08
 98.10809     18.4 1.189e+04 1.364e-08
 98.12313     18.4 1.193e+04 1.366e-08
 98.13304     19.1 1.183e+04 1.333e-08
 98.14774     19.1 1.193e+04 1.357e-08
 98.16449     19.0 1.202e+04 1.400e-08
 98.17440     19.3 1.204e+04 1.420e-08
 98.18740     19.1 1.224e+04 1.527e-08
 98.20723     18.8 1.265e+04 1.782e-08
 98.22705     18.3 1.312e+04 2.238e-08
 98.24688     17.9 1.360e+04 2.986e-08
 98.26671     17.7 1.387e+04 3.553e-08
 98.28654     17.8 1.375e+04 3.404e-08
 98.29662     18.1 1.337e+04 2.849e-08
 98.30654     18.0 1.425e+04 4.333e-08
 98.32619     18.3 1.351e+04 3.053e-08
 98.34602     18.4 1.263e+04 1.758e-08
 98.37444     17.7 1.201e+04 8.697e-09
 98.39427     18.8 1.188e+04 9.511e-09
 98.41552     19.1 1.152e+04 7.277e-09
 98.45527     19.7 1.080e+04 4.364e-09
 98.49492     21.0 1.042e+04 3.345e-09
 98.53134     22.6 1.032e+04 3.017e-09
 98.55117     22.2 1.055e+04 3.179e-09
 98.57423     23.6 1.036e+04 2.971e-09
 98.61389     25.3 1.045e+04 3.113e-09
 98.65355     26.3 1.082e+04 3.578e-09
 98.68319     25.5 1.131e+04 4.551e-09
 98.70292     24.7 1.163e+04 6.515e-09
 98.72275     23.6 1.209e+04 1.086e-08
 98.74258     22.7 1.281e+04 1.893e-08
 98.76240     21.9 1.310e+04 2.249e-08
 98.78223     21.0 1.302e+04 2.049e-08
 98.79542     19.9 1.264e+04 1.421e-08
 98.80533     18.7 1.217e+04 9.419e-09
 98.82189     16.9 1.180e+04 6.112e-09
 98.84171     15.2 1.139e+04 4.491e-09
 98.86154     14.4 1.104e+04 3.877e-09
 98.88137     14.5 1.082e+04 3.447e-09
 98.90120     14.6 1.075e+04 3.098e-09
 98.91652     14.9 1.053e+04 2.612e-09
 98.93644     16.0 1.051e+04 2.337e-09
 98.97079     17.3 1.017e+04 1.503e-09
 99.01045     18.2 9.994e+03 9.561e-10
 99.04006     19.4 9.810e+03 8.501e-10
 99.05988     19.5 9.873e+03 7.959e-10
 99.08976     21.1 9.873e+03 8.268e-10
 99.12941     22.4 9.893e+03 1.031e-09
 99.16907     23.2 1.015e+04 1.859e-09
 99.20872     24.0 1.058e+04 3.756e-09
 99.24838     24.4 1.102e+04 5.886e-09
 99.28450     24.4 1.112e+04 6.133e-09
 99.30432     23.9 1.127e+04 6.825e-09
 99.32769     24.1 1.114e+04 5.794e-09
 99.36734     24.5 1.086e+04 3.983e-09
 99.40700     25.0 1.069e+04 2.691e-09
 99.43887     26.0 1.059e+04 2.439e-09
 99.45870     26.9 1.060e+04 2.040e-09
 99.48631     28.4 1.060e+04 2.075e-09
 99.52597     29.8 1.063e+04 2.320e-09
 99.54877     31.7 1.083e+04 3.423e-09
 99.56859     31.3 1.102e+04 3.128e-09
 99.59527     32.1 1.113e+04 4.083e-09
 99.61500     32.7 1.125e+04 4.996e-09
 99.63482     33.3 1.142e+04 6.057e-09
 99.65465     33.9 1.159e+04 7.118e-09
 99.67079     34.5 1.168e+04 7.871e-09
 99.68070     34.6 1.159e+04 7.308e-09
 99.69431     35.1 1.167e+04 7.801e-09
 99.70972     35.5 1.166e+04 7.678e-09
 99.71963     36.4 1.190e+04 8.641e-09
 99.73396     36.6 1.189e+04 8.491e-09
 99.75379     36.7 1.156e+04 6.854e-09
 99.77362     36.6 1.142e+04 6.379e-09
 99.79311     37.3 1.108e+04 4.827e-09
 99.81303     37.7 1.104e+04 5.183e-09
 99.84321     38.8 1.075e+04 4.049e-09
 99.88287     40.4 1.058e+04 3.541e-09
 99.91251     41.2 1.051e+04 3.433e-09
 99.92515     41.9 1.051e+04 3.436e-09
 99.93506     41.9 1.045e+04 3.327e-09
 99.95207     43.2 1.034e+04 3.197e-09
 99.97084     43.8 1.035e+04 3.196e-09
 99.98085     44.5 1.062e+04 3.329e-09
100.00183     46.0 1.050e+04 2.987e-09
