# Columns:
#   distance along LOS (in CHIMPs)
#   peculiar velocity  (in km/s)
#   temperature (K)
#   HI number density
# pos=(76.2977,106.546,54.4394), angles=(0.231013,4.74678)
  0.00506   -107.4 9.407e+03 2.904e-09
  0.02084   -105.3 9.317e+03 2.535e-09
  0.04091   -105.4 9.282e+03 2.648e-09
  0.07031   -103.4 9.348e+03 2.522e-09
  0.11044   -101.5 9.410e+03 2.446e-09
  0.15057    -99.8 9.453e+03 2.442e-09
  0.18645    -98.3 9.597e+03 2.449e-09
  0.20652    -98.8 9.988e+03 3.902e-09
  0.23082    -98.3 1.029e+04 4.331e-09
  0.27095    -98.4 1.079e+04 5.599e-09
  0.31108    -99.4 1.154e+04 8.789e-09
  0.34108   -100.6 1.216e+04 1.336e-08
  0.36105   -101.2 1.253e+04 1.672e-08
  0.37193   -101.8 1.285e+04 1.993e-08
  0.38197   -102.6 1.300e+04 2.106e-08
  0.40117   -103.4 1.307e+04 2.135e-08
  0.42124   -104.1 1.306e+04 1.985e-08
  0.44130   -105.0 1.296e+04 1.684e-08
  0.45474   -106.0 1.282e+04 1.379e-08
  0.46477   -106.8 1.242e+04 1.049e-08
  0.48143   -107.8 1.227e+04 8.708e-09
  0.50150   -108.6 1.217e+04 7.518e-09
  0.52156   -109.2 1.216e+04 6.803e-09
  0.53754   -109.7 1.218e+04 6.589e-09
  0.54758   -109.9 1.195e+04 5.968e-09
  0.56169   -110.2 1.197e+04 5.917e-09
  0.58175   -110.4 1.205e+04 5.906e-09
  0.60182   -110.6 1.221e+04 6.086e-09
  0.62035   -110.8 1.231e+04 6.419e-09
  0.63038   -110.8 1.225e+04 6.285e-09
  0.64195   -110.8 1.231e+04 6.615e-09
  0.66201   -110.9 1.236e+04 7.001e-09
  0.68207   -111.0 1.241e+04 7.381e-09
  0.70214   -111.1 1.244e+04 7.545e-09
  0.71319   -111.2 1.245e+04 7.552e-09
  0.72322   -111.3 1.246e+04 7.511e-09
  0.74227   -111.3 1.241e+04 7.240e-09
  0.76233   -111.3 1.237e+04 6.873e-09
  0.78240   -111.2 1.232e+04 6.453e-09
  0.79599   -111.1 1.226e+04 6.137e-09
  0.80602   -111.2 1.235e+04 6.150e-09
  0.82252   -111.1 1.226e+04 5.913e-09
  0.84259   -111.0 1.222e+04 5.859e-09
  0.86265   -111.0 1.223e+04 5.942e-09
  0.87880   -111.3 1.236e+04 6.256e-09
  0.88883   -111.4 1.250e+04 6.226e-09
  0.90278   -111.8 1.251e+04 6.582e-09
  0.92285   -112.2 1.255e+04 6.861e-09
  0.94291   -112.6 1.262e+04 7.074e-09
  0.96160   -112.9 1.269e+04 7.213e-09
  0.97163   -113.2 1.277e+04 7.594e-09
  0.98304   -113.4 1.278e+04 7.619e-09
  1.00310   -113.6 1.277e+04 7.408e-09
  1.02317   -113.9 1.273e+04 7.057e-09
  1.04323   -114.2 1.270e+04 6.855e-09
  1.05444   -114.5 1.258e+04 6.562e-09
  1.06447   -114.4 1.267e+04 6.919e-09
  1.08336   -114.6 1.251e+04 6.373e-09
  1.10342   -115.0 1.233e+04 5.833e-09
  1.12349   -115.2 1.216e+04 5.386e-09
  1.13724   -115.5 1.197e+04 4.978e-09
  1.14728   -115.3 1.224e+04 5.649e-09
  1.16362   -115.6 1.209e+04 5.530e-09
  1.18368   -116.0 1.204e+04 5.497e-09
  1.20375   -116.4 1.204e+04 5.572e-09
  1.22005   -116.9 1.202e+04 5.841e-09
  1.23008   -116.9 1.224e+04 7.684e-09
  1.24387   -117.5 1.218e+04 8.032e-09
  1.26394   -118.1 1.210e+04 8.326e-09
  1.28400   -118.6 1.197e+04 8.587e-09
  1.30285   -118.9 1.184e+04 8.729e-09
  1.31289   -119.2 1.196e+04 1.047e-08
  1.32413   -119.3 1.173e+04 1.002e-08
  1.34420   -119.4 1.152e+04 9.408e-09
  1.36426   -119.5 1.132e+04 8.507e-09
  1.38432   -119.4 1.110e+04 7.337e-09
  1.39569   -119.1 1.085e+04 6.076e-09
  1.40572   -119.2 1.075e+04 5.886e-09
  1.42445   -118.7 1.047e+04 4.645e-09
  1.44452   -118.0 1.020e+04 3.646e-09
  1.47471   -117.2 9.952e+03 2.849e-09
  1.51494   -116.2 9.723e+03 2.447e-09
  1.55146   -114.5 9.590e+03 2.299e-09
  1.57153   -113.9 9.601e+03 2.203e-09
  1.59519   -112.9 9.648e+03 2.452e-09
  1.63532   -112.5 9.708e+03 3.084e-09
  1.67545   -112.3 9.724e+03 3.642e-09
  1.71558   -112.3 9.723e+03 3.853e-09
  1.73714   -112.2 9.630e+03 3.813e-09
  1.75720   -112.5 9.818e+03 4.788e-09
  1.79584   -112.2 9.391e+03 3.366e-09
  1.83596   -111.6 9.011e+03 2.435e-09
  1.87609   -110.6 8.783e+03 2.026e-09
  1.90275   -109.4 8.726e+03 1.937e-09
  1.92281   -109.8 8.719e+03 1.918e-09
  1.95635   -108.9 8.743e+03 2.000e-09
  1.99648   -108.2 8.841e+03 2.336e-09
  2.03661   -107.8 8.924e+03 2.660e-09
  2.06836   -107.4 8.947e+03 2.766e-09
  2.08842   -108.2 8.959e+03 2.747e-09
  2.11686   -107.7 8.834e+03 2.573e-09
  2.15699   -107.0 8.610e+03 2.030e-09
  2.19712   -106.3 8.438e+03 1.581e-09
  2.23397   -105.7 8.377e+03 1.385e-09
  2.25403   -106.5 8.389e+03 1.371e-09
  2.27738   -105.7 8.390e+03 1.339e-09
  2.31751   -105.0 8.406e+03 1.337e-09
  2.35764   -104.2 8.451e+03 1.369e-09
  2.39776   -103.4 8.481e+03 1.427e-09
  2.41964   -102.8 8.524e+03 1.506e-09
  2.43971   -103.5 8.443e+03 1.407e-09
  2.47802   -102.9 8.474e+03 1.438e-09
  2.51815   -102.5 8.561e+03 1.497e-09
  2.55828   -102.4 8.678e+03 1.642e-09
  2.58525   -102.5 8.824e+03 1.982e-09
  2.60532   -102.6 8.694e+03 1.523e-09
  2.63854   -102.7 8.851e+03 1.955e-09
  2.67866   -102.6 9.089e+03 2.644e-09
  2.70866   -101.9 9.273e+03 3.061e-09
  2.72863   -101.8 9.333e+03 3.160e-09
  2.74869   -101.5 9.486e+03 3.415e-09
  2.76070   -101.5 9.539e+03 3.493e-09
  2.77083   -101.5 9.419e+03 3.002e-09
  2.79905   -100.9 9.510e+03 3.081e-09
  2.83918   -100.1 9.587e+03 3.007e-09
  2.87931    -98.9 9.652e+03 2.896e-09
  2.91648    -97.7 9.850e+03 2.957e-09
  2.93654    -97.6 9.775e+03 2.737e-09
  2.95956    -96.3 9.938e+03 3.113e-09
  2.98956    -94.8 1.003e+04 3.432e-09
  3.00912    -94.4 1.009e+04 3.595e-09
  3.01915    -94.3 9.988e+03 3.213e-09
  3.02959    -93.1 1.003e+04 3.249e-09
  3.04966    -92.6 1.003e+04 3.240e-09
  3.06972    -91.3 1.007e+04 3.126e-09
  3.08979    -90.7 1.009e+04 3.039e-09
  3.10195    -89.3 1.014e+04 2.921e-09
  3.12212    -89.0 1.008e+04 2.662e-09
  3.15008    -86.9 1.016e+04 2.542e-09
  3.17004    -86.3 1.022e+04 2.614e-09
  3.18476    -85.0 1.037e+04 2.760e-09
  3.19479    -84.8 1.028e+04 2.566e-09
  3.21017    -84.3 1.034e+04 2.656e-09
  3.23024    -83.0 1.050e+04 2.922e-09
  3.25030    -82.5 1.066e+04 3.427e-09
  3.26756    -81.6 1.083e+04 4.268e-09
  3.27760    -81.0 1.058e+04 3.147e-09
  3.29043    -80.5 1.068e+04 3.581e-09
  3.31049    -79.5 1.084e+04 4.401e-09
  3.33056    -78.6 1.097e+04 4.975e-09
  3.35037    -77.6 1.110e+04 5.353e-09
  3.36040    -77.2 1.083e+04 3.464e-09
  3.37069    -76.5 1.086e+04 3.494e-09
  3.39075    -75.3 1.091e+04 3.433e-09
  3.41081    -74.5 1.092e+04 3.340e-09
  3.43088    -73.2 1.093e+04 3.191e-09
  3.44321    -72.4 1.094e+04 3.060e-09
  3.45334    -72.7 1.071e+04 1.875e-09
  3.48123    -70.3 1.077e+04 1.796e-09
  3.52136    -67.7 1.075e+04 1.701e-09
  3.56149    -64.7 1.071e+04 1.626e-09
  3.59898    -61.8 1.068e+04 1.577e-09
  3.61904    -60.7 1.072e+04 1.057e-09
  3.64175    -57.8 1.074e+04 1.260e-09
  3.68188    -54.7 1.078e+04 1.327e-09
  3.72201    -51.7 1.091e+04 1.087e-09
  3.76213    -49.0 1.090e+04 7.403e-10
  3.78466    -46.7 1.061e+04 5.674e-10
  3.80472    -46.2 1.122e+04 1.676e-09
  3.84239    -44.5 1.123e+04 1.147e-09
  3.88252    -43.0 1.101e+04 1.535e-09
  3.92265    -41.1 1.121e+04 3.252e-09
  3.95027    -39.1 1.167e+04 6.912e-09
  3.96020    -40.2 1.211e+04 1.294e-08
  3.97261    -39.3 1.256e+04 1.793e-08
  3.99268    -38.4 1.294e+04 2.302e-08
  4.00910    -37.7 1.329e+04 2.699e-08
  4.01913    -37.7 1.332e+04 2.816e-08
  4.03281    -37.6 1.364e+04 3.091e-08
  4.05287    -39.5 1.347e+04 1.865e-08
  4.07293    -40.8 1.324e+04 1.951e-08
  4.09300    -41.4 1.310e+04 2.142e-08
  4.11306    -41.5 1.287e+04 2.151e-08
  4.12571    -41.5 1.242e+04 1.713e-08
  4.13574    -42.6 1.270e+04 1.917e-08
  4.15319    -42.8 1.250e+04 1.514e-08
  4.17326    -43.1 1.238e+04 1.211e-08
  4.19332    -43.5 1.232e+04 9.846e-09
  4.20852    -43.7 1.221e+04 8.170e-09
  4.21855    -45.0 1.325e+04 2.075e-08
  4.23345    -44.8 1.293e+04 1.811e-08
  4.25351    -44.3 1.261e+04 1.602e-08
  4.27358    -43.5 1.232e+04 1.472e-08
  4.29132    -42.4 1.220e+04 1.446e-08
  4.30135    -43.0 1.283e+04 2.215e-08
  4.31371    -41.8 1.285e+04 2.227e-08
  4.33377    -40.8 1.276e+04 2.179e-08
  4.35383    -39.4 1.267e+04 2.118e-08
  4.37390    -38.1 1.270e+04 2.127e-08
  4.38416    -37.1 1.261e+04 2.095e-08
  4.39419    -37.4 1.262e+04 2.072e-08
  4.41403    -35.9 1.235e+04 1.846e-08
  4.43409    -34.6 1.226e+04 1.711e-08
  4.45416    -33.3 1.213e+04 1.484e-08
  4.46697    -32.2 1.182e+04 1.209e-08
  4.47700    -32.6 1.156e+04 9.144e-09
  4.49428    -31.7 1.138e+04 8.048e-09
  4.51435    -30.8 1.130e+04 7.426e-09
  4.53441    -30.0 1.107e+04 6.594e-09
  4.54977    -29.1 1.092e+04 6.208e-09
  4.55980    -29.1 1.090e+04 5.908e-09
  4.57454    -28.2 1.079e+04 5.699e-09
  4.59460    -27.3 1.065e+04 5.391e-09
  4.61467    -26.5 1.055e+04 5.148e-09
  4.63258    -25.6 1.037e+04 4.767e-09
  4.64261    -25.4 1.031e+04 4.714e-09
  4.65480    -24.5 1.021e+04 4.273e-09
  4.67486    -23.6 1.002e+04 3.531e-09
  4.69493    -23.1 9.800e+03 3.144e-09
  4.71499    -22.4 9.659e+03 2.805e-09
  4.72541    -22.0 9.582e+03 2.740e-09
  4.73544    -21.6 9.449e+03 2.457e-09
  4.75512    -20.6 9.348e+03 2.144e-09
  4.77518    -20.3 9.335e+03 2.141e-09
  4.79525    -19.0 9.220e+03 2.150e-09
  4.80822    -18.8 9.237e+03 2.142e-09
  4.81835    -18.3 9.024e+03 1.696e-09
  4.84560    -16.5 8.983e+03 1.620e-09
  4.88573    -14.8 9.107e+03 1.785e-09
  4.92586    -13.1 9.234e+03 2.184e-09
  4.96399    -11.0 9.278e+03 2.618e-09
  4.98406     -8.8 8.868e+03 1.770e-09
  5.00612     -6.6 9.047e+03 2.118e-09
  5.03612     -5.4 9.098e+03 2.420e-09
  5.05608     -5.2 9.334e+03 2.745e-09
  5.06667     -5.4 9.580e+03 3.687e-09
  5.07670     -3.6 9.337e+03 2.925e-09
  5.09621     -3.7 9.589e+03 3.879e-09
  5.11628     -4.9 1.064e+04 6.636e-09
  5.13634     -6.3 1.173e+04 1.287e-08
  5.14947     -6.4 1.234e+04 2.412e-08
  5.15950     -4.7 1.197e+04 1.779e-08
  5.17647     -4.4 1.277e+04 2.871e-08
  5.19653     -4.6 1.292e+04 3.046e-08
  5.21660     -4.0 1.240e+04 2.359e-08
  5.23228     -4.4 1.188e+04 1.409e-08
  5.24231     -2.7 1.216e+04 1.844e-08
  5.25673     -3.7 1.135e+04 1.034e-08
  5.27679     -5.2 1.056e+04 5.802e-09
  5.29685     -7.0 1.002e+04 4.534e-09
  5.31508     -7.6 1.015e+04 4.617e-09
  5.32511     -6.6 9.680e+03 3.788e-09
  5.33698     -7.4 9.939e+03 4.187e-09
  5.35705     -7.8 1.021e+04 5.391e-09
  5.37711     -7.8 1.056e+04 7.638e-09
  5.39718     -8.1 1.122e+04 1.070e-08
  5.40792     -9.4 1.278e+04 1.646e-08
  5.41795     -7.9 1.154e+04 1.185e-08
  5.43730     -9.1 1.315e+04 1.892e-08
  5.45737    -10.1 1.390e+04 3.322e-08
  5.47743     -9.7 1.408e+04 4.875e-08
  5.49072     -9.1 1.400e+04 5.172e-08
  5.50076     -8.6 1.392e+04 4.493e-08
  5.51756     -8.2 1.421e+04 5.361e-08
  5.53763     -8.5 1.441e+04 5.639e-08
  5.55769     -9.4 1.480e+04 5.142e-08
  5.57353    -11.0 1.511e+04 3.978e-08
  5.58356     -9.9 1.574e+04 8.316e-08
  5.59782    -11.1 1.583e+04 6.024e-08
  5.61788    -13.0 1.446e+04 3.456e-08
  5.63795    -14.8 1.225e+04 2.176e-08
  5.65633    -15.4 1.146e+04 1.636e-08
  5.66637    -15.4 1.135e+04 1.496e-08
  5.67807    -15.4 1.101e+04 1.183e-08
  5.69814    -15.0 1.077e+04 9.349e-09
  5.72833    -14.6 1.059e+04 7.755e-09
  5.76856    -13.8 1.018e+04 5.272e-09
  5.80869    -13.4 1.034e+04 5.232e-09
  5.83217    -13.1 1.080e+04 7.387e-09
  5.85224    -11.7 1.062e+04 6.549e-09
  5.88894    -11.1 1.093e+04 8.388e-09
  5.92907    -10.6 1.121e+04 9.348e-09
  5.96920    -10.4 1.104e+04 7.571e-09
  5.99778    -11.1 1.078e+04 4.388e-09
  6.01785     -9.1 1.163e+04 8.861e-09
  6.03933    -13.0 1.172e+04 3.593e-09
  6.05930    -15.9 1.174e+04 2.904e-09
  6.07936    -18.9 1.255e+04 3.496e-09
  6.09042    -23.6 1.432e+04 7.081e-09
  6.10046    -21.8 1.329e+04 5.825e-09
  6.11949    -25.9 1.542e+04 1.304e-08
  6.13955    -29.5 1.532e+04 3.395e-08
  6.15962    -31.0 1.496e+04 7.717e-08
  6.17323    -30.9 1.531e+04 1.265e-07
  6.18326    -32.6 1.500e+04 9.977e-08
  6.19975    -32.4 1.513e+04 1.099e-07
  6.21981    -33.2 1.470e+04 9.163e-08
  6.23987    -34.1 1.415e+04 6.173e-08
  6.25603    -35.0 1.384e+04 4.502e-08
  6.26607    -37.2 1.319e+04 2.635e-08
  6.28000    -37.9 1.276e+04 2.287e-08
  6.30007    -38.1 1.241e+04 2.064e-08
  6.32013    -38.0 1.209e+04 1.877e-08
  6.33884    -37.7 1.186e+04 1.718e-08
  6.34887    -38.7 1.158e+04 1.221e-08
  6.36026    -38.1 1.150e+04 1.051e-08
  6.38032    -37.5 1.138e+04 8.759e-09
  6.40039    -37.1 1.117e+04 7.011e-09
  6.42045    -36.6 1.088e+04 5.579e-09
  6.43168    -35.9 1.067e+04 4.664e-09
  6.44171    -36.9 1.037e+04 3.891e-09
  6.46058    -36.0 1.040e+04 3.731e-09
  6.48065    -35.2 1.050e+04 3.648e-09
  6.49345    -34.4 1.042e+04 3.493e-09
  6.50349    -34.5 1.040e+04 3.607e-09
  6.51448    -33.1 1.080e+04 3.765e-09
  6.52451    -35.5 1.138e+04 4.366e-09
  6.54084    -36.8 1.243e+04 8.562e-09
  6.56090    -38.2 1.335e+04 1.806e-08
  6.58097    -38.1 1.420e+04 4.200e-08
  6.59729    -37.3 1.501e+04 7.595e-08
  6.60732    -36.8 1.599e+04 1.248e-07
  6.62110    -35.5 1.616e+04 1.292e-07
  6.64116    -34.6 1.617e+04 1.157e-07
  6.66122    -34.1 1.550e+04 7.637e-08
  6.68009    -34.2 1.441e+04 4.515e-08
  6.69012    -36.9 1.217e+04 1.319e-08
  6.70135    -36.6 1.166e+04 1.143e-08
  6.72142    -35.4 1.162e+04 1.157e-08
  6.74148    -34.0 1.176e+04 1.253e-08
  6.76154    -32.6 1.186e+04 1.291e-08
  6.77293    -31.2 1.203e+04 1.327e-08
  6.78296    -31.9 1.160e+04 8.950e-09
  6.80167    -31.1 1.207e+04 1.171e-08
  6.82174    -30.4 1.247e+04 1.741e-08
  6.84180    -29.4 1.291e+04 2.587e-08
  6.85573    -28.0 1.331e+04 3.617e-08
  6.86577    -28.1 1.240e+04 1.877e-08
  6.88193    -26.4 1.263e+04 2.138e-08
  6.90199    -25.0 1.254e+04 2.089e-08
  6.92206    -23.5 1.224e+04 1.670e-08
  6.93854    -22.6 1.195e+04 1.160e-08
  6.94857    -24.4 1.137e+04 5.936e-09
  6.96219    -24.1 1.110e+04 4.622e-09
  6.98225    -24.1 1.086e+04 4.028e-09
  7.00232    -24.0 1.076e+04 3.919e-09
  7.02134    -23.8 1.068e+04 4.513e-09
  7.03138    -24.8 1.076e+04 4.216e-09
  7.04244    -24.3 1.073e+04 5.555e-09
  7.06251    -23.9 1.092e+04 7.129e-09
  7.08257    -23.7 1.147e+04 9.501e-09
  7.10264    -24.4 1.200e+04 1.247e-08
  7.11418    -24.9 1.274e+04 1.947e-08
  7.12421    -24.7 1.221e+04 1.589e-08
  7.14277    -24.8 1.267e+04 1.887e-08
  7.16283    -25.1 1.298e+04 2.243e-08
  7.18289    -25.5 1.304e+04 2.583e-08
  7.19699    -25.5 1.315e+04 2.938e-08
  7.20702    -25.5 1.265e+04 2.050e-08
  7.22302    -25.6 1.296e+04 2.611e-08
  7.24309    -25.2 1.327e+04 3.249e-08
  7.26315    -24.1 1.340e+04 3.592e-08
  7.27979    -22.9 1.337e+04 3.640e-08
  7.28982    -22.3 1.343e+04 3.760e-08
  7.30328    -21.0 1.315e+04 3.206e-08
  7.32334    -20.0 1.294e+04 2.380e-08
  7.34341    -19.7 1.249e+04 1.787e-08
  7.36260    -19.2 1.228e+04 1.628e-08
  7.37263    -18.7 1.232e+04 1.548e-08
  7.38354    -18.0 1.225e+04 1.488e-08
  7.40360    -17.0 1.218e+04 1.481e-08
  7.42367    -16.1 1.233e+04 1.573e-08
  7.44373    -14.8 1.237e+04 1.755e-08
  7.45543    -13.9 1.242e+04 1.668e-08
  7.46547    -14.1 1.242e+04 1.610e-08
  7.48386    -13.0 1.245e+04 1.709e-08
  7.50392    -12.0 1.259e+04 1.816e-08
  7.52399    -11.2 1.281e+04 1.847e-08
  7.53824    -10.8 1.303e+04 2.136e-08
  7.54827    -11.7 1.339e+04 2.413e-08
  7.56412    -11.1 1.350e+04 2.926e-08
  7.58418     -9.8 1.353e+04 3.441e-08
  7.60424     -9.0 1.355e+04 3.465e-08
  7.62104     -7.9 1.352e+04 3.163e-08
  7.63108     -8.7 1.392e+04 3.715e-08
  7.64437     -8.2 1.374e+04 3.311e-08
  7.66444     -8.3 1.377e+04 2.812e-08
  7.68450     -8.6 1.379e+04 3.073e-08
  7.70385     -8.1 1.364e+04 3.427e-08
  7.71388     -8.0 1.329e+04 2.807e-08
  7.72463     -6.8 1.324e+04 2.595e-08
  7.74469     -5.4 1.309e+04 2.045e-08
  7.76476     -4.3 1.304e+04 1.425e-08
  7.78482     -3.6 1.282e+04 9.845e-09
  7.79669     -2.7 1.253e+04 6.328e-09
  7.80672     -3.2 1.201e+04 4.589e-09
  7.82495     -2.3 1.193e+04 3.680e-09
  7.84501     -1.4 1.196e+04 3.070e-09
  7.86508     -0.6 1.190e+04 2.849e-09
  7.87949      1.0 1.170e+04 2.538e-09
  7.88952      1.4 1.164e+04 2.448e-09
  7.90521      2.1 1.176e+04 2.491e-09
  7.92527      4.0 1.174e+04 2.455e-09
  7.94534      4.7 1.187e+04 2.512e-09
  7.96230      6.6 1.179e+04 2.611e-09
  7.97233      7.0 1.170e+04 2.475e-09
  7.98546      7.5 1.181e+04 2.596e-09
  8.00553      9.4 1.182e+04 2.864e-09
  8.02559     10.1 1.191e+04 3.059e-09
  8.04510     11.7 1.187e+04 3.349e-09
  8.06526     12.8 1.183e+04 2.893e-09
  8.08588     14.3 1.184e+04 3.324e-09
  8.10585     15.4 1.186e+04 3.704e-09
  8.12591     16.5 1.187e+04 4.259e-09
  8.13794     17.5 1.193e+04 4.886e-09
  8.14797     18.0 1.181e+04 4.146e-09
  8.16604     19.1 1.182e+04 4.814e-09
  8.18611     20.2 1.187e+04 5.290e-09
  8.20617     21.2 1.187e+04 5.703e-09
  8.22074     21.7 1.188e+04 5.944e-09
  8.23078     22.5 1.180e+04 5.406e-09
  8.25643     24.0 1.185e+04 6.190e-09
  8.29666     25.5 1.191e+04 8.151e-09
  8.33678     26.9 1.196e+04 9.071e-09
  8.37652     28.2 1.185e+04 8.533e-09
  8.39658     29.9 1.180e+04 8.266e-09
  8.41704     31.4 1.165e+04 7.311e-09
  8.45717     32.9 1.138e+04 5.516e-09
  8.49730     34.4 1.112e+04 4.485e-09
  8.53743     36.1 1.097e+04 4.389e-09
  8.56219     37.9 1.092e+04 4.341e-09
  8.58226     39.4 1.095e+04 4.393e-09
  8.61768     41.3 1.080e+04 4.117e-09
  8.65781     43.4 1.065e+04 3.340e-09
  8.69794     45.5 1.051e+04 2.365e-09
  8.72780     47.5 1.035e+04 1.690e-09
  8.74787     48.7 1.054e+04 2.959e-09
  8.77820     50.8 1.038e+04 2.375e-09
  8.81833     53.1 1.023e+04 2.072e-09
  8.85846     55.4 1.013e+04 1.893e-09
  8.89341     57.9 1.005e+04 1.678e-09
  8.91348     58.1 1.021e+04 2.154e-09
  8.93871     60.5 1.015e+04 1.830e-09
  8.96797     62.8 1.012e+04 1.526e-09
  8.98803     63.7 1.000e+04 1.893e-09
  9.01897     66.1 9.983e+03 1.911e-09
  9.05902     68.3 9.980e+03 2.077e-09
  9.09915     70.1 1.095e+04 8.194e-09
  9.13935     72.5 1.133e+04 1.087e-08
  9.17948     75.2 1.188e+04 1.402e-08
  9.20948     75.7 1.229e+04 1.600e-08
  9.22945     76.1 1.239e+04 1.693e-08
  9.24450     76.4 1.238e+04 1.683e-08
  9.25453     75.3 1.221e+04 1.665e-08
  9.26958     75.6 1.207e+04 1.556e-08
  9.28964     75.8 1.194e+04 1.430e-08
  9.30971     76.0 1.178e+04 1.300e-08
  9.32731     76.1 1.156e+04 1.167e-08
  9.33734     75.0 1.153e+04 1.216e-08
  9.34983     75.3 1.128e+04 1.144e-08
  9.36990     75.8 1.104e+04 1.061e-08
  9.38996     76.4 1.081e+04 9.697e-09
  9.41003     77.0 1.063e+04 8.832e-09
  9.43009     77.2 1.028e+04 7.792e-09
  9.45016     77.8 1.008e+04 6.864e-09
  9.47022     78.6 9.922e+03 6.106e-09
  9.49028     79.3 9.818e+03 5.548e-09
  9.50295     80.0 9.751e+03 5.157e-09
  9.51298     79.9 9.606e+03 4.676e-09
  9.53041     80.6 9.581e+03 4.545e-09
  9.55048     81.3 9.555e+03 4.462e-09
  9.57054     82.1 9.509e+03 4.383e-09
  9.58576     82.8 9.453e+03 4.288e-09
  9.59589     82.7 9.247e+03 3.742e-09
  9.62090     84.2 9.183e+03 3.599e-09
  9.65090     85.1 9.235e+03 3.530e-09
  9.66856     85.8 9.199e+03 3.462e-09
  9.67859     86.2 9.139e+03 3.406e-09
  9.69093     87.0 9.146e+03 3.453e-09
  9.71099     87.6 9.173e+03 3.577e-09
  9.73106     88.2 9.231e+03 3.832e-09
  9.75112     88.7 9.333e+03 4.281e-09
  9.76140     89.0 9.464e+03 4.955e-09
  9.77143     89.4 9.502e+03 5.263e-09
  9.79125     89.7 9.654e+03 6.251e-09
  9.81131     90.0 9.773e+03 7.176e-09
  9.83138     90.2 9.807e+03 7.679e-09
  9.84420     90.4 9.779e+03 7.605e-09
  9.85424     90.8 9.865e+03 8.049e-09
  9.87150     90.9 9.733e+03 7.567e-09
  9.89157     91.2 9.548e+03 6.752e-09
  9.91163     91.6 9.306e+03 5.779e-09
  9.92701     92.1 9.044e+03 4.720e-09
  9.93704     92.4 9.128e+03 4.904e-09
  9.95176     92.7 8.767e+03 3.655e-09
  9.98196     93.7 8.437e+03 2.961e-09
 10.02218     95.0 8.135e+03 2.464e-09
 10.06231     96.8 8.133e+03 2.470e-09
 10.09281     98.7 8.188e+03 2.579e-09
 10.11288     98.8 8.262e+03 2.927e-09
 10.14257    100.6 8.405e+03 3.200e-09
 10.17257    101.6 8.383e+03 3.066e-09
 10.18546    102.6 8.383e+03 2.869e-09
 10.19549    102.5 8.436e+03 3.179e-09
 10.21260    103.6 8.490e+03 3.230e-09
 10.23266    104.5 8.553e+03 3.302e-09
 10.25273    105.4 8.565e+03 3.308e-09
 10.26826    106.2 8.566e+03 3.292e-09
 10.27829    106.2 8.653e+03 4.006e-09
 10.29285    107.1 8.621e+03 3.853e-09
 10.31292    108.2 8.583e+03 3.657e-09
 10.33298    109.2 8.553e+03 3.480e-09
 10.35107    110.3 8.519e+03 3.355e-09
 10.36110    110.3 8.822e+03 4.349e-09
 10.37311    111.6 8.969e+03 4.513e-09
 10.39318    112.4 9.372e+03 5.091e-09
 10.41324    112.2 1.001e+04 6.287e-09
 10.43330    111.3 1.137e+04 1.043e-08
 10.44390    110.1 1.302e+04 2.076e-08
 10.45394    110.0 1.574e+04 6.317e-08
 10.46837    109.5 1.637e+04 8.076e-08
 10.47835    108.7 1.687e+04 1.027e-07
 10.48521    108.0 1.736e+04 1.344e-07
 10.49022    107.7 1.837e+04 2.141e-07
 10.49842    107.2 1.864e+04 2.508e-07
 10.50845    106.5 1.863e+04 2.494e-07
 10.51848    105.8 1.851e+04 2.289e-07
 10.52661    105.5 1.828e+04 1.828e-07
 10.53163    105.4 1.858e+04 2.094e-07
 10.53854    105.0 1.827e+04 1.294e-07
 10.55364    104.5 1.769e+04 6.676e-08
 10.57375    101.5 1.486e+04 2.564e-08
 10.59382     98.5 1.211e+04 1.766e-08
 10.60951     98.1 1.175e+04 1.645e-08
 10.61955     97.7 1.163e+04 1.616e-08
 10.63395     98.3 1.156e+04 1.570e-08
 10.65401     99.0 1.157e+04 1.517e-08
 10.67408     99.7 1.156e+04 1.420e-08
 10.70427    100.2 1.123e+04 9.813e-09
 10.74450    101.3 1.070e+04 5.371e-09
 10.77532    102.4 1.015e+04 2.457e-09
 10.79538    103.8 1.012e+04 2.442e-09
 10.82475    105.0 9.771e+03 1.291e-09
 10.86488    106.8 9.679e+03 1.177e-09
 10.90501    109.3 9.690e+03 1.182e-09
 10.94093    111.9 9.764e+03 1.241e-09
 10.96099    113.4 9.799e+03 1.459e-09
 10.98527    115.8 9.912e+03 1.458e-09
 11.02540    118.1 1.014e+04 1.536e-09
 11.06552    120.1 1.034e+04 1.715e-09
 11.10565    122.1 1.063e+04 2.014e-09
 11.12660    123.8 1.098e+04 2.527e-09
 11.14667    125.5 1.086e+04 1.972e-09
 11.18591    126.7 1.112e+04 2.514e-09
 11.22604    127.8 1.138e+04 3.919e-09
 11.26617    128.7 1.181e+04 6.594e-09
 11.29221    128.9 1.241e+04 9.221e-09
 11.31228    129.9 1.245e+04 8.907e-09
 11.34642    129.3 1.260e+04 8.736e-09
 11.38655    128.4 1.273e+04 6.994e-09
 11.42668    127.9 1.264e+04 4.394e-09
 11.45782    127.6 1.244e+04 2.671e-09
 11.47789    128.3 1.260e+04 2.259e-09
 11.50694    128.5 1.217e+04 2.061e-09
 11.54707    129.1 1.201e+04 2.062e-09
 11.58719    129.9 1.194e+04 2.032e-09
 11.62343    130.9 1.190e+04 1.920e-09
 11.64350    132.2 1.219e+04 2.833e-09
 11.66745    132.9 1.215e+04 2.658e-09
 11.70758    133.8 1.207e+04 2.424e-09
 11.74771    135.3 1.205e+04 2.401e-09
 11.78784    137.0 1.202e+04 2.524e-09
 11.80911    138.9 1.202e+04 2.991e-09
 11.82917    139.1 1.241e+04 3.080e-09
 11.86809    140.9 1.243e+04 3.054e-09
 11.90822    142.7 1.245e+04 3.001e-09
 11.94835    144.3 1.246e+04 2.870e-09
 11.97472    145.9 1.239e+04 2.719e-09
 11.99478    145.9 1.226e+04 2.305e-09
 12.02861    147.6 1.209e+04 2.114e-09
 12.06874    149.4 1.193e+04 2.000e-09
 12.10887    151.2 1.186e+04 1.980e-09
 12.14033    153.2 1.185e+04 2.002e-09
 12.16039    153.5 1.165e+04 1.768e-09
 12.18912    155.6 1.163e+04 1.824e-09
 12.22925    157.6 1.163e+04 2.055e-09
 12.26938    159.6 1.173e+04 2.537e-09
 12.30594    161.3 1.188e+04 3.323e-09
 12.32600    162.1 1.168e+04 3.274e-09
 12.34964    163.8 1.185e+04 3.995e-09
 12.38976    165.2 1.200e+04 4.730e-09
 12.42989    166.5 1.211e+04 5.404e-09
 12.47002    167.6 1.217e+04 5.833e-09
 12.49161    168.6 1.217e+04 5.884e-09
 12.51168    169.3 1.203e+04 4.774e-09
 12.55028    170.3 1.200e+04 5.024e-09
 12.59041    171.3 1.196e+04 5.443e-09
 12.63054    172.5 1.190e+04 6.139e-09
 12.65722    173.9 1.190e+04 6.987e-09
 12.67729    174.4 1.192e+04 8.152e-09
 12.71079    175.7 1.187e+04 8.151e-09
 12.75092    177.0 1.170e+04 7.801e-09
 12.79105    178.3 1.145e+04 6.761e-09
 12.82284    179.5 1.118e+04 5.284e-09
 12.84290    180.1 1.113e+04 2.939e-09
 12.87131    181.3 1.094e+04 2.143e-09
 12.91144    182.8 1.057e+04 1.772e-09
 12.95156    184.6 1.012e+04 1.748e-09
 12.98845    186.8 1.009e+04 1.757e-09
 13.00851    187.9 1.011e+04 1.487e-09
 13.03182    190.2 1.006e+04 1.542e-09
 13.07195    192.5 1.001e+04 1.762e-09
 13.11208    194.5 1.009e+04 2.148e-09
 13.15221    196.1 1.019e+04 2.632e-09
 13.17412    197.2 1.020e+04 2.994e-09
 13.19418    198.7 1.013e+04 2.483e-09
 13.22233    199.2 1.013e+04 2.679e-09
 13.24230    200.0 1.011e+04 2.859e-09
 13.25673    200.9 1.014e+04 3.281e-09
 13.26676    201.1 1.009e+04 2.944e-09
 13.28243    202.3 1.013e+04 3.470e-09
 13.30249    203.3 1.024e+04 4.185e-09
 13.32256    204.1 1.038e+04 4.960e-09
 13.33953    204.8 1.053e+04 5.726e-09
 13.34957    205.3 1.034e+04 4.666e-09
 13.36269    206.0 1.047e+04 5.371e-09
 13.38275    206.6 1.057e+04 6.060e-09
 13.40281    207.2 1.068e+04 6.736e-09
 13.42234    207.9 1.079e+04 7.402e-09
 13.43237    208.5 1.058e+04 6.167e-09
 13.44294    209.1 1.070e+04 6.882e-09
 13.46301    209.7 1.085e+04 7.617e-09
 13.48307    210.2 1.101e+04 8.199e-09
 13.50314    210.5 1.112e+04 8.287e-09
 13.51518    210.8 1.113e+04 8.209e-09
 13.52521    211.5 1.115e+04 8.437e-09
 13.54326    211.7 1.115e+04 8.379e-09
 13.56333    211.9 1.112e+04 8.036e-09
 13.58339    212.2 1.100e+04 7.215e-09
 13.59798    212.7 1.080e+04 6.128e-09
 13.60801    213.3 1.094e+04 7.390e-09
 13.62352    213.7 1.072e+04 6.227e-09
 13.64359    214.2 1.048e+04 5.025e-09
 13.66365    214.6 1.024e+04 3.987e-09
 13.68079    214.9 1.001e+04 3.285e-09
 13.69082    215.4 1.023e+04 4.368e-09
 13.70378    215.6 1.010e+04 4.144e-09
 13.72384    215.8 1.010e+04 4.145e-09
 13.74391    215.9 1.010e+04 4.210e-09
 13.76359    216.0 1.012e+04 4.489e-09
 13.77362    216.2 1.037e+04 5.966e-09
 13.78404    216.2 1.039e+04 6.422e-09
 13.80410    216.2 1.043e+04 7.030e-09
 13.82416    216.2 1.048e+04 7.682e-09
 13.84423    216.2 1.053e+04 8.259e-09
 13.85643    216.2 1.057e+04 8.670e-09
 13.86646    215.9 1.060e+04 8.914e-09
 13.88436    215.9 1.062e+04 9.357e-09
 13.90442    215.9 1.064e+04 9.982e-09
 13.92449    216.1 1.070e+04 1.088e-08
 13.93648    216.4 1.081e+04 1.208e-08
 13.94119    216.1 1.101e+04 1.322e-08
 13.94927    216.1 1.069e+04 1.196e-08
 13.96461    216.6 1.074e+04 1.280e-08
 13.98468    217.2 1.084e+04 1.380e-08
 14.00474    217.4 1.098e+04 1.502e-08
 14.02204    217.3 1.120e+04 1.712e-08
 14.03207    217.5 1.075e+04 1.118e-08
 14.04487    217.2 1.117e+04 1.401e-08
 14.06493    216.4 1.193e+04 2.048e-08
 14.08500    215.3 1.321e+04 3.536e-08
 14.10485    213.7 1.488e+04 7.030e-08
 14.11488    213.4 1.423e+04 4.509e-08
 14.12513    211.2 1.569e+04 8.423e-08
 14.14519    208.1 1.675e+04 1.088e-07
 14.16526    203.9 1.690e+04 1.066e-07
 14.18532    199.8 1.674e+04 8.671e-08
 14.19768    196.2 1.600e+04 4.955e-08
 14.20771    196.8 1.532e+04 3.993e-08
 14.22545    193.4 1.415e+04 2.075e-08
 14.24551    190.1 1.246e+04 1.018e-08
 14.26558    187.3 1.086e+04 6.100e-09
 14.28049    185.7 1.029e+04 4.744e-09
 14.29052    187.1 1.043e+04 5.234e-09
 14.30571    186.1 1.022e+04 4.579e-09
 14.32577    185.7 1.016e+04 4.202e-09
 14.34583    185.3 1.011e+04 3.934e-09
 14.36329    185.1 1.007e+04 3.856e-09
 14.37333    185.9 1.015e+04 4.428e-09
 14.38596    185.6 1.015e+04 4.446e-09
 14.40603    185.4 1.019e+04 4.558e-09
 14.42609    185.2 1.029e+04 4.911e-09
 14.44610    185.0 1.045e+04 5.573e-09
 14.46616    185.3 1.086e+04 8.229e-09
 14.48628    185.1 1.122e+04 1.066e-08
 14.50635    184.8 1.171e+04 1.438e-08
 14.52641    184.7 1.232e+04 1.947e-08
 14.53894    184.6 1.301e+04 2.516e-08
 14.54897    185.1 1.342e+04 3.374e-08
 14.56654    184.7 1.423e+04 4.244e-08
 14.58661    184.0 1.493e+04 4.982e-08
 14.60667    182.8 1.549e+04 5.480e-08
 14.62174    181.5 1.583e+04 5.842e-08
 14.63177    182.0 1.651e+04 1.059e-07
 14.64680    180.9 1.672e+04 1.246e-07
 14.66686    180.1 1.681e+04 1.444e-07
 14.68693    179.6 1.685e+04 1.586e-07
 14.70455    179.2 1.684e+04 1.592e-07
 14.71453    179.5 1.725e+04 2.060e-07
 14.72701    179.5 1.751e+04 2.223e-07
 14.74712    179.1 1.731e+04 1.961e-07
 14.76718    178.9 1.702e+04 1.571e-07
 14.78725    178.6 1.678e+04 1.196e-07
 14.79738    177.9 1.652e+04 8.728e-08
 14.80741    177.8 1.725e+04 1.273e-07
 14.82738    176.7 1.692e+04 9.304e-08
 14.84744    176.0 1.626e+04 6.303e-08
 14.86751    176.0 1.532e+04 3.975e-08
 14.88019    176.1 1.420e+04 2.387e-08
 14.89022    175.7 1.493e+04 3.183e-08
 14.90763    176.2 1.376e+04 1.815e-08
 14.92770    176.9 1.282e+04 1.144e-08
 14.95789    177.8 1.247e+04 8.178e-09
 14.99812    179.6 1.216e+04 6.429e-09
 15.03596    181.5 1.206e+04 5.766e-09
 15.05603    180.3 1.234e+04 5.329e-09
 15.07838    182.1 1.221e+04 4.334e-09
 15.11850    183.8 1.214e+04 3.673e-09
 15.15863    185.4 1.213e+04 3.233e-09
 15.19876    187.0 1.213e+04 2.870e-09
 15.22164    188.5 1.208e+04 2.496e-09
 15.24170    187.8 1.205e+04 2.101e-09
 15.27902    189.6 1.190e+04 1.976e-09
 15.31915    191.4 1.176e+04 1.801e-09
 15.35927    193.1 1.164e+04 1.607e-09
 15.38725    194.7 1.157e+04 1.432e-09
 15.40731    194.6 1.165e+04 1.673e-09
 15.43953    196.1 1.161e+04 1.525e-09
 15.47966    197.4 1.156e+04 1.355e-09
 15.51979    198.9 1.151e+04 1.174e-09
 15.55286    200.5 1.147e+04 1.005e-09
 15.57292    200.2 1.151e+04 1.264e-09
 15.60005    201.8 1.148e+04 1.044e-09
 15.64017    203.4 1.146e+04 8.828e-10
 15.68030    205.1 1.146e+04 8.246e-10
 15.71847    206.9 1.145e+04 8.243e-10
 15.73853    206.8 1.163e+04 8.812e-10
 15.76056    208.6 1.164e+04 8.830e-10
 15.80069    210.3 1.168e+04 8.939e-10
 15.84082    212.1 1.175e+04 9.278e-10
 15.88095    214.0 1.181e+04 9.988e-10
 15.90414    216.0 1.188e+04 1.120e-09
 15.92421    216.1 1.201e+04 1.050e-09
 15.96120    218.2 1.208e+04 1.202e-09
 16.00133    220.3 1.214e+04 1.425e-09
 16.04146    222.4 1.215e+04 1.720e-09
 16.06975    224.4 1.214e+04 2.102e-09
 16.08982    224.7 1.219e+04 1.893e-09
 16.12172    226.6 1.222e+04 2.348e-09
 16.16185    228.4 1.228e+04 2.987e-09
 16.20197    229.8 1.241e+04 3.789e-09
 16.23536    230.5 1.258e+04 4.441e-09
 16.25543    230.7 1.270e+04 3.604e-09
 16.28223    230.7 1.271e+04 3.603e-09
 16.32236    230.7 1.275e+04 3.453e-09
 16.36249    230.6 1.279e+04 3.107e-09
 16.40097    230.4 1.283e+04 2.681e-09
 16.42104    230.8 1.295e+04 2.212e-09
 16.44274    230.7 1.298e+04 1.756e-09
 16.48287    230.7 1.284e+04 1.633e-09
 16.52300    231.1 1.282e+04 1.645e-09
 16.56313    232.0 1.284e+04 1.685e-09
 16.58665    233.1 1.289e+04 1.822e-09
 16.60671    234.0 1.292e+04 1.604e-09
 16.64339    235.2 1.298e+04 1.877e-09
 16.68352    236.3 1.305e+04 2.251e-09
 16.72364    237.2 1.310e+04 2.671e-09
 16.75226    237.9 1.313e+04 3.093e-09
 16.77232    238.6 1.323e+04 3.230e-09
 16.80390    239.0 1.327e+04 3.654e-09
 16.84403    239.2 1.329e+04 3.951e-09
 16.88416    239.5 1.330e+04 4.109e-09
 16.91787    239.9 1.329e+04 4.208e-09
 16.93793    240.4 1.345e+04 4.511e-09
 16.96442    240.8 1.352e+04 4.621e-09
 17.00454    241.3 1.363e+04 4.799e-09
 17.04467    241.5 1.382e+04 4.955e-09
 17.08348    241.4 1.398e+04 4.923e-09
 17.10354    241.6 1.404e+04 4.685e-09
 17.12493    241.0 1.413e+04 4.376e-09
 17.16506    240.4 1.419e+04 3.580e-09
 17.20519    240.0 1.410e+04 2.628e-09
 17.24532    239.8 1.396e+04 1.951e-09
 17.26915    239.8 1.387e+04 1.791e-09
 17.28922    239.9 1.377e+04 1.653e-09
 17.32557    240.2 1.379e+04 1.653e-09
 17.36570    240.3 1.393e+04 1.788e-09
 17.40583    240.2 1.407e+04 2.136e-09
 17.43476    239.9 1.416e+04 2.640e-09
 17.45483    239.7 1.411e+04 2.719e-09
 17.48609    238.7 1.409e+04 3.316e-09
 17.52621    237.2 1.398e+04 3.702e-09
 17.56634    235.3 1.392e+04 3.760e-09
 17.60037    233.0 1.386e+04 3.719e-09
 17.62044    232.8 1.376e+04 3.200e-09
 17.64660    230.3 1.364e+04 3.091e-09
 17.68673    227.5 1.346e+04 3.069e-09
 17.72686    224.6 1.331e+04 3.095e-09
 17.76598    221.9 1.322e+04 3.142e-09
 17.78605    222.7 1.326e+04 3.427e-09
 17.80711    220.4 1.312e+04 3.438e-09
 17.84724    218.4 1.290e+04 3.472e-09
 17.88737    216.7 1.280e+04 3.530e-09
 17.92750    215.5 1.263e+04 3.726e-09
 17.95166    214.5 1.253e+04 4.016e-09
 17.97172    215.6 1.251e+04 3.454e-09
 18.00776    215.0 1.247e+04 4.048e-09
 18.04789    214.2 1.249e+04 4.371e-09
 18.08801    213.5 1.242e+04 4.224e-09
 18.11727    213.5 1.219e+04 3.416e-09
 18.13733    214.4 1.241e+04 3.884e-09
 18.16827    214.6 1.220e+04 2.767e-09
 18.20840    215.0 1.208e+04 1.486e-09
 18.24853    215.7 1.207e+04 6.893e-10
 18.28288    216.6 1.178e+04 4.464e-10
 18.30294    217.4 1.196e+04 4.873e-10
 18.32879    218.9 1.170e+04 4.372e-10
 18.36891    221.1 1.167e+04 4.361e-10
 18.40904    223.5 1.166e+04 4.409e-10
 18.44849    225.9 1.163e+04 4.680e-10
 18.46855    226.6 1.163e+04 4.867e-10
 18.48930    229.0 1.159e+04 5.394e-10
 18.52943    231.2 1.157e+04 6.206e-10
 18.56956    233.4 1.157e+04 7.261e-10
 18.60968    235.5 1.158e+04 8.592e-10
 18.63416    237.5 1.162e+04 1.019e-09
 18.65423    238.2 1.159e+04 9.628e-10
 18.68994    240.0 1.164e+04 1.089e-09
 18.73007    241.6 1.169e+04 1.213e-09
 18.77020    243.1 1.172e+04 1.325e-09
 18.79977    244.4 1.177e+04 1.418e-09
 18.81984    245.2 1.175e+04 1.206e-09
 18.85046    246.6 1.181e+04 1.269e-09
 18.88531    247.9 1.188e+04 1.339e-09
 18.90538    247.6 1.180e+04 1.272e-09
 18.93071    248.8 1.187e+04 1.360e-09
 18.96538    249.9 1.196e+04 1.451e-09
 18.98545    251.1 1.194e+04 1.390e-09
 19.01097    252.3 1.204e+04 1.512e-09
 19.05110    253.3 1.219e+04 1.662e-09
 19.09123    254.0 1.237e+04 1.874e-09
 19.12123    254.1 1.246e+04 1.997e-09
 19.14083    254.8 1.252e+04 2.162e-09
 19.15086    255.5 1.247e+04 2.098e-09
 19.16126    256.4 1.256e+04 2.417e-09
 19.18132    257.2 1.275e+04 3.105e-09
 19.20139    257.4 1.295e+04 4.360e-09
 19.22145    257.4 1.321e+04 6.803e-09
 19.23367    256.9 1.367e+04 1.199e-08
 19.24370    257.6 1.352e+04 9.574e-09
 19.26158    256.7 1.424e+04 1.867e-08
 19.28164    255.4 1.510e+04 3.523e-08
 19.30171    253.6 1.587e+04 5.483e-08
 19.31647    251.1 1.623e+04 6.051e-08
 19.32650    251.0 1.629e+04 6.072e-08
 19.34183    248.1 1.628e+04 5.938e-08
 19.36190    245.7 1.597e+04 5.050e-08
 19.38196    244.1 1.524e+04 3.496e-08
 19.39928    243.0 1.432e+04 2.201e-08
 19.40931    242.7 1.428e+04 2.215e-08
 19.42209    242.2 1.352e+04 1.548e-08
 19.44216    242.0 1.344e+04 1.296e-08
 19.46222    242.0 1.342e+04 1.205e-08
 19.48218    241.4 1.336e+04 1.150e-08
 19.50234    240.5 1.310e+04 9.017e-09
 19.53264    239.9 1.280e+04 7.385e-09
 19.57277    239.9 1.249e+04 6.180e-09
 19.61290    240.4 1.222e+04 5.631e-09
 19.64789    241.5 1.217e+04 5.625e-09
 19.66795    241.7 1.172e+04 2.732e-09
 19.69315    243.3 1.167e+04 2.837e-09
 19.73328    244.9 1.166e+04 3.037e-09
 19.77341    246.4 1.165e+04 3.265e-09
 19.81350    247.8 1.164e+04 3.259e-09
 19.85363    250.0 1.131e+04 2.042e-09
 19.89380    251.5 1.128e+04 2.042e-09
 19.93393    252.9 1.122e+04 1.995e-09
 19.97405    254.4 1.118e+04 1.910e-09
 19.99917    255.9 1.116e+04 1.837e-09
 20.01924    256.6 1.101e+04 1.688e-09
 20.05431    258.0 1.100e+04 1.766e-09
 20.09444    259.3 1.105e+04 1.863e-09
 20.13457    260.5 1.110e+04 1.989e-09
 20.16478    261.6 1.115e+04 2.160e-09
 20.18485    262.2 1.110e+04 2.504e-09
 20.21483    263.0 1.118e+04 2.821e-09
 20.25495    263.7 1.121e+04 3.121e-09
 20.29508    264.3 1.117e+04 3.349e-09
 20.33039    264.8 1.109e+04 3.454e-09
 20.35046    265.4 1.120e+04 4.078e-09
 20.37534    265.9 1.113e+04 4.046e-09
 20.41547    266.5 1.101e+04 4.039e-09
 20.45560    267.3 1.098e+04 4.098e-09
 20.49573    267.9 1.097e+04 4.313e-09
 20.51607    268.3 1.099e+04 4.521e-09
 20.53613    268.2 1.103e+04 4.819e-09
 20.57598    268.1 1.099e+04 4.735e-09
 20.61611    268.0 1.088e+04 4.399e-09
 20.65624    268.1 1.068e+04 3.784e-09
 20.68168    268.5 1.044e+04 3.031e-09
 20.70174    268.2 1.036e+04 3.028e-09
 20.73650    269.0 1.013e+04 2.438e-09
 20.77662    270.0 9.935e+03 2.027e-09
 20.81675    271.2 9.817e+03 1.820e-09
 20.84729    272.5 9.780e+03 1.731e-09
 20.86735    272.1 9.708e+03 1.597e-09
 20.89701    273.2 9.683e+03 1.451e-09
 20.93714    274.1 9.665e+03 1.307e-09
 20.97727    275.0 9.648e+03 1.152e-09
 21.01290    275.8 9.639e+03 9.992e-10
 21.03296    275.3 9.417e+03 8.629e-10
 21.05752    276.2 9.400e+03 7.696e-10
 21.09765    277.2 9.313e+03 7.515e-10
 21.13778    278.2 9.297e+03 7.523e-10
 21.17791    279.4 9.258e+03 7.652e-10
 21.19857    280.5 9.155e+03 8.198e-10
 21.21864    280.6 9.092e+03 8.253e-10
 21.25817    281.8 9.081e+03 9.250e-10
 21.29830    283.0 9.091e+03 1.058e-09
 21.33842    284.1 9.128e+03 1.197e-09
 21.36418    284.5 9.189e+03 1.276e-09
 21.38425    284.8 9.250e+03 1.419e-09
 21.41868    284.7 9.265e+03 1.421e-09
 21.45881    284.4 9.269e+03 1.401e-09
 21.49894    283.8 9.268e+03 1.325e-09
 21.52979    282.8 9.237e+03 1.215e-09
 21.54986    283.0 9.318e+03 1.396e-09
 21.57920    281.8 9.221e+03 1.300e-09
 21.61932    280.6 9.200e+03 1.305e-09
 21.65945    279.6 9.175e+03 1.372e-09
 21.69540    278.8 9.185e+03 1.514e-09
 21.71547    278.9 9.215e+03 1.500e-09
 21.73971    278.3 9.217e+03 1.595e-09
 21.77984    277.6 9.256e+03 1.707e-09
 21.81997    276.8 9.310e+03 1.809e-09
 21.86009    275.9 9.347e+03 1.888e-09
 21.88108    274.7 9.378e+03 1.973e-09
 21.90114    274.8 9.418e+03 1.866e-09
 21.94035    273.4 9.533e+03 2.083e-09
 21.98048    271.6 9.717e+03 2.323e-09
 22.02061    269.5 9.950e+03 2.534e-09
 22.04669    266.8 1.018e+04 2.653e-09
 22.06675    265.3 1.024e+04 2.862e-09
 22.10087    262.1 1.025e+04 2.839e-09
 22.14099    259.0 1.016e+04 2.778e-09
 22.17099    257.1 1.000e+04 2.803e-09
 22.19096    255.7 9.922e+03 2.923e-09
 22.21102    254.5 9.943e+03 3.159e-09
 22.22214    253.3 1.007e+04 3.495e-09
 22.23217    253.5 1.022e+04 3.889e-09
 22.25115    252.3 1.035e+04 4.279e-09
 22.27122    251.2 1.048e+04 4.707e-09
 22.29128    250.1 1.060e+04 5.073e-09
 22.30494    249.1 1.069e+04 5.215e-09
 22.31497    249.2 1.072e+04 5.228e-09
 22.33141    248.0 1.071e+04 5.204e-09
 22.35147    246.8 1.067e+04 5.188e-09
 22.37154    245.6 1.067e+04 5.209e-09
 22.38775    244.3 1.069e+04 5.346e-09
 22.39778    244.4 1.064e+04 5.157e-09
 22.41167    242.6 1.079e+04 5.712e-09
 22.43173    239.6 1.137e+04 8.380e-09
 22.45180    235.3 1.302e+04 1.789e-08
 22.47055    230.7 1.480e+04 3.924e-08
 22.48058    230.9 1.477e+04 3.953e-08
 22.49192    226.3 1.621e+04 6.432e-08
 22.51199    221.0 1.673e+04 6.677e-08
 22.53205    215.4 1.670e+04 5.905e-08
 22.55212    210.3 1.608e+04 3.643e-08
 22.56339    204.8 1.495e+04 1.717e-08
 22.57342    205.0 1.504e+04 1.845e-08
 22.59224    198.6 1.353e+04 8.622e-09
 22.62244    188.7 1.250e+04 5.551e-09
 22.64629    182.9 1.178e+04 4.801e-09
 22.65623    183.0 1.202e+04 5.483e-09
 22.67250    180.1 1.162e+04 5.252e-09
 22.69257    177.8 1.124e+04 4.882e-09
 22.71263    175.8 1.096e+04 4.618e-09
 22.72900    174.0 1.092e+04 4.602e-09
 22.73903    173.5 1.110e+04 5.152e-09
 22.75276    171.7 1.109e+04 5.163e-09
 22.77282    169.9 1.110e+04 5.239e-09
 22.79289    168.2 1.113e+04 5.318e-09
 22.81180    166.4 1.113e+04 5.298e-09
 22.82184    165.4 1.112e+04 5.084e-09
 22.83302    163.7 1.104e+04 4.518e-09
 22.85308    161.9 1.095e+04 3.814e-09
 22.87314    160.0 1.086e+04 3.152e-09
 22.89321    157.9 1.068e+04 2.732e-09
 22.90464    155.7 1.043e+04 2.675e-09
 22.91467    154.4 1.018e+04 2.587e-09
 22.93334    152.4 1.020e+04 2.776e-09
 22.95340    150.6 1.029e+04 3.169e-09
 22.97347    149.0 1.041e+04 3.685e-09
 22.98745    147.0 1.073e+04 4.540e-09
 22.99748    145.5 1.108e+04 5.813e-09
 23.01359    141.6 1.251e+04 1.137e-08
 23.03366    137.3 1.432e+04 2.695e-08
 23.05372    133.3 1.569e+04 5.224e-08
 23.07025    129.1 1.644e+04 6.055e-08
 23.08028    126.5 1.663e+04 6.175e-08
 23.09385    121.0 1.652e+04 5.150e-08
 23.11392    115.0 1.560e+04 3.100e-08
 23.13398    108.6 1.385e+04 1.635e-08
 23.15306    102.7 1.183e+04 1.043e-08
 23.16309    100.7 1.117e+04 9.171e-09
 23.17411     97.2 1.106e+04 9.101e-09
 23.19417     95.2 1.113e+04 9.622e-09
 23.22437     91.0 1.180e+04 1.378e-08
 23.24609     86.0 1.226e+04 1.704e-08
 23.26615     84.7 1.213e+04 1.687e-08
 23.30472     79.8 1.197e+04 1.533e-08
 23.34485     75.8 1.086e+04 8.499e-09
 23.38498     71.4 8.758e+03 2.886e-09
 23.41170     67.1 7.279e+03 1.497e-09
 23.43176     66.2 7.294e+03 1.540e-09
 23.46524     65.1 7.262e+03 1.560e-09
 23.50536     64.5 7.322e+03 1.682e-09
 23.54549     63.6 7.540e+03 1.965e-09
 23.57731     62.3 8.015e+03 2.655e-09
 23.59737     61.4 8.169e+03 2.824e-09
 23.62575     60.1 8.887e+03 4.295e-09
 23.66588     59.2 9.250e+03 5.108e-09
 23.70601     58.6 9.209e+03 4.804e-09
 23.74292     58.0 9.017e+03 3.698e-09
 23.76299     56.8 9.008e+03 3.606e-09
 23.78626     55.9 8.806e+03 2.663e-09
 23.82639     55.1 8.708e+03 2.191e-09
 23.85402     54.7 8.765e+03 2.077e-09
 23.87408     56.8 8.522e+03 1.660e-09
 23.90665     56.2 8.638e+03 1.522e-09
 23.92860     55.1 8.850e+03 1.618e-09
 23.94866     53.6 8.768e+03 1.395e-09
 23.98691     52.6 9.137e+03 1.860e-09
 24.02703     51.2 9.638e+03 2.902e-09
 24.06716     49.3 9.989e+03 4.481e-09
 24.09421     47.5 1.001e+04 5.471e-09
 24.11427     46.8 9.522e+03 3.711e-09
 24.14742     45.0 9.652e+03 4.408e-09
 24.18755     43.1 9.841e+03 5.165e-09
 24.22768     41.3 9.930e+03 5.882e-09
 24.25982     38.8 1.042e+04 8.401e-09
 24.27988     38.2 1.118e+04 1.178e-08
 24.30793     34.7 1.211e+04 1.601e-08
 24.33793     29.7 1.284e+04 1.952e-08
 24.35246     28.8 1.234e+04 1.813e-08
 24.36249     29.1 1.246e+04 1.791e-08
 24.37796     27.5 1.210e+04 1.676e-08
 24.39803     25.8 1.201e+04 1.432e-08
 24.41809     20.7 1.298e+04 1.643e-08
 24.43526     16.6 1.303e+04 1.885e-08
 24.44530     17.0 1.283e+04 1.885e-08
 24.45822     15.2 1.247e+04 1.952e-08
 24.47829     12.5 1.319e+04 1.928e-08
 24.49835      7.9 1.358e+04 1.656e-08
 24.51807      4.8 1.226e+04 1.557e-08
 24.52810      5.1 1.232e+04 1.574e-08
 24.53848      3.8 1.251e+04 1.944e-08
 24.55854      0.1 1.482e+04 2.535e-08
 24.57861     -4.5 1.536e+04 4.287e-08
 24.59867     -6.5 1.578e+04 6.329e-08
 24.61091     -8.3 1.621e+04 6.870e-08
 24.62094     -7.2 1.608e+04 5.729e-08
 24.63880    -10.9 1.639e+04 4.852e-08
 24.65886    -15.6 1.483e+04 3.426e-08
 24.67893    -18.5 1.388e+04 2.958e-08
 24.69371    -20.1 1.330e+04 2.626e-08
 24.70374    -19.6 1.344e+04 2.932e-08
 24.71906    -20.7 1.297e+04 2.438e-08
 24.73912    -21.5 1.230e+04 1.903e-08
 24.75918    -22.2 1.180e+04 1.472e-08
 24.77652    -22.8 1.149e+04 1.201e-08
 24.78655    -22.6 1.181e+04 1.280e-08
 24.79931    -23.0 1.175e+04 1.154e-08
 24.81938    -23.1 1.173e+04 1.073e-08
 24.83944    -23.4 1.163e+04 9.679e-09
 24.85932    -24.0 1.167e+04 9.237e-09
 24.86935    -24.2 1.146e+04 8.374e-09
 24.87957    -25.4 1.118e+04 7.690e-09
 24.89963    -26.3 1.076e+04 7.107e-09
 24.91970    -26.3 1.067e+04 7.056e-09
 24.93976    -26.5 1.037e+04 6.584e-09
 24.95216    -26.2 1.021e+04 6.137e-09
 24.96219    -25.7 1.038e+04 6.497e-09
 24.97989    -25.4 1.017e+04 5.844e-09
 24.99996    -25.2 9.925e+03 5.192e-09
 25.02002    -24.8 9.836e+03 4.917e-09
 25.03496    -24.5 9.912e+03 4.967e-09
 25.04500    -24.0 9.909e+03 5.293e-09
 25.06015    -23.7 9.783e+03 5.038e-09
 25.08021    -22.5 9.934e+03 5.304e-09
 25.10783    -24.2 9.742e+03 5.121e-09
 25.12800    -23.4 1.015e+04 6.159e-09
 25.14050    -23.7 9.872e+03 5.240e-09
 25.16047    -23.1 9.842e+03 5.122e-09
 25.18053    -23.1 9.712e+03 4.659e-09
 25.20057    -23.1 9.704e+03 4.579e-09
 25.22064    -23.1 9.711e+03 4.349e-09
 25.24073    -23.4 9.691e+03 4.286e-09
 25.26079    -24.4 9.477e+03 3.935e-09
 25.28086    -23.9 9.845e+03 4.353e-09
 25.29341    -25.0 1.034e+04 5.324e-09
 25.30344    -23.8 9.901e+03 4.155e-09
 25.32098    -24.9 1.040e+04 5.423e-09
 25.34105    -25.8 1.110e+04 7.610e-09
 25.36111    -27.2 1.177e+04 1.067e-08
 25.37622    -28.7 1.205e+04 1.397e-08
 25.38625    -27.6 1.185e+04 1.181e-08
 25.40124    -28.8 1.202e+04 1.409e-08
 25.42131    -29.9 1.227e+04 1.719e-08
 25.44137    -30.7 1.265e+04 1.943e-08
 25.45902    -31.8 1.262e+04 1.938e-08
 25.46905    -30.7 1.259e+04 1.909e-08
 25.48150    -31.3 1.257e+04 1.706e-08
 25.50156    -31.9 1.231e+04 1.326e-08
 25.52163    -31.5 1.225e+04 1.120e-08
 25.55182    -33.1 1.180e+04 7.583e-09
 25.59205    -34.2 1.082e+04 3.000e-09
 25.62483    -34.6 1.044e+04 1.751e-09
 25.64489    -32.2 1.047e+04 1.787e-09
 25.67230    -31.8 1.037e+04 1.608e-09
 25.71243    -31.1 1.043e+04 1.796e-09
 25.75256    -30.6 1.054e+04 2.453e-09
 25.79044    -30.2 1.060e+04 3.022e-09
 25.81050    -27.3 1.071e+04 3.043e-09
 25.83282    -27.4 1.065e+04 3.302e-09
 25.87295    -27.8 1.070e+04 3.388e-09
 25.91307    -28.1 1.059e+04 3.300e-09
 25.95320    -28.3 1.039e+04 3.052e-09
 25.97611    -28.2 1.012e+04 2.592e-09
 25.99618    -25.6 1.028e+04 3.082e-09
 26.03346    -25.2 9.887e+03 2.287e-09
 26.07359    -24.6 9.508e+03 1.391e-09
 26.11372    -24.7 9.354e+03 8.811e-10
 26.14172    -25.3 9.441e+03 7.801e-10
 26.16179    -23.2 9.862e+03 9.162e-10
 26.19397    -24.7 1.040e+04 1.438e-09
 26.23410    -26.4 1.107e+04 3.437e-09
 26.27423    -28.1 1.163e+04 5.927e-09
 26.30733    -30.5 1.177e+04 6.559e-09
 26.32740    -28.7 1.165e+04 6.183e-09
 26.33827    -32.0 1.143e+04 5.635e-09
 26.34820    -31.3 1.148e+04 6.108e-09
 26.36433    -31.0 1.123e+04 5.570e-09
 26.38439    -32.1 1.074e+04 4.123e-09
 26.39997    -31.8 1.080e+04 3.792e-09
 26.41001    -30.8 1.080e+04 3.812e-09
 26.42452    -32.1 1.063e+04 3.572e-09
 26.44458    -32.6 1.063e+04 3.561e-09
 26.46465    -33.2 1.076e+04 4.034e-09
 26.48278    -33.6 1.093e+04 4.792e-09
 26.49281    -32.3 1.080e+04 4.564e-09
 26.50478    -32.8 1.098e+04 5.308e-09
 26.52484    -33.5 1.112e+04 6.039e-09
 26.54490    -34.3 1.122e+04 6.774e-09
 26.56497    -35.3 1.132e+04 7.495e-09
 26.57562    -36.6 1.142e+04 8.175e-09
 26.58565    -35.5 1.149e+04 8.633e-09
 26.60510    -37.2 1.157e+04 9.246e-09
 26.62516    -39.0 1.158e+04 9.474e-09
 26.64523    -40.9 1.142e+04 9.346e-09
 26.65842    -42.7 1.115e+04 8.557e-09
 26.66845    -41.5 1.132e+04 9.322e-09
 26.68535    -43.1 1.116e+04 8.899e-09
 26.70542    -44.6 1.108e+04 8.795e-09
 26.72548    -45.9 1.105e+04 8.798e-09
 26.74123    -47.0 1.098e+04 8.722e-09
 26.75126    -45.9 1.145e+04 1.113e-08
 26.76561    -46.8 1.125e+04 1.068e-08
 26.78567    -47.7 1.093e+04 9.232e-09
 26.80574    -49.1 1.078e+04 7.996e-09
 26.82403    -51.6 1.083e+04 7.670e-09
 26.83406    -50.2 1.099e+04 8.179e-09
 26.84587    -53.9 1.145e+04 8.517e-09
 26.86593    -57.7 1.267e+04 1.332e-08
 26.88600    -60.6 1.357e+04 2.203e-08
 26.90606    -63.1 1.401e+04 2.830e-08
 26.91687    -65.8 1.407e+04 2.956e-08
 26.92690    -64.3 1.403e+04 2.909e-08
 26.94619    -66.8 1.363e+04 2.629e-08
 26.96625    -69.1 1.289e+04 1.854e-08
 26.98632    -71.4 1.213e+04 1.234e-08
 26.99967    -73.6 1.153e+04 8.575e-09
 27.00971    -72.1 1.135e+04 7.803e-09
 27.02645    -73.9 1.096e+04 5.983e-09
 27.04651    -75.3 1.078e+04 5.059e-09
 27.06657    -76.3 1.077e+04 4.627e-09
 27.08248    -77.2 1.080e+04 4.495e-09
 27.09251    -75.5 1.059e+04 4.277e-09
 27.10670    -76.2 1.087e+04 4.307e-09
 27.12677    -76.8 1.105e+04 4.750e-09
 27.14683    -77.2 1.120e+04 5.548e-09
 27.16528    -77.4 1.128e+04 6.658e-09
 27.17532    -75.9 1.121e+04 5.667e-09
 27.18696    -76.1 1.130e+04 7.054e-09
 27.20702    -76.2 1.146e+04 8.957e-09
 27.22709    -76.2 1.172e+04 1.139e-08
 27.24715    -76.4 1.207e+04 1.412e-08
 27.25812    -76.7 1.238e+04 1.679e-08
 27.26815    -75.3 1.254e+04 1.694e-08
 27.28728    -75.5 1.284e+04 1.955e-08
 27.30735    -75.7 1.299e+04 2.067e-08
 27.32741    -75.9 1.302e+04 2.075e-08
 27.34093    -75.9 1.286e+04 1.808e-08
 27.35096    -74.5 1.316e+04 1.991e-08
 27.36754    -74.5 1.271e+04 1.657e-08
 27.38760    -74.8 1.228e+04 1.332e-08
 27.40767    -75.7 1.195e+04 1.105e-08
 27.42373    -77.1 1.187e+04 1.026e-08
 27.43376    -75.2 1.237e+04 1.116e-08
 27.44780    -77.1 1.252e+04 1.096e-08
 27.46786    -78.9 1.295e+04 1.228e-08
 27.48792    -80.0 1.319e+04 1.469e-08
 27.50654    -80.0 1.334e+04 1.641e-08
 27.51657    -77.3 1.373e+04 1.686e-08
 27.52805    -76.3 1.394e+04 1.745e-08
 27.54812    -80.1 2.108e+04 1.665e-08
 27.56312    -99.7 4.543e+04 1.238e-08
 27.57310   -117.2 3.550e+04 1.340e-07
 27.58025   -130.3 2.156e+04 2.241e-06
 27.58527   -126.1 2.303e+04 1.831e-06
 27.59316   -139.3 1.888e+04 7.505e-06
 27.59925   -151.2 1.810e+04 1.133e-05
 27.60174   -153.7 1.857e+04 1.050e-05
 27.60565   -160.3 1.883e+04 1.080e-05
 27.61067   -172.0 1.866e+04 9.437e-06
 27.61569   -178.7 2.006e+04 6.343e-06
 27.61993   -190.2 2.283e+04 3.155e-06
 27.62244   -194.1 2.426e+04 2.247e-06
 27.62572   -203.2 2.979e+04 1.139e-06
 27.63074   -220.5 3.117e+04 6.891e-07
 27.63575   -228.6 3.397e+04 5.683e-07
 27.64063   -240.0 3.014e+04 7.680e-07
 27.64567   -246.6 2.680e+04 7.152e-07
 27.65336   -250.0 2.178e+04 1.551e-06
 27.66339   -252.3 2.082e+04 2.166e-06
 27.67342   -253.4 2.050e+04 2.312e-06
 27.68208   -253.8 2.031e+04 1.910e-06
 27.68710   -251.5 2.073e+04 1.532e-06
 27.69348   -251.3 2.054e+04 1.231e-06
 27.70352   -250.3 2.062e+04 8.632e-07
 27.71355   -248.1 2.075e+04 5.648e-07
 27.72348   -246.0 2.091e+04 3.708e-07
 27.72850   -244.4 2.077e+04 3.869e-07
 27.73361   -242.8 2.076e+04 2.683e-07
 27.74365   -241.5 2.051e+04 1.901e-07
 27.75368   -240.2 2.000e+04 1.385e-07
 27.76371   -238.9 1.930e+04 1.046e-07
 27.76990   -237.5 1.858e+04 8.261e-08
 27.77492   -236.7 1.857e+04 8.738e-08
 27.78377   -235.5 1.796e+04 7.091e-08
 27.79381   -234.3 1.744e+04 5.921e-08
 27.80384   -233.1 1.696e+04 5.051e-08
 27.81131   -232.0 1.651e+04 4.357e-08
 27.81632   -231.3 1.650e+04 4.441e-08
 27.82390   -230.4 1.605e+04 3.811e-08
 27.83393   -229.5 1.564e+04 3.332e-08
 27.84774   -228.9 1.511e+04 2.810e-08
 27.85782   -227.8 1.512e+04 2.891e-08
 27.86914   -226.2 1.382e+04 2.086e-08
 27.88921   -225.3 1.300e+04 1.691e-08
 27.90927   -224.3 1.261e+04 1.533e-08
 27.92934   -223.3 1.254e+04 1.524e-08
 27.94063   -222.3 1.256e+04 1.598e-08
 27.95066   -222.0 1.209e+04 1.358e-08
 27.96947   -221.3 1.204e+04 1.369e-08
 27.98953   -220.6 1.200e+04 1.386e-08
 28.00959   -220.0 1.188e+04 1.387e-08
 28.02343   -219.2 1.170e+04 1.329e-08
 28.03346   -219.4 1.120e+04 1.033e-08
 28.04972   -218.6 1.097e+04 9.292e-09
 28.06979   -217.9 1.071e+04 8.121e-09
 28.08985   -217.3 1.048e+04 7.054e-09
 28.10624   -216.8 1.033e+04 6.322e-09
 28.11627   -217.6 1.021e+04 6.042e-09
 28.12998   -217.3 1.022e+04 6.019e-09
 28.15004   -217.2 1.033e+04 6.109e-09
 28.17011   -217.1 1.050e+04 6.376e-09
 28.18904   -217.0 1.066e+04 6.712e-09
 28.19907   -217.4 1.068e+04 6.833e-09
 28.21024   -217.2 1.078e+04 7.088e-09
 28.23030   -216.8 1.080e+04 7.171e-09
 28.25037   -216.3 1.080e+04 7.168e-09
 28.27043   -215.6 1.066e+04 6.754e-09
 28.28188   -214.6 1.047e+04 5.879e-09
 28.29191   -214.9 1.052e+04 5.760e-09
 28.31056   -214.0 1.034e+04 4.928e-09
 28.33062   -213.0 1.023e+04 4.319e-09
 28.35069   -212.0 1.025e+04 4.015e-09
 28.36468   -210.9 1.027e+04 3.953e-09
 28.37472   -211.8 1.042e+04 4.080e-09
 28.39082   -211.0 1.048e+04 4.071e-09
 28.41088   -210.5 1.085e+04 4.231e-09
 28.43094   -210.0 1.126e+04 4.867e-09
 28.44749   -209.7 1.164e+04 5.872e-09
 28.45752   -211.8 1.177e+04 6.102e-09
 28.47107   -212.0 1.222e+04 7.568e-09
 28.49114   -212.5 1.261e+04 9.352e-09
 28.51120   -213.7 1.286e+04 1.122e-08
 28.53030   -215.6 1.301e+04 1.283e-08
 28.54033   -218.9 1.305e+04 1.309e-08
 28.55133   -221.8 1.302e+04 1.405e-08
 28.57139   -226.0 1.303e+04 1.497e-08
 28.59146   -232.0 1.358e+04 1.769e-08
 28.61152   -240.0 1.650e+04 2.687e-08
 28.62313   -249.1 1.909e+04 4.797e-08
 28.63316   -246.3 1.781e+04 3.979e-08
 28.65165   -254.3 1.891e+04 6.542e-08
 28.67172   -262.0 1.866e+04 8.546e-08
 28.69178   -268.1 1.832e+04 8.908e-08
 28.70594   -272.2 1.684e+04 7.666e-08
 28.71597   -269.0 1.737e+04 8.246e-08
 28.73191   -271.9 1.602e+04 5.753e-08
 28.75197   -274.1 1.440e+04 3.099e-08
 28.77204   -275.4 1.269e+04 1.581e-08
 28.78874   -276.1 1.142e+04 9.312e-09
 28.79877   -275.3 1.185e+04 1.098e-08
 28.81217   -276.0 1.102e+04 7.494e-09
 28.82252   -276.2 1.072e+04 6.320e-09
 28.83256   -277.1 1.115e+04 7.983e-09
 28.85229   -277.0 1.110e+04 7.860e-09
 28.87155   -276.8 1.109e+04 7.870e-09
 28.88158   -276.7 1.165e+04 1.090e-08
 28.89242   -276.6 1.158e+04 1.086e-08
 28.91249   -276.4 1.147e+04 1.063e-08
 28.93255   -276.1 1.130e+04 1.011e-08
 28.95261   -275.6 1.111e+04 9.386e-09
 28.96439   -275.2 1.097e+04 8.640e-09
 28.97442   -275.1 1.101e+04 8.676e-09
 28.99274   -274.7 1.085e+04 7.766e-09
 29.01281   -274.3 1.076e+04 7.210e-09
 29.03287   -274.1 1.071e+04 6.922e-09
 29.04719   -273.9 1.066e+04 6.774e-09
 29.05722   -273.7 1.060e+04 6.800e-09
 29.07300   -273.5 1.058e+04 6.650e-09
 29.09306   -273.3 1.054e+04 6.394e-09
 29.11313   -273.3 1.047e+04 6.036e-09
 29.13000   -273.2 1.041e+04 5.651e-09
 29.14003   -272.7 1.036e+04 5.708e-09
 29.15326   -272.7 1.029e+04 5.338e-09
 29.17332   -272.7 1.027e+04 5.122e-09
 29.19339   -272.7 1.027e+04 5.079e-09
 29.21280   -272.9 1.029e+04 5.086e-09
 29.22283   -272.2 1.017e+04 4.999e-09
 29.23351   -272.4 1.029e+04 5.177e-09
 29.25358   -272.6 1.063e+04 6.063e-09
 29.27364   -272.9 1.101e+04 7.485e-09
 29.29371   -273.2 1.136e+04 9.066e-09
 29.30564   -273.8 1.162e+04 1.036e-08
 29.31567   -273.2 1.166e+04 1.038e-08
 29.33384   -274.1 1.187e+04 1.122e-08
 29.35390   -275.3 1.193e+04 1.139e-08
 29.37396   -276.7 1.193e+04 1.133e-08
 29.38844   -278.1 1.184e+04 1.058e-08
 29.40860   -279.0 1.183e+04 1.062e-08
 29.44438   -281.6 1.153e+04 9.409e-09
 29.48451   -283.5 1.144e+04 8.559e-09
 29.52464   -285.7 1.156e+04 8.156e-09
 29.55425   -288.3 1.164e+04 8.063e-09
 29.57431   -287.7 1.199e+04 9.343e-09
 29.59477   -289.3 1.191e+04 8.680e-09
 29.61474   -290.6 1.206e+04 8.629e-09
 29.63480   -292.4 1.214e+04 8.535e-09
 29.64689   -294.0 1.218e+04 8.468e-09
 29.65692   -296.0 1.216e+04 9.314e-09
 29.67493   -297.7 1.196e+04 8.222e-09
 29.69499   -299.1 1.184e+04 7.058e-09
 29.71506   -300.3 1.180e+04 6.399e-09
 29.72970   -301.3 1.181e+04 6.249e-09
 29.73973   -302.2 1.177e+04 6.467e-09
 29.75519   -303.1 1.194e+04 6.541e-09
 29.77525   -304.0 1.234e+04 7.454e-09
 29.79531   -304.7 1.267e+04 9.063e-09
 29.81250   -305.4 1.292e+04 1.072e-08
 29.82253   -305.7 1.288e+04 1.233e-08
 29.83544   -306.1 1.293e+04 1.331e-08
 29.85551   -306.3 1.294e+04 1.348e-08
 29.87557   -306.4 1.291e+04 1.340e-08
 29.89531   -306.3 1.279e+04 1.222e-08
 29.90534   -306.4 1.268e+04 1.212e-08
 29.91570   -306.1 1.247e+04 1.020e-08
 29.93576   -305.9 1.225e+04 8.297e-09
 29.95583   -305.6 1.202e+04 6.686e-09
 29.97589   -305.2 1.179e+04 5.441e-09
 29.98814   -304.8 1.160e+04 4.533e-09
 29.99818   -304.8 1.139e+04 4.155e-09
 30.01602   -304.3 1.127e+04 3.484e-09
 30.03608   -303.6 1.124e+04 3.027e-09
 30.05615   -303.0 1.134e+04 2.817e-09
 30.07105   -302.9 1.142e+04 2.752e-09
 30.09121   -302.8 1.126e+04 2.369e-09
 30.12657   -302.4 1.128e+04 2.363e-09
 30.16670   -301.6 1.130e+04 2.386e-09
 30.20683   -300.9 1.132e+04 2.445e-09
 30.23675   -300.2 1.142e+04 2.568e-09
 30.25672   -301.1 1.148e+04 2.855e-09
 30.27686   -301.4 1.157e+04 3.423e-09
 30.29692   -301.6 1.178e+04 4.378e-09
 30.31698   -301.7 1.206e+04 5.712e-09
 30.32940   -301.7 1.240e+04 7.285e-09
 30.33943   -302.9 1.262e+04 8.065e-09
 30.35711   -303.2 1.289e+04 8.788e-09
 30.37718   -303.7 1.305e+04 9.084e-09
 30.39724   -304.3 1.312e+04 9.090e-09
 30.41220   -305.0 1.324e+04 8.500e-09
 30.42223   -306.7 1.312e+04 6.837e-09
 30.43737   -307.3 1.313e+04 6.072e-09
 30.45743   -307.7 1.309e+04 5.584e-09
 30.47750   -308.0 1.303e+04 5.415e-09
 30.49501   -308.1 1.298e+04 5.404e-09
 30.50504   -309.1 1.281e+04 5.284e-09
 30.51763   -308.9 1.286e+04 5.653e-09
 30.53769   -308.6 1.287e+04 5.912e-09
 30.55776   -308.4 1.285e+04 6.009e-09
 30.57781   -308.2 1.283e+04 6.006e-09
 30.59788   -308.6 1.268e+04 5.771e-09
 30.61795   -308.2 1.260e+04 5.220e-09
 30.63801   -307.9 1.254e+04 4.649e-09
 30.65808   -307.6 1.250e+04 4.191e-09
 30.67065   -307.3 1.249e+04 3.911e-09
 30.68068   -307.8 1.235e+04 3.708e-09
 30.69821   -307.4 1.234e+04 3.640e-09
 30.71827   -306.9 1.234e+04 3.635e-09
 30.73833   -306.5 1.239e+04 3.740e-09
 30.75345   -306.0 1.248e+04 4.052e-09
 30.76349   -306.0 1.230e+04 3.622e-09
 30.77846   -305.5 1.239e+04 3.839e-09
 30.79853   -305.0 1.246e+04 3.992e-09
 30.81859   -304.6 1.250e+04 4.035e-09
 30.83626   -304.2 1.250e+04 4.027e-09
 30.84629   -304.1 1.234e+04 3.247e-09
 30.85872   -303.7 1.234e+04 3.118e-09
 30.87878   -303.4 1.230e+04 2.962e-09
 30.89885   -303.0 1.226e+04 2.820e-09
 30.91891   -302.6 1.223e+04 2.706e-09
 30.92910   -302.2 1.220e+04 2.620e-09
 30.93913   -302.2 1.210e+04 2.409e-09
 30.95904   -301.7 1.208e+04 2.407e-09
 30.97910   -301.2 1.204e+04 2.412e-09
 30.99917   -300.7 1.200e+04 2.418e-09
 31.01190   -300.1 1.193e+04 2.411e-09
 31.02193   -300.2 1.193e+04 2.422e-09
 31.03930   -299.4 1.180e+04 2.395e-09
 31.05936   -298.6 1.161e+04 2.350e-09
 31.07943   -297.7 1.143e+04 2.274e-09
 31.09471   -296.6 1.130e+04 2.175e-09
 31.10474   -296.5 1.127e+04 2.219e-09
 31.12968   -295.4 1.119e+04 2.129e-09
 31.16991   -293.8 1.107e+04 2.030e-09
 31.21004   -292.1 1.093e+04 1.971e-09
 31.25017   -290.2 1.084e+04 1.967e-09
 31.27054   -288.1 1.080e+04 1.988e-09
 31.29061   -287.0 1.083e+04 2.093e-09
 31.33042   -285.0 1.075e+04 2.238e-09
 31.37055   -283.4 1.077e+04 2.465e-09
 31.40055   -282.4 1.084e+04 2.626e-09
 31.42052   -281.6 1.087e+04 2.728e-09
 31.43596   -280.8 1.093e+04 2.816e-09
 31.44599   -281.0 1.094e+04 3.037e-09
 31.46065   -280.3 1.098e+04 3.061e-09
 31.48071   -279.5 1.099e+04 3.049e-09
 31.50078   -278.8 1.099e+04 2.927e-09
 31.51876   -278.0 1.096e+04 2.762e-09
 31.52880   -277.8 1.100e+04 2.879e-09
 31.54090   -276.9 1.097e+04 2.662e-09
 31.56097   -276.0 1.098e+04 2.542e-09
 31.58103   -275.1 1.101e+04 2.517e-09
 31.60110   -274.3 1.110e+04 2.543e-09
 31.61160   -273.7 1.134e+04 2.818e-09
 31.62163   -273.5 1.138e+04 2.746e-09
 31.64123   -273.0 1.171e+04 3.480e-09
 31.66129   -272.5 1.198e+04 4.909e-09
 31.68135   -272.0 1.231e+04 6.924e-09
 31.69441   -271.5 1.267e+04 9.269e-09
 31.70444   -271.7 1.269e+04 9.124e-09
 31.72148   -271.3 1.300e+04 1.135e-08
 31.74155   -271.0 1.324e+04 1.281e-08
 31.76161   -270.9 1.335e+04 1.326e-08
 31.77721   -270.8 1.335e+04 1.318e-08
 31.78724   -270.9 1.324e+04 1.210e-08
 31.80174   -270.7 1.323e+04 1.104e-08
 31.82180   -270.4 1.318e+04 9.563e-09
 31.84187   -270.0 1.313e+04 8.174e-09
 31.86002   -269.4 1.307e+04 7.095e-09
 31.87005   -269.7 1.300e+04 6.180e-09
 31.88200   -269.0 1.299e+04 5.704e-09
 31.90206   -268.2 1.298e+04 5.491e-09
 31.92213   -267.3 1.299e+04 5.449e-09
 31.94219   -266.2 1.299e+04 5.456e-09
 31.95285   -265.4 1.311e+04 5.573e-09
 31.96289   -266.0 1.336e+04 5.609e-09
 31.98232   -265.6 1.364e+04 6.636e-09
 32.00238   -265.4 1.403e+04 9.033e-09
 32.02245   -265.2 1.470e+04 1.409e-08
 32.03566   -265.3 1.554e+04 2.421e-08
 32.04569   -266.4 1.629e+04 3.972e-08
 32.06257   -266.5 1.710e+04 6.951e-08
 32.08264   -266.5 1.768e+04 1.070e-07
 32.10270   -266.6 1.789e+04 1.254e-07
 32.11846   -267.0 1.789e+04 1.254e-07
 32.12850   -267.6 1.829e+04 1.667e-07
 32.13777   -267.9 1.850e+04 1.929e-07
 32.14775   -268.4 1.850e+04 1.934e-07
 32.15778   -268.8 1.844e+04 1.910e-07
 32.16479   -269.0 1.831e+04 1.831e-07
 32.16980   -269.3 1.836e+04 1.907e-07
 32.17785   -269.3 1.823e+04 1.780e-07
 32.18788   -269.3 1.812e+04 1.644e-07
 32.19791   -269.3 1.802e+04 1.515e-07
 32.20619   -269.3 1.790e+04 1.398e-07
 32.21125   -269.5 1.778e+04 1.282e-07
 32.22309   -269.3 1.754e+04 1.105e-07
 32.24315   -268.7 1.728e+04 9.919e-08
 32.26322   -267.7 1.701e+04 9.042e-08
 32.28328   -266.6 1.685e+04 8.490e-08
 32.29411   -265.8 1.670e+04 7.930e-08
 32.30414   -265.7 1.724e+04 1.021e-07
 32.32341   -265.2 1.723e+04 1.011e-07
 32.34347   -264.8 1.716e+04 9.710e-08
 32.36354   -264.4 1.704e+04 9.108e-08
 32.37691   -264.1 1.689e+04 8.376e-08
 32.38694   -264.4 1.762e+04 1.161e-07
 32.40367   -264.3 1.732e+04 9.844e-08
 32.42373   -264.0 1.686e+04 7.991e-08
 32.44380   -263.2 1.633e+04 6.360e-08
 32.45972   -262.2 1.582e+04 5.042e-08
 32.46975   -262.4 1.575e+04 4.701e-08
 32.48392   -261.3 1.525e+04 3.513e-08
 32.50399   -260.2 1.487e+04 2.582e-08
 32.52405   -259.1 1.457e+04 1.866e-08
 32.54252   -258.1 1.437e+04 1.334e-08
 32.55255   -258.1 1.429e+04 1.001e-08
 32.56418   -257.2 1.420e+04 7.333e-09
 32.58425   -256.3 1.413e+04 5.582e-09
 32.60431   -255.4 1.398e+04 4.553e-09
 32.62437   -254.6 1.366e+04 4.120e-09
 32.63536   -253.7 1.345e+04 3.878e-09
 32.64539   -253.6 1.347e+04 4.107e-09
 32.66450   -252.7 1.349e+04 3.942e-09
 32.68457   -251.7 1.349e+04 3.840e-09
 32.70463   -250.8 1.349e+04 3.799e-09
 32.71816   -249.9 1.349e+04 3.791e-09
 32.72820   -250.0 1.348e+04 4.357e-09
 32.74476   -249.2 1.347e+04 4.381e-09
 32.76482   -248.4 1.346e+04 4.465e-09
 32.78489   -247.6 1.349e+04 4.723e-09
 32.80097   -246.9 1.357e+04 5.204e-09
 32.81100   -247.5 1.364e+04 6.500e-09
 32.82502   -246.9 1.376e+04 7.664e-09
 32.84508   -246.4 1.392e+04 9.413e-09
 32.86515   -246.0 1.409e+04 1.179e-08
 32.88377   -245.8 1.423e+04 1.465e-08
 32.89381   -246.8 1.430e+04 1.777e-08
 32.90527   -246.8 1.435e+04 2.010e-08
 32.92534   -247.0 1.433e+04 2.154e-08
 32.94540   -247.2 1.430e+04 2.197e-08
 32.96547   -247.5 1.426e+04 2.201e-08
 32.97661   -247.6 1.407e+04 2.100e-08
 32.98664   -248.6 1.394e+04 2.069e-08
 33.00560   -248.7 1.374e+04 1.835e-08
 33.02566   -248.8 1.353e+04 1.572e-08
 33.04572   -249.0 1.327e+04 1.317e-08
 33.05942   -248.9 1.299e+04 1.090e-08
 33.06945   -249.5 1.297e+04 1.098e-08
 33.08585   -249.2 1.268e+04 9.088e-09
 33.10592   -248.6 1.244e+04 7.664e-09
 33.12598   -248.0 1.226e+04 6.596e-09
 33.14222   -247.4 1.212e+04 5.778e-09
 33.15225   -247.9 1.213e+04 6.034e-09
 33.16611   -247.2 1.203e+04 5.463e-09
 33.18617   -246.4 1.195e+04 5.050e-09
 33.20624   -245.7 1.187e+04 4.775e-09
 33.22503   -244.9 1.178e+04 4.632e-09
 33.23506   -245.4 1.185e+04 5.570e-09
 33.24637   -244.5 1.179e+04 5.485e-09
 33.26643   -243.5 1.176e+04 5.438e-09
 33.28649   -242.4 1.174e+04 5.423e-09
 33.30656   -241.3 1.173e+04 5.441e-09
 33.31786   -240.2 1.175e+04 5.494e-09
 33.32790   -240.7 1.171e+04 5.481e-09
 33.34669   -239.5 1.173e+04 5.518e-09
 33.36675   -238.3 1.179e+04 5.692e-09
 33.38682   -237.2 1.187e+04 6.052e-09
 33.40067   -236.3 1.199e+04 6.574e-09
 33.41070   -236.5 1.171e+04 5.689e-09
 33.42694   -235.5 1.186e+04 6.255e-09
 33.44701   -234.7 1.202e+04 6.942e-09
 33.46707   -233.9 1.218e+04 7.727e-09
 33.48348   -233.3 1.233e+04 8.491e-09
 33.50364   -233.5 1.195e+04 6.439e-09
 33.53749   -232.0 1.226e+04 8.138e-09
 33.56638   -231.3 1.248e+04 9.601e-09
 33.57631   -231.6 1.244e+04 9.406e-09
 33.58746   -231.1 1.279e+04 1.178e-08
 33.60752   -230.2 1.298e+04 1.343e-08
 33.62759   -230.1 1.360e+04 1.856e-08
 33.64765   -230.1 1.436e+04 2.671e-08
 33.65912   -230.9 1.505e+04 3.668e-08
 33.66915   -231.2 1.549e+04 4.858e-08
 33.68778   -232.8 1.580e+04 5.706e-08
 33.70784   -234.6 1.583e+04 5.874e-08
 33.72791   -235.9 1.558e+04 5.708e-08
 33.74192   -236.6 1.507e+04 4.760e-08
 33.75195   -236.6 1.555e+04 6.186e-08
 33.76804   -236.8 1.496e+04 4.699e-08
 33.78120   -236.9 1.437e+04 3.388e-08
 33.79123   -236.4 1.461e+04 3.640e-08
 33.80817   -236.3 1.408e+04 2.638e-08
 33.82473   -235.9 1.354e+04 1.844e-08
 33.83476   -235.7 1.371e+04 2.231e-08
 33.84829   -235.0 1.308e+04 1.427e-08
 33.86836   -234.1 1.261e+04 9.386e-09
 33.88842   -233.3 1.227e+04 6.727e-09
 33.90753   -232.4 1.202e+04 5.430e-09
 33.91757   -232.0 1.202e+04 5.631e-09
 33.92855   -231.1 1.194e+04 4.813e-09
 33.94862   -230.2 1.188e+04 4.337e-09
 33.96868   -229.1 1.184e+04 4.100e-09
 33.98874   -228.0 1.182e+04 3.993e-09
 34.00037   -226.8 1.182e+04 3.964e-09
 34.01040   -226.6 1.184e+04 4.188e-09
 34.02887   -225.5 1.187e+04 4.235e-09
 34.04894   -224.5 1.191e+04 4.378e-09
 34.06900   -223.4 1.194e+04 4.556e-09
 34.08318   -222.3 1.196e+04 4.717e-09
 34.09321   -222.2 1.212e+04 5.384e-09
 34.10913   -221.1 1.212e+04 5.573e-09
 34.12919   -220.0 1.212e+04 5.757e-09
 34.14926   -218.7 1.210e+04 5.966e-09
 34.16598   -217.4 1.210e+04 6.236e-09
 34.17601   -217.4 1.243e+04 7.642e-09
 34.18939   -216.0 1.249e+04 8.175e-09
 34.20945   -214.7 1.257e+04 8.819e-09
 34.22951   -213.4 1.267e+04 9.544e-09
 34.24879   -212.0 1.280e+04 1.036e-08
 34.25882   -212.3 1.358e+04 1.563e-08
 34.26964   -211.1 1.378e+04 1.747e-08
 34.28971   -210.0 1.402e+04 1.972e-08
 34.30977   -208.9 1.429e+04 2.263e-08
 34.32984   -207.9 1.460e+04 2.654e-08
 34.34162   -206.9 1.493e+04 3.178e-08
 34.35166   -207.5 1.576e+04 4.934e-08
 34.36996   -206.6 1.595e+04 5.528e-08
 34.39003   -205.7 1.614e+04 6.164e-08
 34.41009   -204.8 1.630e+04 6.758e-08
 34.42443   -203.9 1.641e+04 7.260e-08
 34.43446   -204.6 1.653e+04 7.825e-08
 34.45022   -203.8 1.646e+04 7.774e-08
 34.47029   -202.9 1.637e+04 7.657e-08
 34.49035   -201.9 1.626e+04 7.486e-08
 34.50723   -200.9 1.614e+04 7.249e-08
 34.51727   -201.3 1.603e+04 7.054e-08
 34.53048   -200.3 1.586e+04 6.723e-08
 34.55054   -199.2 1.563e+04 6.290e-08
 34.57061   -198.1 1.535e+04 5.760e-08
 34.59004   -197.0 1.504e+04 5.171e-08
 34.60007   -197.0 1.492e+04 4.991e-08
 34.61074   -195.9 1.465e+04 4.480e-08
 34.63080   -194.8 1.438e+04 4.010e-08
 34.65086   -193.6 1.406e+04 3.561e-08
 34.67093   -192.5 1.376e+04 3.091e-08
 34.68288   -191.4 1.347e+04 2.597e-08
 34.69291   -191.4 1.315e+04 2.177e-08
 34.71106   -190.5 1.283e+04 1.749e-08
 34.73112   -189.8 1.245e+04 1.417e-08
 34.75119   -189.0 1.203e+04 1.136e-08
 34.76568   -188.3 1.165e+04 9.133e-09
 34.77571   -188.2 1.132e+04 7.349e-09
 34.79131   -187.5 1.106e+04 6.431e-09
 34.81138   -187.0 1.087e+04 5.876e-09
 34.83144   -186.4 1.074e+04 5.579e-09
 34.84849   -185.7 1.075e+04 5.611e-09
 34.86865   -184.8 1.088e+04 4.749e-09
 34.90186   -183.1 1.060e+04 5.123e-09
 34.94199   -181.0 1.066e+04 5.848e-09
 34.98212   -178.7 1.066e+04 6.016e-09
 35.01429   -176.1 1.055e+04 5.911e-09
 35.03436   -175.2 1.039e+04 5.412e-09
 35.06238   -172.4 1.033e+04 5.329e-09
 35.10251   -169.2 1.019e+04 4.943e-09
 35.14263   -165.9 1.011e+04 4.596e-09
 35.17990   -162.4 1.012e+04 4.464e-09
 35.19997   -162.4 1.013e+04 4.429e-09
 35.22289   -159.1 1.013e+04 4.399e-09
 35.26302   -155.7 1.025e+04 4.628e-09
 35.30315   -152.6 1.057e+04 5.573e-09
 35.34328   -149.5 1.102e+04 7.275e-09
 35.36558   -146.7 1.156e+04 9.683e-09
 35.38564   -147.3 1.124e+04 9.555e-09
 35.42353   -145.0 1.154e+04 1.091e-08
 35.44828   -143.0 1.179e+04 1.279e-08
 35.45822   -143.7 1.157e+04 1.166e-08
 35.47350   -142.5 1.157e+04 1.172e-08
 35.49356   -141.3 1.154e+04 1.172e-08
 35.51363   -140.0 1.143e+04 1.103e-08
 35.53099   -138.7 1.132e+04 1.036e-08
 35.55115   -138.8 1.115e+04 8.453e-09
 35.57392   -136.7 1.133e+04 9.699e-09
 35.59388   -135.6 1.145e+04 9.841e-09
 35.61380   -134.9 1.180e+04 1.103e-08
 35.62383   -135.3 1.224e+04 1.349e-08
 35.63401   -134.8 1.278e+04 1.705e-08
 35.65408   -134.0 1.333e+04 2.253e-08
 35.67414   -133.2 1.393e+04 2.994e-08
 35.69421   -132.3 1.461e+04 3.949e-08
 35.70663   -131.6 1.534e+04 5.143e-08
 35.71667   -132.3 1.586e+04 7.367e-08
 35.73433   -132.3 1.665e+04 1.016e-07
 35.75440   -132.6 1.727e+04 1.364e-07
 35.77446   -133.1 1.767e+04 1.695e-07
 35.78939   -133.8 1.783e+04 1.669e-07
 35.79436   -134.5 1.799e+04 1.949e-07
 35.79945   -134.9 1.823e+04 1.948e-07
 35.80948   -135.5 1.844e+04 1.920e-07
 35.81951   -136.1 1.845e+04 1.958e-07
 35.82954   -136.5 1.835e+04 1.965e-07
 35.83576   -136.8 1.823e+04 1.867e-07
 35.84078   -137.9 1.819e+04 2.126e-07
 35.84961   -138.1 1.817e+04 1.864e-07
 35.85964   -138.4 1.814e+04 1.629e-07
 35.86967   -138.8 1.808e+04 1.429e-07
 35.87716   -139.2 1.800e+04 1.262e-07
 35.88218   -140.1 1.810e+04 1.317e-07
 35.88973   -140.5 1.794e+04 1.175e-07
 35.89977   -140.7 1.776e+04 1.063e-07
 35.90980   -141.0 1.760e+04 9.690e-08
 35.91856   -141.2 1.747e+04 8.873e-08
 35.92358   -141.4 1.744e+04 8.847e-08
 35.93493   -141.4 1.732e+04 7.933e-08
 35.95504   -141.3 1.686e+04 6.413e-08
 35.97511   -141.7 1.629e+04 5.283e-08
 35.99517   -141.0 1.595e+04 4.687e-08
 36.01523   -140.2 1.576e+04 4.384e-08
 36.03530   -139.4 1.571e+04 4.308e-08
 36.04789   -138.5 1.570e+04 4.340e-08
 36.05792   -138.4 1.505e+04 3.738e-08
 36.07543   -137.3 1.514e+04 3.759e-08
 36.09549   -136.2 1.528e+04 3.921e-08
 36.11556   -134.9 1.536e+04 4.124e-08
 36.13069   -133.7 1.536e+04 4.257e-08
 36.14072   -133.2 1.408e+04 2.875e-08
 36.15568   -132.0 1.402e+04 2.875e-08
 36.17575   -130.5 1.386e+04 2.846e-08
 36.19581   -129.0 1.360e+04 2.742e-08
 36.21350   -127.5 1.332e+04 2.589e-08
 36.22353   -126.8 1.217e+04 1.623e-08
 36.23594   -125.3 1.209e+04 1.597e-08
 36.25552   -123.6 1.206e+04 1.599e-08
 36.26555   -123.7 1.230e+04 1.447e-08
 36.27607   -122.1 1.227e+04 1.528e-08
 36.29613   -120.3 1.226e+04 1.604e-08
 36.30633   -118.4 1.226e+04 1.680e-08
 36.31637   -117.9 1.173e+04 1.382e-08
 36.33626   -116.2 1.183e+04 1.489e-08
 36.35633   -114.4 1.191e+04 1.592e-08
 36.37639   -112.7 1.196e+04 1.669e-08
 36.38914   -110.7 1.201e+04 1.727e-08
 36.39927   -111.4 1.124e+04 1.040e-08
 36.42675   -107.7 1.129e+04 1.101e-08
 36.46687   -103.9 1.131e+04 1.119e-08
 36.50700    -99.9 1.127e+04 1.111e-08
 36.53700    -96.5 1.109e+04 1.074e-08
 36.55475    -94.2 1.104e+04 1.030e-08
 36.56488    -95.3 9.876e+03 5.103e-09
 36.58726    -90.8 1.024e+04 4.621e-09
 36.61726    -87.3 1.372e+04 6.500e-09
 36.63723    -87.8 2.377e+04 5.588e-09
 36.64759    -94.9 4.568e+04 6.036e-09
 36.65762    -90.3 2.614e+04 3.763e-09
 36.67735    -96.5 4.032e+04 7.854e-09
 36.68894    -97.8 4.088e+04 1.112e-08
 36.69391    -93.6 4.281e+04 4.268e-09
 36.70234    -96.4 3.899e+04 1.252e-08
 36.71237    -98.7 3.250e+04 4.006e-08
 36.72240   -101.0 2.535e+04 1.641e-07
 36.73029   -103.0 2.146e+04 4.538e-07
 36.73531    -99.9 2.442e+04 2.048e-07
 36.74247   -101.9 2.123e+04 5.498e-07
 36.75250   -104.2 2.018e+04 9.055e-07
 36.76253   -107.4 2.017e+04 1.006e-06
 36.77170   -112.2 2.090e+04 7.393e-07
 36.77671   -108.5 2.038e+04 1.046e-06
 36.78259   -114.8 2.116e+04 5.147e-07
 36.79263   -123.8 2.052e+04 1.143e-07
 36.80266   -132.6 1.595e+04 2.823e-08
 36.81269   -136.9 1.305e+04 1.761e-08
 36.81812   -138.3 1.258e+04 1.635e-08
 36.82313   -138.4 1.303e+04 1.865e-08
 36.83275   -139.5 1.298e+04 1.844e-08
 36.84279   -141.1 1.325e+04 1.911e-08
 36.85282   -142.8 1.351e+04 1.980e-08
 36.85952   -144.5 1.379e+04 2.084e-08
 36.86453   -145.3 1.422e+04 2.373e-08
 36.87288   -147.8 1.461e+04 2.584e-08
 36.88292   -150.4 1.514e+04 2.942e-08
 36.89295   -153.2 1.581e+04 3.613e-08
 36.90092   -155.7 1.658e+04 4.925e-08
 36.90594   -157.7 1.742e+04 8.131e-08
 36.91301   -159.5 1.777e+04 1.178e-07
 36.92304   -160.8 1.801e+04 1.570e-07
 36.93308   -161.7 1.820e+04 1.889e-07
 36.94232   -162.6 1.837e+04 1.989e-07
 36.94734   -163.4 1.843e+04 1.967e-07
 36.95314   -164.4 1.830e+04 1.727e-07
 36.96317   -165.5 1.791e+04 1.337e-07
 36.97320   -166.7 1.731e+04 9.751e-08
 36.98324   -167.9 1.656e+04 7.062e-08
 36.98874   -168.8 1.592e+04 5.469e-08
 36.99882   -170.6 1.508e+04 3.560e-08
 37.01845   -172.9 1.381e+04 1.991e-08
 37.03851   -176.1 1.214e+04 1.134e-08
 37.05858   -179.3 1.111e+04 8.623e-09
 37.07164   -181.9 1.085e+04 8.144e-09
 37.08168   -184.6 1.056e+04 8.318e-09
 37.09870   -186.3 1.150e+04 1.182e-08
 37.11877   -187.9 1.269e+04 1.822e-08
 37.13883   -189.6 1.374e+04 2.651e-08
 37.15445   -191.8 1.455e+04 3.500e-08
 37.16448   -194.4 1.467e+04 3.604e-08
 37.17896   -197.3 1.503e+04 4.070e-08
 37.19903   -200.4 1.509e+04 4.178e-08
 37.21909   -203.3 1.498e+04 4.043e-08
 37.23725   -206.0 1.465e+04 3.517e-08
 37.24729   -209.5 1.423e+04 2.579e-08
 37.25922   -212.5 1.370e+04 2.118e-08
 37.27928   -215.3 1.310e+04 1.776e-08
 37.29935   -217.8 1.253e+04 1.556e-08
 37.31941   -219.9 1.207e+04 1.437e-08
 37.33009   -221.6 1.177e+04 1.375e-08
 37.34012   -224.9 1.151e+04 1.263e-08
 37.35954   -226.4 1.158e+04 1.251e-08
 37.37960   -228.0 1.176e+04 1.310e-08
 37.39967   -229.6 1.188e+04 1.368e-08
 37.41290   -231.0 1.203e+04 1.458e-08
 37.42293   -234.8 1.271e+04 1.878e-08
 37.43980   -235.5 1.282e+04 2.087e-08
 37.45986   -236.1 1.288e+04 2.231e-08
 37.47992   -236.4 1.290e+04 2.273e-08
 37.49570   -236.7 1.283e+04 2.263e-08
 37.50573   -238.8 1.281e+04 2.378e-08
 37.52005   -239.0 1.250e+04 2.139e-08
 37.54012   -239.3 1.219e+04 1.905e-08
 37.56018   -239.6 1.201e+04 1.696e-08
 37.57851   -240.1 1.215e+04 1.547e-08
 37.58854   -243.9 1.425e+04 2.397e-08
 37.60031   -244.4 1.432e+04 2.588e-08
 37.62037   -244.8 1.406e+04 2.834e-08
 37.64044   -244.9 1.379e+04 2.992e-08
 37.66050   -244.4 1.346e+04 3.071e-08
 37.67134   -243.6 1.292e+04 3.041e-08
 37.68138   -244.1 1.326e+04 3.652e-08
 37.70063   -242.9 1.278e+04 2.955e-08
 37.72070   -241.6 1.230e+04 2.382e-08
 37.74076   -240.4 1.183e+04 1.930e-08
 37.75415   -239.2 1.149e+04 1.547e-08
 37.76418   -239.8 1.109e+04 9.990e-09
 37.78089   -238.7 1.066e+04 7.575e-09
 37.80095   -237.5 1.030e+04 5.808e-09
 37.82102   -236.2 1.001e+04 4.494e-09
 37.83695   -234.9 9.783e+03 3.514e-09
 37.84699   -235.3 9.312e+03 2.526e-09
 37.87128   -233.5 9.409e+03 2.412e-09
 37.90992   -231.7 9.363e+03 2.118e-09
 37.92999   -231.0 8.760e+03 1.576e-09
 37.95163   -228.1 8.797e+03 1.400e-09
 37.99176   -225.5 8.870e+03 1.332e-09
 38.03189   -223.0 8.892e+03 1.320e-09
 38.07202   -220.8 9.000e+03 1.318e-09
 38.09560   -218.7 9.341e+03 1.442e-09
 38.11566   -217.7 9.153e+03 1.201e-09
 38.15227   -215.7 9.329e+03 1.355e-09
 38.19240   -213.8 9.485e+03 1.528e-09
 38.23253   -212.1 9.629e+03 1.671e-09
 38.26121   -210.5 9.760e+03 1.762e-09
 38.28127   -210.0 9.735e+03 1.576e-09
 38.31279   -208.7 9.844e+03 1.649e-09
 38.35292   -207.6 9.984e+03 1.767e-09
 38.39304   -206.5 1.013e+04 2.012e-09
 38.42682   -205.4 1.028e+04 2.395e-09
 38.44688   -206.0 1.035e+04 2.431e-09
 38.47330   -205.0 1.038e+04 2.520e-09
 38.51343   -203.8 1.039e+04 2.518e-09
 38.55356   -202.6 1.033e+04 2.324e-09
 38.59243   -201.3 1.020e+04 2.029e-09
 38.61249   -201.8 1.007e+04 1.745e-09
 38.63381   -200.1 9.906e+03 1.455e-09
 38.67394   -198.2 9.779e+03 1.235e-09
 38.71407   -196.0 9.683e+03 1.100e-09
 38.74006   -193.8 9.628e+03 1.041e-09
 38.76013   -193.3 9.626e+03 1.050e-09
 38.77810   -191.0 9.608e+03 1.042e-09
 38.79817   -190.4 9.604e+03 1.046e-09
 38.83446   -187.9 9.604e+03 1.045e-09
 38.87459   -185.5 9.648e+03 1.109e-09
 38.91471   -183.3 9.735e+03 1.384e-09
 38.94371   -181.2 9.828e+03 1.813e-09
 38.96378   -180.1 9.801e+03 1.712e-09
 38.99497   -177.9 9.905e+03 2.198e-09
 39.03510   -175.9 9.979e+03 2.645e-09
 39.07523   -173.8 1.000e+04 2.859e-09
 39.10932   -171.7 1.001e+04 2.890e-09
 39.12939   -170.5 1.021e+04 3.071e-09
 39.15549   -168.3 1.021e+04 3.102e-09
 39.19561   -166.0 1.013e+04 2.994e-09
 39.22561   -164.3 1.044e+04 3.090e-09
 39.24558   -163.2 1.046e+04 3.053e-09
 39.26564   -162.2 1.056e+04 3.054e-09
 39.28477   -161.2 1.065e+04 3.178e-09
 39.29480   -161.2 1.081e+04 5.036e-09
 39.30577   -160.3 1.085e+04 5.697e-09
 39.32584   -159.3 1.091e+04 6.670e-09
 39.34590   -158.4 1.100e+04 7.986e-09
 39.36597   -157.5 1.115e+04 9.632e-09
 39.37761   -156.6 1.135e+04 1.149e-08
 39.38764   -156.3 1.198e+04 1.343e-08
 39.40609   -155.5 1.216e+04 1.432e-08
 39.42616   -154.7 1.223e+04 1.454e-08
 39.44622   -153.8 1.229e+04 1.426e-08
 39.46041   -152.9 1.217e+04 1.332e-08
 39.47045   -153.2 1.214e+04 1.105e-08
 39.48635   -152.3 1.198e+04 9.697e-09
 39.50641   -151.3 1.182e+04 8.440e-09
 39.52648   -150.2 1.169e+04 7.380e-09
 39.54322   -149.2 1.159e+04 6.520e-09
 39.55325   -149.2 1.159e+04 6.063e-09
 39.56661   -148.1 1.156e+04 5.417e-09
 39.58667   -147.1 1.154e+04 4.912e-09
 39.60674   -146.1 1.153e+04 4.527e-09
 39.62602   -145.0 1.151e+04 4.255e-09
 39.63606   -145.1 1.153e+04 4.771e-09
 39.64686   -144.1 1.152e+04 4.757e-09
 39.66693   -143.2 1.154e+04 4.831e-09
 39.68699   -142.4 1.150e+04 5.117e-09
 39.70706   -141.7 1.147e+04 5.441e-09
 39.71886   -140.9 1.148e+04 5.716e-09
 39.72889   -141.1 1.158e+04 6.210e-09
 39.74719   -140.3 1.158e+04 6.314e-09
 39.76725   -139.5 1.158e+04 6.381e-09
 39.78731   -138.8 1.156e+04 6.481e-09
 39.80167   -138.1 1.155e+04 6.650e-09
 39.81170   -138.6 1.167e+04 6.998e-09
 39.82744   -138.0 1.163e+04 6.892e-09
 39.84751   -137.9 1.179e+04 6.940e-09
 39.86757   -137.7 1.175e+04 6.976e-09
 39.88447   -139.7 1.270e+04 7.776e-09
 39.89450   -139.1 1.197e+04 6.137e-09
 39.90770   -142.6 1.419e+04 1.109e-08
 39.92776   -145.3 1.618e+04 4.387e-08
 39.94783   -146.8 1.730e+04 1.128e-07
 39.96728   -148.5 1.791e+04 1.698e-07
 39.97731   -148.0 1.745e+04 1.384e-07
 39.98796   -150.0 1.767e+04 1.657e-07
 40.00802   -152.1 1.748e+04 1.612e-07
 40.02809   -153.2 1.662e+04 1.039e-07
 40.04815   -154.1 1.548e+04 5.349e-08
 40.06011   -154.9 1.438e+04 2.999e-08
 40.07015   -154.4 1.459e+04 3.666e-08
 40.08828   -155.2 1.383e+04 2.240e-08
 40.10834   -155.8 1.347e+04 1.741e-08
 40.12841   -156.0 1.331e+04 1.540e-08
 40.14292   -156.3 1.328e+04 1.426e-08
 40.15295   -156.6 1.330e+04 1.449e-08
 40.16854   -157.1 1.328e+04 1.431e-08
 40.18860   -157.8 1.324e+04 1.475e-08
 40.20866   -158.2 1.329e+04 1.586e-08
 40.22572   -158.4 1.333e+04 1.698e-08
 40.23576   -158.9 1.360e+04 1.812e-08
 40.24879   -158.8 1.349e+04 1.816e-08
 40.26886   -158.5 1.329e+04 1.768e-08
 40.28892   -158.0 1.307e+04 1.644e-08
 40.30853   -157.4 1.288e+04 1.470e-08
 40.31856   -157.7 1.260e+04 1.107e-08
 40.32905   -157.1 1.245e+04 9.210e-09
 40.34911   -156.4 1.236e+04 7.853e-09
 40.36918   -155.6 1.230e+04 6.946e-09
 40.38924   -154.8 1.225e+04 6.382e-09
 40.40137   -153.9 1.224e+04 6.092e-09
 40.41140   -154.4 1.213e+04 4.753e-09
 40.42937   -153.5 1.214e+04 4.706e-09
 40.44943   -152.7 1.221e+04 4.742e-09
 40.46950   -152.0 1.219e+04 5.196e-09
 40.48417   -151.4 1.226e+04 5.876e-09
 40.49420   -152.0 1.201e+04 4.723e-09
 40.50963   -151.6 1.210e+04 5.565e-09
 40.52969   -151.2 1.221e+04 6.677e-09
 40.54976   -150.9 1.234e+04 7.944e-09
 40.56698   -150.7 1.245e+04 9.225e-09
 40.57701   -151.0 1.187e+04 7.114e-09
 40.58988   -150.9 1.194e+04 7.885e-09
 40.60995   -150.8 1.195e+04 8.385e-09
 40.63001   -150.6 1.195e+04 8.672e-09
 40.64978   -150.4 1.195e+04 8.735e-09
 40.65991   -150.2 1.167e+04 7.112e-09
 40.68037   -149.1 1.156e+04 6.989e-09
 40.72050   -147.5 1.133e+04 6.191e-09
 40.76063   -145.5 1.111e+04 5.315e-09
 40.80075   -143.3 1.092e+04 4.631e-09
 40.82562   -141.0 1.077e+04 4.111e-09
 40.84568   -140.1 1.069e+04 4.356e-09
 40.88101   -137.5 1.060e+04 4.087e-09
 40.90833   -135.6 1.056e+04 3.873e-09
 40.91826   -135.4 1.056e+04 3.926e-09
 40.93098   -134.0 1.055e+04 3.646e-09
 40.96117   -132.7 1.056e+04 3.459e-09
 40.99123   -130.5 1.045e+04 3.064e-09
 41.01129   -129.3 1.030e+04 2.994e-09
 41.04153   -126.8 1.015e+04 2.592e-09
 41.08165   -124.0 9.959e+03 2.177e-09
 41.12178   -121.0 9.815e+03 1.849e-09
 41.15684   -118.0 9.776e+03 1.649e-09
 41.17690   -117.1 9.755e+03 2.070e-09
 41.20204   -114.0 9.727e+03 2.022e-09
 41.24217   -110.9 9.719e+03 2.014e-09
 41.28230   -107.9 9.737e+03 2.066e-09
 41.32243   -104.9 9.805e+03 2.135e-09
 41.36255   -101.2 9.989e+03 2.701e-09
 41.40268    -98.7 1.022e+04 3.552e-09
 41.44281    -96.6 1.106e+04 6.562e-09
 41.47281    -94.9 1.186e+04 1.169e-08
 41.49278    -93.9 1.262e+04 1.926e-08
 41.50793    -93.0 1.355e+04 3.483e-08
 41.51796    -92.7 1.332e+04 2.633e-08
 41.53290    -92.1 1.439e+04 4.349e-08
 41.55297    -91.7 1.539e+04 6.837e-08
 41.57303    -91.4 1.626e+04 1.036e-07
 41.59073    -91.3 1.698e+04 1.492e-07
 41.60077    -92.0 1.609e+04 7.632e-08
 41.61316    -92.4 1.666e+04 1.005e-07
 41.63323    -93.3 1.692e+04 1.245e-07
 41.65329    -94.1 1.690e+04 1.377e-07
 41.67335    -94.8 1.686e+04 1.396e-07
 41.68357    -95.0 1.645e+04 1.356e-07
 41.69360    -95.2 1.592e+04 1.001e-07
 41.71348    -94.8 1.525e+04 8.140e-08
 41.73355    -94.2 1.429e+04 5.310e-08
 41.75361    -93.7 1.325e+04 2.933e-08
 41.76638    -93.5 1.230e+04 1.484e-08
 41.77641    -93.6 1.196e+04 1.089e-08
 41.79374    -93.9 1.122e+04 6.539e-09
 41.81380    -93.9 1.074e+04 4.625e-09
 41.83387    -93.1 1.061e+04 3.874e-09
 41.84918    -92.2 1.059e+04 3.400e-09
 41.85921    -92.1 1.057e+04 3.305e-09
 41.87400    -91.2 1.051e+04 3.091e-09
 41.89406    -90.4 1.054e+04 2.986e-09
 41.91413    -89.7 1.056e+04 2.968e-09
 41.93199    -89.1 1.087e+04 3.004e-09
 41.94202    -89.7 1.157e+04 3.753e-09
 41.95425    -89.3 1.179e+04 4.646e-09
 41.97432    -88.8 1.189e+04 6.240e-09
 41.99438    -88.2 1.201e+04 8.394e-09
 42.01445    -87.4 1.218e+04 1.071e-08
 42.02482    -86.7 1.233e+04 1.243e-08
 42.03486    -87.3 1.248e+04 1.429e-08
 42.05458    -86.9 1.249e+04 1.394e-08
 42.07464    -86.3 1.239e+04 1.226e-08
 42.09470    -85.8 1.222e+04 1.036e-08
 42.10763    -85.1 1.208e+04 8.849e-09
 42.11766    -85.3 1.191e+04 8.462e-09
 42.13483    -84.6 1.180e+04 7.430e-09
 42.15490    -83.8 1.169e+04 6.685e-09
 42.17496    -82.9 1.154e+04 6.140e-09
 42.19053    -81.7 1.133e+04 5.655e-09
 42.20056    -82.7 1.129e+04 4.638e-09
 42.21509    -81.9 1.119e+04 4.319e-09
 42.23515    -80.8 1.117e+04 4.121e-09
 42.25522    -80.0 1.106e+04 4.007e-09
 42.27324    -79.0 1.099e+04 3.945e-09
 42.28327    -79.0 1.090e+04 3.847e-09
 42.29535    -78.3 1.077e+04 3.795e-09
 42.32554    -77.3 1.075e+04 3.822e-09
 42.35624    -76.0 1.070e+04 4.178e-09
 42.37630    -75.9 1.084e+04 4.897e-09
 42.40590    -75.0 1.093e+04 5.551e-09
 42.44602    -74.6 1.098e+04 6.050e-09
 42.48615    -74.5 1.097e+04 6.613e-09
 42.52185    -75.9 1.115e+04 8.128e-09
 42.54182    -76.1 1.120e+04 8.856e-09
 42.55618    -77.4 1.146e+04 1.024e-08
 42.57625    -79.1 1.175e+04 1.287e-08
 42.59631    -80.9 1.209e+04 1.686e-08
 42.61449    -83.0 1.263e+04 2.250e-08
 42.62452    -82.4 1.283e+04 2.400e-08
 42.63644    -85.3 1.357e+04 3.148e-08
 42.65650    -88.7 1.455e+04 4.458e-08
 42.67657    -92.1 1.541e+04 6.099e-08
 42.69663    -95.5 1.577e+04 6.920e-08
 42.70733    -99.1 1.572e+04 6.943e-08
 42.71736    -99.7 1.575e+04 5.578e-08
 42.73676   -102.7 1.519e+04 4.625e-08
 42.75682   -104.4 1.395e+04 3.035e-08
 42.77689   -105.4 1.263e+04 1.853e-08
 42.79013   -106.1 1.162e+04 1.263e-08
 42.80017   -106.5 1.177e+04 1.498e-08
 42.81702   -106.5 1.120e+04 1.199e-08
 42.83708   -105.8 1.090e+04 1.070e-08
 42.85715   -104.7 1.077e+04 9.968e-09
 42.87294   -103.8 1.070e+04 9.329e-09
 42.88297   -103.5 1.073e+04 1.006e-08
 42.89727   -102.5 1.063e+04 9.019e-09
 42.91734   -101.7 1.052e+04 7.953e-09
 42.93740   -100.8 1.039e+04 6.917e-09
 42.95575   -100.0 1.026e+04 5.999e-09
 42.96578    -99.6 1.028e+04 6.732e-09
 42.97753    -98.8 1.017e+04 5.901e-09
 42.99760    -98.0 1.007e+04 5.210e-09
 43.01766    -97.1 9.993e+03 4.655e-09
 43.03772    -96.2 9.915e+03 4.183e-09
 43.04858    -95.2 9.842e+03 3.729e-09
 43.05861    -94.8 9.926e+03 4.485e-09
 43.07785    -93.9 9.880e+03 4.121e-09
 43.09792    -93.0 9.814e+03 3.775e-09
 43.11798    -92.0 9.733e+03 3.496e-09
 43.13139    -91.0 9.655e+03 3.297e-09
 43.14142    -90.4 9.831e+03 4.112e-09
 43.15811    -89.3 9.780e+03 3.885e-09
 43.17817    -88.1 9.783e+03 3.765e-09
 43.19824    -87.0 9.791e+03 3.724e-09
 43.21419    -85.8 9.792e+03 3.716e-09
 43.22422    -85.2 9.935e+03 4.260e-09
 43.23837    -83.9 9.928e+03 4.220e-09
 43.25843    -82.7 9.930e+03 4.191e-09
 43.27850    -81.5 9.901e+03 4.115e-09
 43.29700    -80.2 9.862e+03 3.991e-09
 43.30703    -79.6 1.004e+04 4.411e-09
 43.31862    -78.4 1.004e+04 4.208e-09
 43.33869    -77.1 1.001e+04 3.862e-09
 43.36888    -75.5 9.858e+03 3.195e-09
 43.39003    -73.1 9.743e+03 2.578e-09
 43.41009    -72.0 9.966e+03 3.112e-09
 43.44924    -68.6 9.732e+03 2.217e-09
 43.48937    -66.0 9.702e+03 1.772e-09
 43.52949    -63.2 9.673e+03 1.504e-09
 43.55564    -60.3 9.678e+03 1.388e-09
 43.57570    -58.8 9.850e+03 1.813e-09
 43.60975    -55.8 9.841e+03 1.610e-09
 43.64988    -52.8 9.836e+03 1.471e-09
 43.68870    -49.7 9.863e+03 1.383e-09
 43.70877    -49.6 1.003e+04 1.503e-09
 43.72125    -46.5 1.009e+04 1.454e-09
 43.74132    -44.8 1.013e+04 1.492e-09
 43.77027    -41.6 1.015e+04 1.459e-09
 43.81039    -38.5 1.027e+04 1.469e-09
 43.85052    -35.5 1.039e+04 1.593e-09
 43.88686    -32.6 1.044e+04 1.782e-09
 43.90693    -30.8 1.054e+04 1.958e-09
 43.93078    -27.8 1.063e+04 2.370e-09
 43.97091    -24.8 1.074e+04 2.669e-09
 44.01104    -21.8 1.083e+04 2.761e-09
 44.05116    -19.0 1.092e+04 2.731e-09
 44.07254    -16.3 1.100e+04 2.643e-09
 44.09260    -14.5 1.121e+04 3.903e-09
 44.13142    -12.0 1.129e+04 3.670e-09
 44.17155     -9.5 1.137e+04 3.633e-09
 44.21168     -7.1 1.140e+04 3.822e-09
 44.23815     -4.5 1.161e+04 4.394e-09
 44.24808     -3.8 1.173e+04 4.635e-09
 44.26164     -3.7 1.167e+04 4.624e-09
 44.28171     -2.0 1.193e+04 5.236e-09
 44.30177     -1.5 1.185e+04 5.296e-09
 44.32076     -0.2 1.201e+04 5.576e-09
 44.33079      0.2 1.209e+04 6.024e-09
 44.34190      0.9 1.217e+04 5.767e-09
 44.36197      1.9 1.222e+04 5.526e-09
 44.38203      2.6 1.237e+04 5.079e-09
 44.40209      3.2 1.239e+04 4.714e-09
 44.41359      3.8 1.231e+04 4.446e-09
 44.42363      3.9 1.239e+04 4.663e-09
 44.44222      4.9 1.242e+04 4.912e-09
 44.46229      5.7 1.242e+04 4.772e-09
 44.49248      7.6 1.254e+04 5.210e-09
 44.53271      9.8 1.249e+04 3.458e-09
 44.56937     11.2 1.241e+04 2.573e-09
 44.58943     11.5 1.242e+04 2.381e-09
 44.61296     13.0 1.214e+04 2.194e-09
 44.65309     14.9 1.191e+04 2.108e-09
 44.69322     16.7 1.172e+04 1.817e-09
 44.73335     18.5 1.166e+04 1.505e-09
 44.75504     20.5 1.170e+04 1.028e-09
 44.77511     21.1 1.160e+04 1.035e-09
 44.81361     23.0 1.179e+04 6.319e-10
 44.85374     24.4 1.161e+04 4.960e-10
 44.89386     26.5 1.143e+04 5.045e-10
 44.92065     28.4 1.136e+04 5.995e-10
 44.94072     29.6 1.135e+04 6.381e-10
 44.97412     31.6 1.124e+04 9.694e-10
 45.01425     33.8 1.129e+04 1.679e-09
 45.05438     35.9 1.158e+04 2.650e-09
 45.08438     37.1 1.154e+04 3.373e-09
 45.09610     37.7 1.154e+04 3.718e-09
 45.10613     38.1 1.155e+04 3.794e-09
 45.12441     39.3 1.158e+04 4.340e-09
 45.14447     39.7 1.162e+04 4.505e-09
 45.16454     40.9 1.159e+04 4.982e-09
 45.17890     41.3 1.164e+04 5.281e-09
 45.18894     41.7 1.160e+04 5.220e-09
 45.21479     43.3 1.184e+04 6.740e-09
 45.25187     45.0 1.200e+04 8.439e-09
 45.27184     45.3 1.186e+04 8.060e-09
 45.28492     46.3 1.215e+04 8.905e-09
 45.30499     46.6 1.227e+04 9.154e-09
 45.32505     47.3 1.219e+04 8.367e-09
 45.34451     47.1 1.211e+04 7.210e-09
 45.35455     46.6 1.213e+04 7.711e-09
 45.36518     45.8 1.227e+04 8.122e-09
 45.38524     45.2 1.228e+04 9.506e-09
 45.40531     45.0 1.233e+04 1.128e-08
 45.42537     44.9 1.242e+04 1.258e-08
 45.43735     44.9 1.252e+04 1.323e-08
 45.44738     44.7 1.246e+04 1.301e-08
 45.46550     44.8 1.251e+04 1.336e-08
 45.48556     45.0 1.252e+04 1.318e-08
 45.50563     45.2 1.255e+04 1.326e-08
 45.52016     45.6 1.247e+04 1.314e-08
 45.53019     45.2 1.235e+04 1.279e-08
 45.54576     45.3 1.235e+04 1.306e-08
 45.56582     46.0 1.220e+04 1.299e-08
 45.58589     46.4 1.222e+04 1.320e-08
 45.60306     47.7 1.207e+04 1.283e-08
 45.61309     47.1 1.183e+04 1.222e-08
 45.62601     47.3 1.183e+04 1.207e-08
 45.65621     48.5 1.147e+04 1.009e-08
 45.69643     50.5 1.118e+04 8.009e-09
 45.73656     52.6 1.089e+04 6.298e-09
 45.76877     54.8 1.070e+04 5.117e-09
 45.78883     54.4 1.037e+04 3.717e-09
 45.81682     56.9 1.039e+04 3.012e-09
 45.85695     59.4 1.048e+04 2.620e-09
 45.89708     61.9 1.052e+04 2.447e-09
 45.93438     64.5 1.047e+04 2.400e-09
 45.95444     64.3 9.923e+03 1.967e-09
 45.97733     66.9 9.961e+03 1.960e-09
 46.01746     69.5 1.003e+04 2.007e-09
 46.05759     72.1 1.014e+04 2.084e-09
 46.09772     74.7 1.036e+04 2.249e-09
 46.12005     77.1 1.048e+04 2.535e-09
 46.14012     76.9 1.012e+04 2.170e-09
 46.16785     78.7 1.015e+04 2.308e-09
 46.18289     80.3 1.025e+04 2.625e-09
 46.19292     79.9 1.037e+04 2.800e-09
 46.20266     81.3 1.050e+04 3.429e-09
 46.21269     81.4 1.048e+04 3.429e-09
 46.22794     82.8 1.061e+04 4.211e-09
 46.24801     84.2 1.077e+04 5.117e-09
 46.26807     85.6 1.095e+04 6.140e-09
 46.28547     86.9 1.116e+04 7.204e-09
 46.29550     87.0 1.121e+04 8.232e-09
 46.30820     88.2 1.144e+04 9.632e-09
 46.32826     89.4 1.168e+04 1.092e-08
 46.34833     90.5 1.187e+04 1.200e-08
 46.36827     91.5 1.203e+04 1.292e-08
 46.37830     91.6 1.217e+04 1.564e-08
 46.38846     92.6 1.218e+04 1.586e-08
 46.40852     93.6 1.214e+04 1.571e-08
 46.42858     94.7 1.204e+04 1.513e-08
 46.44865     95.8 1.192e+04 1.396e-08
 46.46111     96.9 1.179e+04 1.247e-08
 46.47114     96.7 1.186e+04 1.375e-08
 46.48878     97.8 1.169e+04 1.180e-08
 46.50884     98.8 1.148e+04 9.961e-09
 46.52891    100.0 1.129e+04 8.549e-09
 46.54391    101.4 1.119e+04 7.776e-09
 46.55395    101.4 1.104e+04 7.524e-09
 46.56903    102.6 1.098e+04 7.064e-09
 46.58910    103.9 1.091e+04 6.765e-09
 46.60916    105.4 1.088e+04 6.686e-09
 46.62672    107.1 1.091e+04 6.746e-09
 46.63675    107.1 1.076e+04 6.009e-09
 46.64929    108.6 1.088e+04 6.293e-09
 46.66936    109.7 1.103e+04 6.843e-09
 46.68942    111.0 1.119e+04 7.663e-09
 46.70948    112.3 1.142e+04 8.925e-09
 46.72955    113.6 1.140e+04 8.455e-09
 46.74961    114.6 1.168e+04 1.007e-08
 46.76968    115.5 1.196e+04 1.184e-08
 46.78974    116.3 1.226e+04 1.324e-08
 46.80236    116.9 1.246e+04 1.337e-08
 46.81239    117.4 1.207e+04 1.042e-08
 46.82987    118.1 1.217e+04 1.035e-08
 46.84993    118.8 1.220e+04 9.901e-09
 46.87000    119.6 1.221e+04 8.644e-09
 46.88517    120.5 1.214e+04 6.977e-09
 46.89520    121.1 1.205e+04 6.865e-09
 46.91013    122.0 1.198e+04 5.703e-09
 46.93019    122.9 1.185e+04 4.519e-09
 46.95025    123.9 1.169e+04 3.545e-09
 46.96797    124.8 1.156e+04 2.877e-09
 46.97800    125.6 1.155e+04 3.418e-09
 46.99038    126.5 1.144e+04 2.865e-09
 47.01045    127.4 1.134e+04 2.552e-09
 47.03051    128.5 1.125e+04 2.416e-09
 47.05058    129.5 1.120e+04 2.362e-09
 47.06081    130.5 1.114e+04 2.374e-09
 47.07084    131.2 1.120e+04 2.530e-09
 47.09070    132.2 1.113e+04 2.508e-09
 47.11077    133.2 1.104e+04 2.534e-09
 47.13083    134.2 1.097e+04 2.579e-09
 47.14361    135.1 1.090e+04 2.642e-09
 47.15365    135.7 1.094e+04 2.721e-09
 47.17096    136.6 1.086e+04 2.751e-09
 47.19103    137.5 1.082e+04 2.810e-09
 47.21109    138.4 1.080e+04 2.877e-09
 47.22642    139.2 1.086e+04 3.014e-09
 47.23645    139.7 1.080e+04 2.968e-09
 47.25122    140.4 1.086e+04 3.136e-09
 47.27128    141.1 1.107e+04 3.502e-09
 47.29135    141.6 1.135e+04 4.176e-09
 47.30922    142.0 1.154e+04 5.303e-09
 47.31926    142.3 1.149e+04 5.297e-09
 47.33148    142.8 1.159e+04 7.003e-09
 47.35154    143.3 1.152e+04 9.154e-09
 47.37160    144.0 1.140e+04 1.135e-08
 47.39167    144.8 1.135e+04 1.262e-08
 47.40206    145.6 1.136e+04 1.267e-08
 47.41209    145.9 1.143e+04 1.310e-08
 47.43180    146.5 1.149e+04 1.298e-08
 47.45186    147.1 1.161e+04 1.262e-08
 47.47193    147.4 1.175e+04 1.220e-08
 47.48487    147.5 1.179e+04 1.184e-08
 47.49490    147.4 1.199e+04 1.232e-08
 47.51205    147.3 1.186e+04 1.161e-08
 47.53212    147.2 1.171e+04 1.088e-08
 47.55218    146.9 1.149e+04 1.024e-08
 47.56767    146.6 1.123e+04 9.875e-09
 47.57770    146.3 1.131e+04 9.775e-09
 47.59231    146.1 1.109e+04 9.586e-09
 47.61238    146.1 1.105e+04 9.628e-09
 47.63244    146.1 1.099e+04 9.900e-09
 47.65048    146.2 1.096e+04 1.056e-08
 47.66051    146.0 1.102e+04 1.046e-08
 47.67257    146.2 1.104e+04 1.134e-08
 47.69263    146.5 1.113e+04 1.256e-08
 47.71270    146.8 1.127e+04 1.397e-08
 47.73276    147.1 1.145e+04 1.554e-08
 47.74331    147.5 1.162e+04 1.713e-08
 47.75335    147.2 1.143e+04 1.607e-08
 47.77289    147.6 1.150e+04 1.688e-08
 47.79295    148.1 1.152e+04 1.735e-08
 47.81302    148.5 1.154e+04 1.771e-08
 47.82612    149.1 1.157e+04 1.821e-08
 47.83615    148.8 1.117e+04 1.456e-08
 47.85315    149.5 1.120e+04 1.478e-08
 47.87321    150.1 1.131e+04 1.551e-08
 47.89327    150.8 1.148e+04 1.671e-08
 47.90892    151.5 1.165e+04 1.807e-08
 47.91896    151.0 1.093e+04 1.204e-08
 47.93340    151.6 1.096e+04 1.250e-08
 47.95347    152.3 1.096e+04 1.277e-08
 47.97353    152.9 1.092e+04 1.279e-08
 47.99173    153.6 1.083e+04 1.265e-08
 48.00176    153.3 1.029e+04 9.358e-09
 48.01366    154.2 1.025e+04 9.307e-09
 48.03372    155.3 1.014e+04 9.098e-09
 48.05379    156.5 1.003e+04 8.745e-09
 48.07385    157.7 9.936e+03 8.299e-09
 48.08457    158.9 9.844e+03 7.819e-09
 48.09460    158.8 9.716e+03 7.352e-09
 48.11398    160.1 9.688e+03 7.185e-09
 48.13405    161.6 9.667e+03 7.056e-09
 48.15411    162.9 9.674e+03 6.962e-09
 48.16737    164.3 9.676e+03 6.842e-09
 48.17740    164.3 9.635e+03 7.015e-09
 48.19424    165.7 9.662e+03 6.979e-09
 48.21430    167.3 9.681e+03 6.960e-09
 48.23437    168.8 9.707e+03 6.993e-09
 48.25018    170.2 9.730e+03 7.049e-09
 48.26021    170.2 9.765e+03 7.468e-09
 48.27450    171.6 9.816e+03 7.654e-09
 48.29456    173.2 9.872e+03 7.834e-09
 48.31462    174.6 9.929e+03 7.998e-09
 48.33298    175.9 9.972e+03 8.113e-09
 48.34301    175.9 1.013e+04 9.084e-09
 48.35475    177.3 1.019e+04 9.285e-09
 48.37482    178.7 1.026e+04 9.513e-09
 48.39488    179.9 1.034e+04 9.799e-09
 48.41495    181.1 1.042e+04 1.014e-08
 48.42582    182.4 1.052e+04 1.056e-08
 48.43585    182.3 1.081e+04 1.250e-08
 48.45507    183.5 1.092e+04 1.323e-08
 48.47514    184.8 1.104e+04 1.403e-08
 48.49520    186.1 1.115e+04 1.474e-08
 48.50863    187.3 1.126e+04 1.532e-08
 48.51866    187.5 1.146e+04 1.739e-08
 48.53533    188.7 1.153e+04 1.751e-08
 48.55540    189.8 1.159e+04 1.744e-08
 48.57546    190.8 1.169e+04 1.726e-08
 48.59143    191.7 1.184e+04 1.709e-08
 48.60146    192.0 1.219e+04 1.933e-08
 48.61559    192.7 1.240e+04 1.885e-08
 48.63565    193.0 1.268e+04 1.872e-08
 48.65572    193.0 1.306e+04 1.912e-08
 48.66724    193.0 1.333e+04 2.096e-08
 48.67573    190.7 1.339e+04 2.475e-08
 48.68427    190.8 1.342e+04 2.425e-08
 48.69585    191.3 1.327e+04 2.545e-08
 48.71591    192.0 1.321e+04 2.530e-08
 48.73597    192.8 1.310e+04 2.395e-08
 48.75604    193.5 1.302e+04 2.152e-08
 48.76707    194.1 1.293e+04 1.871e-08
 48.77710    194.0 1.238e+04 1.269e-08
 48.79617    194.4 1.230e+04 1.118e-08
 48.81623    194.9 1.231e+04 1.055e-08
 48.83630    195.6 1.235e+04 1.049e-08
 48.84988    196.4 1.248e+04 1.055e-08
 48.85991    196.7 1.214e+04 8.966e-09
 48.87642    197.7 1.235e+04 9.456e-09
 48.89649    198.8 1.254e+04 9.905e-09
 48.91655    200.0 1.262e+04 1.017e-08
 48.93268    201.3 1.261e+04 1.009e-08
 48.94272    202.0 1.261e+04 1.009e-08
 48.95668    203.3 1.260e+04 1.012e-08
 48.97674    204.7 1.255e+04 1.001e-08
 48.99681    206.1 1.242e+04 9.715e-09
 49.01549    207.6 1.227e+04 9.372e-09
 49.02552    208.4 1.248e+04 1.047e-08
 49.03694    209.9 1.235e+04 1.018e-08
 49.05700    211.2 1.222e+04 9.965e-09
 49.07707    212.6 1.214e+04 9.919e-09
 49.09713    214.1 1.214e+04 9.942e-09
 49.10833    215.5 1.213e+04 1.010e-08
 49.11836    216.2 1.244e+04 1.195e-08
 49.13726    217.6 1.245e+04 1.256e-08
 49.15732    219.0 1.248e+04 1.331e-08
 49.17739    220.4 1.244e+04 1.352e-08
 49.19113    221.9 1.241e+04 1.334e-08
 49.20116    222.4 1.285e+04 1.791e-08
 49.21752    223.9 1.280e+04 1.770e-08
 49.23758    225.4 1.265e+04 1.686e-08
 49.25764    227.1 1.247e+04 1.536e-08
 49.27394    228.8 1.229e+04 1.363e-08
 49.28397    229.1 1.341e+04 2.287e-08
 49.29777    230.7 1.345e+04 2.250e-08
 49.31784    232.3 1.349e+04 2.149e-08
 49.33790    233.9 1.344e+04 1.974e-08
 49.35674    235.7 1.331e+04 1.751e-08
 49.36672    235.8 1.408e+04 2.444e-08
 49.37292    236.9 1.396e+04 2.235e-08
 49.38295    237.7 1.384e+04 2.073e-08
 49.39298    238.7 1.369e+04 1.853e-08
 49.40301    239.4 1.352e+04 1.685e-08
 49.40808    240.4 1.332e+04 1.484e-08
 49.41309    240.1 1.485e+04 2.326e-08
 49.42308    241.0 1.460e+04 2.014e-08
 49.43817    242.5 1.361e+04 1.352e-08
 49.44958    244.2 1.314e+04 1.073e-08
 49.45455    243.6 1.605e+04 2.524e-08
 49.46321    244.5 1.574e+04 2.043e-08
 49.47324    245.3 1.529e+04 1.624e-08
 49.48327    246.0 1.475e+04 1.353e-08
 49.49088    246.9 1.417e+04 1.124e-08
 49.49590    246.6 1.732e+04 3.010e-08
 49.50333    247.5 1.693e+04 2.323e-08
 49.51337    248.3 1.639e+04 1.817e-08
 49.52340    249.3 1.570e+04 1.462e-08
 49.53229    250.2 1.497e+04 1.220e-08
 49.53730    250.1 1.860e+04 4.595e-08
 49.54346    250.9 1.842e+04 3.539e-08
 49.55349    251.6 1.807e+04 2.744e-08
 49.56353    252.3 1.745e+04 2.203e-08
 49.57356    253.0 1.680e+04 1.842e-08
 49.57870    253.8 1.614e+04 1.592e-08
 49.58372    253.7 1.973e+04 9.382e-08
 49.59362    254.5 1.960e+04 7.981e-08
 49.60366    255.3 1.942e+04 6.617e-08
 49.61369    255.9 1.901e+04 5.382e-08
 49.62011    256.4 1.845e+04 4.431e-08
 49.62512    257.1 1.933e+04 4.570e-07
 49.63375    257.4 1.925e+04 4.263e-07
 49.64378    257.9 1.922e+04 3.648e-07
 49.65382    258.4 1.931e+04 2.909e-07
 49.66151    258.8 1.921e+04 2.403e-07
 49.66653    260.1 1.772e+04 3.246e-06
 49.67388    259.5 1.776e+04 3.081e-06
 49.68391    259.3 1.787e+04 2.546e-06
 49.69394    259.6 1.807e+04 1.790e-06
 49.70291    261.0 1.842e+04 1.087e-06
 49.70793    260.9 1.727e+04 4.231e-06
 49.71401    263.4 1.790e+04 2.485e-06
 49.72404    264.9 1.870e+04 1.500e-06
 49.73407    265.1 1.969e+04 9.432e-07
 49.74411    265.1 2.075e+04 6.034e-07
 49.74933    265.3 2.177e+04 3.744e-07
 49.75435    264.2 2.098e+04 8.767e-07
 49.76417    264.7 2.169e+04 5.539e-07
 49.77420    266.0 2.229e+04 3.165e-07
 49.78423    266.9 2.246e+04 1.789e-07
 49.79073    267.2 2.242e+04 1.111e-07
 49.79575    266.0 2.117e+04 2.108e-07
 49.80430    266.4 2.142e+04 1.743e-07
 49.81433    267.0 2.210e+04 1.483e-07
 49.82436    267.9 2.282e+04 1.267e-07
 49.83214    269.2 2.344e+04 1.083e-07
 49.83715    268.9 2.069e+04 1.840e-07
 49.84443    270.6 2.132e+04 1.751e-07
 49.85446    272.7 2.217e+04 1.626e-07
 49.86449    275.1 2.313e+04 1.469e-07
 49.87354    277.9 2.421e+04 1.256e-07
 49.87855    277.5 2.088e+04 2.125e-07
 49.88455    279.5 2.287e+04 2.158e-07
 49.89459    279.7 2.526e+04 2.131e-07
 49.90209    276.9 2.429e+04 2.334e-07
 49.90677    273.7 2.457e+04 2.441e-07
 49.90930    272.3 2.225e+04 1.856e-07
 49.91465    266.5 2.420e+04 2.159e-07
 49.91996    261.2 2.677e+04 2.467e-07
 49.92497    260.9 2.206e+04 4.377e-07
 49.93218    257.9 2.332e+04 4.945e-07
 49.93717    255.6 2.364e+04 6.048e-07
 49.94061    252.7 2.388e+04 8.749e-07
 49.94312    254.3 2.146e+04 8.178e-07
 49.94721    252.4 2.179e+04 1.137e-06
 49.95222    250.2 2.180e+04 1.941e-06
 49.95724    247.7 2.084e+04 3.956e-06
 49.96131    245.3 1.919e+04 8.793e-06
 49.96382    247.9 1.918e+04 9.963e-06
 49.96727    246.3 1.707e+04 2.645e-05
 49.97229    242.5 1.466e+04 1.240e-04
 49.97730    235.8 1.273e+04 6.586e-04
 49.98201    227.8 1.175e+04 1.542e-03
 49.98451    223.1 1.009e+04 9.729e-03
 49.98606    218.8 1.004e+04 1.219e-02
 49.98856    215.3 9.986e+03 1.133e-02
 49.99234    211.6 9.837e+03 1.087e-02
 49.99737    208.9 1.137e+04 2.487e-03
 50.00238    207.5 1.515e+04 5.717e-05
 50.00522    206.4 2.166e+04 4.196e-06
 50.00773    201.6 2.367e+04 3.223e-06
 50.01495    204.0 2.093e+04 3.642e-06
 50.02500    206.8 3.119e+04 2.742e-07
 50.03504    207.8 2.933e+04 1.554e-07
 50.04416    209.0 2.847e+04 1.189e-07
 50.04918    207.5 2.525e+04 1.196e-07
 50.06017    209.6 2.283e+04 8.996e-08
 50.08028    212.1 2.051e+04 7.537e-08
 50.10034    214.4 1.813e+04 6.937e-08
 50.12041    216.4 1.744e+04 6.935e-08
 50.13208    217.8 1.740e+04 7.249e-08
 50.14212    217.6 1.748e+04 8.983e-08
 50.16054    218.1 1.754e+04 1.034e-07
 50.18060    218.3 1.777e+04 1.275e-07
 50.20066    218.1 1.807e+04 1.575e-07
 50.21489    217.1 1.818e+04 1.657e-07
 50.22492    217.4 1.710e+04 9.749e-08
 50.24079    216.2 1.675e+04 8.294e-08
 50.26086    214.8 1.608e+04 6.023e-08
 50.28092    213.2 1.498e+04 3.734e-08
 50.29769    211.4 1.340e+04 2.070e-08
 50.30773    210.6 1.178e+04 1.365e-08
 50.32105    209.0 1.059e+04 9.675e-09
 50.34111    208.1 9.738e+03 6.963e-09
 50.36118    207.7 9.220e+03 5.390e-09
 50.38060    208.6 8.863e+03 4.274e-09
 50.39063    209.1 8.956e+03 4.633e-09
 50.40131    209.3 8.678e+03 3.827e-09
 50.43150    210.7 8.459e+03 3.411e-09
 50.47173    211.8 8.335e+03 3.177e-09
 50.51186    212.8 8.359e+03 3.235e-09
 50.54185    213.3 8.402e+03 3.454e-09
 50.55614    213.9 8.562e+03 3.896e-09
 50.56617    214.4 8.799e+03 4.630e-09
 50.58189    214.6 9.115e+03 5.452e-09
 50.60195    214.7 9.421e+03 6.385e-09
 50.62201    214.7 9.656e+03 7.197e-09
 50.63895    214.5 9.765e+03 7.499e-09
 50.64898    214.3 9.876e+03 7.937e-09
 50.66214    213.9 9.849e+03 7.768e-09
 50.68221    213.5 9.814e+03 7.605e-09
 50.70227    212.8 9.876e+03 7.750e-09
 50.72175    210.6 1.042e+04 9.111e-09
 50.73178    209.8 1.031e+04 9.159e-09
 50.74240    204.0 1.220e+04 1.742e-08
 50.76246    195.9 1.513e+04 3.936e-08
 50.78253    187.3 1.721e+04 5.034e-08
 50.80259    178.2 1.757e+04 4.670e-08
 50.81459    169.2 1.746e+04 3.409e-08
 50.82462    169.4 1.581e+04 2.457e-08
 50.84272    161.2 1.414e+04 1.363e-08
 50.86279    154.1 1.183e+04 1.125e-08
 50.88285    150.1 1.156e+04 1.141e-08
 50.89739    148.2 1.157e+04 1.229e-08
 50.90743    148.2 1.056e+04 7.701e-09
 50.92298    146.8 1.072e+04 8.397e-09
 50.94304    145.5 1.094e+04 9.205e-09
 50.96311    144.1 1.113e+04 9.968e-09
 50.98020    142.6 1.129e+04 1.080e-08
 50.99023    142.6 1.051e+04 7.807e-09
 51.00323    141.2 1.070e+04 8.705e-09
 51.02330    139.9 1.090e+04 9.669e-09
 51.04336    138.6 1.100e+04 1.021e-08
 51.06300    137.3 1.099e+04 1.020e-08
 51.07304    137.6 1.068e+04 9.000e-09
 51.08349    136.3 1.059e+04 8.815e-09
 51.10356    135.4 1.032e+04 8.089e-09
 51.12362    134.7 9.972e+03 6.962e-09
 51.14156    134.2 9.628e+03 5.800e-09
 51.15160    133.6 9.862e+03 6.227e-09
 51.15584    133.2 9.577e+03 5.382e-09
 51.16587    133.6 9.373e+03 5.033e-09
 51.18381    133.4 9.210e+03 4.460e-09
 51.20388    133.5 9.200e+03 4.400e-09
 51.22394    133.7 9.205e+03 4.445e-09
 51.23865    134.0 9.258e+03 4.667e-09
 51.24868    134.4 9.074e+03 4.357e-09
 51.26407    134.8 9.226e+03 4.717e-09
 51.28413    135.3 9.508e+03 5.518e-09
 51.30420    135.6 9.935e+03 6.974e-09
 51.32145    135.7 1.053e+04 9.555e-09
 51.33148    136.2 1.014e+04 7.699e-09
 51.34433    136.2 1.079e+04 1.075e-08
 51.36439    136.0 1.164e+04 1.616e-08
 51.38446    135.9 1.262e+04 2.480e-08
 51.40426    135.7 1.351e+04 3.512e-08
 51.41429    136.0 1.303e+04 2.875e-08
 51.42458    135.8 1.385e+04 3.977e-08
 51.44465    135.4 1.431e+04 4.417e-08
 51.46471    134.7 1.429e+04 4.207e-08
 51.48478    133.8 1.406e+04 3.400e-08
 51.49709    132.3 1.345e+04 2.390e-08
 51.50713    134.1 1.425e+04 3.728e-08
 51.52491    132.5 1.392e+04 3.026e-08
 51.54497    130.1 1.383e+04 2.854e-08
 51.56503    127.4 1.390e+04 2.976e-08
 51.57990    124.7 1.435e+04 3.600e-08
 51.58993    124.7 1.629e+04 6.843e-08
 51.60516    121.3 1.692e+04 8.776e-08
 51.62523    118.0 1.696e+04 8.876e-08
 51.64529    115.1 1.654e+04 7.636e-08
 51.66270    112.4 1.547e+04 5.318e-08
 51.67274    111.6 1.589e+04 5.371e-08
 51.68542    108.7 1.346e+04 2.666e-08
 51.70548    106.5 1.119e+04 1.467e-08
 51.72555    105.5 1.010e+04 9.575e-09
 51.74561    106.5 9.702e+03 6.555e-09
 51.76577    105.1 9.278e+03 5.426e-09
 51.79597    105.9 8.402e+03 3.448e-09
 51.83610    107.4 7.794e+03 2.405e-09
 51.87623    109.3 7.671e+03 2.084e-09
 51.91132    111.6 7.685e+03 2.066e-09
 51.93138    113.1 7.658e+03 2.094e-09
 51.95648    115.5 7.622e+03 2.007e-09
 51.99661    118.0 7.632e+03 1.962e-09
 52.03674    120.6 7.656e+03 1.978e-09
 52.07687    123.3 7.713e+03 2.007e-09
 52.11700    127.8 7.680e+03 1.976e-09
 52.15713    130.5 7.794e+03 2.041e-09
 52.19725    133.2 7.850e+03 2.035e-09
 52.23738    135.8 7.866e+03 1.980e-09
 52.26260    138.4 7.854e+03 1.830e-09
 52.28266    140.1 7.922e+03 2.056e-09
 52.31764    142.7 7.915e+03 1.893e-09
 52.35777    145.3 7.891e+03 1.715e-09
 52.39790    147.8 7.881e+03 1.612e-09
 52.42821    150.4 7.901e+03 1.620e-09
 52.44827    152.1 8.223e+03 1.986e-09
 52.47815    154.5 8.271e+03 2.014e-09
 52.51828    156.6 8.445e+03 2.158e-09
 52.55841    158.2 8.721e+03 2.506e-09
 52.58841    158.8 8.806e+03 2.614e-09
 52.60366    159.5 8.876e+03 2.779e-09
 52.61369    160.6 8.810e+03 2.655e-09
 52.62844    161.4 8.925e+03 2.978e-09
 52.64850    161.9 9.136e+03 3.564e-09
 52.66857    162.1 9.455e+03 4.491e-09
 52.68646    162.2 9.891e+03 5.962e-09
 52.69649    163.5 9.700e+03 5.051e-09
 52.70870    163.4 1.020e+04 6.988e-09
 52.72876    163.2 1.073e+04 9.660e-09
 52.74883    163.0 1.114e+04 1.174e-08
 52.76889    162.8 1.116e+04 1.177e-08
 52.77930    162.5 1.109e+04 1.100e-08
 52.78933    163.7 1.143e+04 1.316e-08
 52.80902    163.5 1.128e+04 1.144e-08
 52.82908    163.1 1.093e+04 8.235e-09
 52.84915    162.5 1.047e+04 5.240e-09
 52.86210    161.5 9.929e+03 3.398e-09
 52.87214    162.9 1.042e+04 4.783e-09
 52.88928    161.8 9.702e+03 3.146e-09
 52.90934    160.9 9.161e+03 2.846e-09
 52.92940    160.8 9.125e+03 2.840e-09
 52.94501    160.9 9.095e+03 2.805e-09
 52.95504    161.3 9.223e+03 3.086e-09
 52.96953    161.4 9.217e+03 3.097e-09
 52.98960    161.8 9.221e+03 3.220e-09
 53.00966    162.0 9.255e+03 3.355e-09
 53.02772    162.5 9.323e+03 3.630e-09
 53.03775    162.8 9.545e+03 4.113e-09
 53.04979    163.2 9.642e+03 4.452e-09
 53.06985    163.5 9.729e+03 4.817e-09
 53.08992    164.0 9.778e+03 5.142e-09
 53.10998    164.4 9.790e+03 5.387e-09
 53.12055    165.0 9.771e+03 5.547e-09
 53.13058    164.9 1.003e+04 6.130e-09
 53.15011    165.5 1.002e+04 6.306e-09
 53.17017    166.1 1.002e+04 6.520e-09
 53.19024    166.7 1.006e+04 6.841e-09
 53.20336    167.4 1.015e+04 7.359e-09
 53.21339    167.2 1.043e+04 8.125e-09
 53.23037    167.8 1.065e+04 9.221e-09
 53.25043    168.3 1.104e+04 1.111e-08
 53.27050    168.4 1.161e+04 1.422e-08
 53.28616    168.3 1.231e+04 1.902e-08
 53.29619    168.0 1.284e+04 2.302e-08
 53.31062    168.0 1.364e+04 3.169e-08
 53.33069    167.8 1.433e+04 4.120e-08
 53.35075    167.6 1.483e+04 4.887e-08
 53.36897    167.2 1.496e+04 5.009e-08
 53.37900    167.0 1.513e+04 5.178e-08
 53.39088    166.9 1.501e+04 4.914e-08
 53.41095    166.8 1.479e+04 4.475e-08
 53.43101    166.8 1.449e+04 3.950e-08
 53.45107    166.9 1.413e+04 3.467e-08
 53.46181    167.0 1.377e+04 3.099e-08
 53.47184    167.8 1.446e+04 3.680e-08
 53.49120    168.0 1.424e+04 3.452e-08
 53.51127    168.2 1.403e+04 3.312e-08
 53.53133    168.3 1.403e+04 3.348e-08
 53.54461    168.3 1.408e+04 3.494e-08
 53.55464    169.4 1.469e+04 4.089e-08
 53.57146    169.3 1.475e+04 4.282e-08
 53.59152    169.2 1.508e+04 5.023e-08
 53.61159    169.2 1.567e+04 6.695e-08
 53.62592    169.0 1.642e+04 9.124e-08
 53.63171    169.0 1.620e+04 8.656e-08
 53.63745    170.0 1.662e+04 8.788e-08
 53.65172    169.2 1.681e+04 1.023e-07
 53.67178    168.3 1.678e+04 1.018e-07
 53.69185    167.5 1.647e+04 9.146e-08
 53.71022    166.9 1.586e+04 7.146e-08
 53.72025    167.2 1.651e+04 9.124e-08
 53.73197    166.4 1.584e+04 6.874e-08
 53.75204    165.5 1.519e+04 5.279e-08
 53.77210    164.9 1.464e+04 4.399e-08
 53.79217    164.7 1.452e+04 4.363e-08
 53.80306    164.7 1.453e+04 4.387e-08
 53.81309    164.0 1.407e+04 3.369e-08
 53.83230    164.0 1.382e+04 2.958e-08
 53.85236    163.9 1.345e+04 2.474e-08
 53.87242    163.9 1.296e+04 1.998e-08
 53.88586    163.7 1.240e+04 1.622e-08
 53.89590    162.6 1.147e+04 1.165e-08
 53.91255    162.6 1.116e+04 1.086e-08
 53.93262    162.8 1.096e+04 1.035e-08
 53.95268    163.2 1.081e+04 9.815e-09
 53.96867    163.7 1.065e+04 9.142e-09
 53.97870    163.4 1.040e+04 7.983e-09
 53.99281    163.9 1.020e+04 7.044e-09
 54.01287    164.5 9.959e+03 6.069e-09
 54.03294    165.2 9.723e+03 5.208e-09
 54.05147    165.8 9.502e+03 4.527e-09
 54.06151    165.4 9.253e+03 3.822e-09
 54.07307    166.0 9.039e+03 3.616e-09
 54.09313    166.7 9.009e+03 3.616e-09
 54.11320    167.4 9.005e+03 3.664e-09
 54.13326    168.1 9.035e+03 3.844e-09
 54.14431    168.7 9.125e+03 4.173e-09
 54.15434    168.5 9.121e+03 4.165e-09
 54.17339    169.1 9.263e+03 4.668e-09
 54.19345    169.5 9.444e+03 5.370e-09
 54.21352    169.9 9.656e+03 6.244e-09
 54.22712    170.2 9.904e+03 7.282e-09
 54.23715    170.4 9.909e+03 7.238e-09
 54.25364    170.7 1.014e+04 8.246e-09
 54.27371    170.8 1.030e+04 8.906e-09
 54.29377    170.8 1.032e+04 8.947e-09
 54.30992    170.8 1.030e+04 8.873e-09
 54.31995    171.1 1.021e+04 8.402e-09
 54.33390    171.2 1.014e+04 8.127e-09
 54.35397    171.2 1.006e+04 7.854e-09
 54.37403    171.3 1.004e+04 7.773e-09
 54.39273    171.5 1.005e+04 7.831e-09
 54.40276    171.9 1.006e+04 7.815e-09
 54.41416    172.0 1.013e+04 8.222e-09
 54.43422    172.2 1.024e+04 8.778e-09
 54.45429    172.5 1.034e+04 9.358e-09
 54.47435    172.9 1.045e+04 9.564e-09
 54.48556    173.2 1.045e+04 9.413e-09
 54.49560    173.5 1.061e+04 1.031e-08
 54.51448    173.7 1.056e+04 9.630e-09
 54.53454    173.8 1.046e+04 8.699e-09
 54.55461    173.8 1.033e+04 7.742e-09
 54.56837    173.8 1.022e+04 7.034e-09
 54.57840    173.9 1.021e+04 6.588e-09
 54.59474    173.8 1.009e+04 6.037e-09
 54.61480    174.0 1.001e+04 5.752e-09
 54.63487    174.3 9.973e+03 5.601e-09
 54.65117    174.8 9.953e+03 5.484e-09
 54.66121    174.6 9.866e+03 5.050e-09
 54.67499    175.2 9.864e+03 5.012e-09
 54.69506    175.8 9.868e+03 4.961e-09
 54.71512    176.4 9.878e+03 4.913e-09
 54.73398    177.2 9.904e+03 4.881e-09
 54.74401    177.1 9.890e+03 5.022e-09
 54.75525    177.9 9.990e+03 5.291e-09
 54.77532    178.7 1.013e+04 5.670e-09
 54.79538    179.5 1.032e+04 6.203e-09
 54.81544    180.2 1.057e+04 6.996e-09
 54.82682    181.0 1.088e+04 8.252e-09
 54.83685    180.8 1.117e+04 1.020e-08
 54.85557    181.6 1.166e+04 1.279e-08
 54.87564    182.3 1.226e+04 1.631e-08
 54.89570    182.9 1.294e+04 2.062e-08
 54.90962    183.1 1.358e+04 2.482e-08
 54.91965    181.7 1.412e+04 2.652e-08
 54.93076    181.6 1.441e+04 2.846e-08
 54.94075    181.6 1.453e+04 2.914e-08
 54.95078    181.4 1.462e+04 2.966e-08
 54.95594    180.9 1.476e+04 3.044e-08
 54.96096    179.4 1.522e+04 3.360e-08
 54.97084    178.3 1.572e+04 3.847e-08
 54.98088    177.0 1.634e+04 4.729e-08
 54.99091    175.4 1.699e+04 6.179e-08
 54.99734    173.7 1.759e+04 8.431e-08
 55.00236    171.3 1.810e+04 1.467e-07
 55.01097    170.0 1.839e+04 2.021e-07
 55.02101    169.0 1.860e+04 2.780e-07
 55.03104    168.1 1.876e+04 3.818e-07
 55.03875    167.4 1.892e+04 5.077e-07
 55.04376    165.8 1.905e+04 4.873e-07
 55.05110    165.0 1.920e+04 5.353e-07
 55.06113    164.1 1.934e+04 5.257e-07
 55.07117    163.1 1.973e+04 4.617e-07
 55.08015    161.9 2.040e+04 3.485e-07
 55.08517    157.3 2.263e+04 1.581e-07
 55.09123    154.6 2.314e+04 1.181e-07
 55.10126    151.6 2.214e+04 1.086e-07
 55.11129    148.8 2.057e+04 1.148e-07
 55.12133    146.5 1.969e+04 1.247e-07
 55.12657    144.6 1.899e+04 1.491e-07
 55.13158    142.8 1.774e+04 2.135e-07
 55.14139    142.7 1.793e+04 2.953e-07
 55.15142    143.1 1.812e+04 4.194e-07
 55.16145    143.3 1.821e+04 5.988e-07
 55.16797    143.3 1.821e+04 8.134e-07
 55.17299    143.3 1.808e+04 5.167e-07
 55.18152    143.3 1.808e+04 5.106e-07
 55.19155    143.5 1.808e+04 4.557e-07
 55.20158    144.1 1.812e+04 3.654e-07
 55.20937    144.6 1.832e+04 1.872e-07
 55.21439    143.9 1.828e+04 8.365e-08
 55.22165    143.8 1.840e+04 5.312e-08
 55.23674    143.5 1.821e+04 5.081e-08
 55.25087    141.3 1.689e+04 3.149e-08
 55.26091    136.9 1.204e+04 1.050e-08
 55.27692    136.7 1.186e+04 1.257e-08
 55.29699    137.1 1.229e+04 1.841e-08
 55.31705    137.7 1.311e+04 2.755e-08
 55.33368    138.3 1.392e+04 3.649e-08
 55.34371    137.5 1.257e+04 1.616e-08
 55.35718    137.3 1.265e+04 1.575e-08
 55.37724    136.8 1.262e+04 1.412e-08
 55.39731    135.8 1.231e+04 1.216e-08
 55.41648    134.5 1.190e+04 1.098e-08
 55.42652    133.4 1.073e+04 5.701e-09
 55.43744    133.2 1.078e+04 6.517e-09
 55.45750    133.2 1.102e+04 7.909e-09
 55.47756    133.4 1.129e+04 9.682e-09
 55.49763    133.7 1.150e+04 1.130e-08
 55.50932    134.1 1.164e+04 1.251e-08
 55.51935    134.4 1.141e+04 1.040e-08
 55.53776    134.8 1.154e+04 1.174e-08
 55.55782    135.2 1.163e+04 1.267e-08
 55.57789    135.6 1.168e+04 1.322e-08
 55.59213    136.0 1.172e+04 1.352e-08
 55.60216    136.2 1.202e+04 1.523e-08
 55.61801    136.6 1.220e+04 1.653e-08
 55.63808    136.8 1.239e+04 1.791e-08
 55.65814    137.1 1.259e+04 1.937e-08
 55.67493    137.3 1.273e+04 2.043e-08
 55.68496    137.1 1.362e+04 3.056e-08
 55.69827    137.2 1.363e+04 3.092e-08
 55.71834    137.4 1.358e+04 3.053e-08
 55.73840    137.7 1.332e+04 2.840e-08
 55.75774    138.3 1.293e+04 2.419e-08
 55.76777    138.3 1.347e+04 3.025e-08
 55.77853    138.9 1.294e+04 2.319e-08
 55.79859    139.3 1.252e+04 1.815e-08
 55.81866    139.6 1.248e+04 1.663e-08
 55.83872    140.1 1.251e+04 1.678e-08
 55.85057    140.6 1.270e+04 1.783e-08
 55.86061    140.5 1.302e+04 2.116e-08
 55.87885    141.0 1.338e+04 2.467e-08
 55.89891    141.4 1.381e+04 3.016e-08
 55.91898    141.8 1.433e+04 3.786e-08
 55.93338    142.2 1.487e+04 4.805e-08
 55.94341    142.7 1.439e+04 4.079e-08
 55.95911    143.0 1.487e+04 4.838e-08
 55.97917    143.3 1.524e+04 5.473e-08
 55.99924    143.5 1.536e+04 5.634e-08
 56.01618    143.8 1.531e+04 5.502e-08
 56.02622    144.2 1.493e+04 4.733e-08
 56.03936    144.6 1.480e+04 4.520e-08
 56.05943    145.1 1.439e+04 3.795e-08
 56.07949    145.7 1.381e+04 2.870e-08
 56.09899    146.2 1.317e+04 2.074e-08
 56.10902    146.7 1.295e+04 2.062e-08
 56.11027    147.2 1.239e+04 1.522e-08
 56.12030    146.1 1.173e+04 1.154e-08
 56.13969    146.7 1.142e+04 9.209e-09
 56.15975    147.3 1.120e+04 7.744e-09
 56.17981    148.2 1.103e+04 6.747e-09
 56.19183    149.1 1.088e+04 5.982e-09
 56.20186    149.7 1.086e+04 6.002e-09
 56.21994    150.7 1.076e+04 5.400e-09
 56.24001    151.7 1.067e+04 4.904e-09
 56.26007    152.9 1.058e+04 4.513e-09
 56.27463    154.2 1.051e+04 4.224e-09
 56.28466    154.6 1.059e+04 4.608e-09
 56.30020    155.9 1.054e+04 4.405e-09
 56.32026    157.2 1.049e+04 4.246e-09
 56.34033    158.6 1.045e+04 4.118e-09
 56.35744    159.9 1.043e+04 4.009e-09
 56.36747    160.2 1.057e+04 4.685e-09
 56.38046    161.5 1.056e+04 4.604e-09
 56.40052    162.8 1.057e+04 4.595e-09
 56.42058    163.9 1.058e+04 4.605e-09
 56.44024    164.9 1.060e+04 4.655e-09
 56.45027    165.2 1.080e+04 5.810e-09
 56.46071    166.2 1.086e+04 6.060e-09
 56.48078    167.1 1.095e+04 6.505e-09
 56.50084    167.9 1.112e+04 7.240e-09
 56.52091    168.4 1.138e+04 8.468e-09
 56.53308    168.5 1.173e+04 1.042e-08
 56.54311    168.3 1.218e+04 1.365e-08
 56.56103    168.3 1.255e+04 1.650e-08
 56.58110    168.1 1.290e+04 1.951e-08
 56.60116    167.6 1.309e+04 2.090e-08
 56.61588    166.9 1.308e+04 2.067e-08
 56.62592    166.2 1.295e+04 1.919e-08
 56.64129    165.4 1.261e+04 1.634e-08
 56.66136    164.6 1.222e+04 1.345e-08
 56.68142    164.0 1.193e+04 1.151e-08
 56.69869    163.4 1.167e+04 1.026e-08
 56.70872    162.3 1.159e+04 1.074e-08
 56.73168    161.9 1.140e+04 1.043e-08
 56.77190    161.6 1.128e+04 1.075e-08
 56.81203    161.8 1.122e+04 1.081e-08
 56.85216    162.7 1.103e+04 1.049e-08
 56.87453    164.1 1.071e+04 9.192e-09
 56.89459    162.5 1.070e+04 8.850e-09
 56.93242    164.0 1.024e+04 6.564e-09
 56.97255    165.6 9.820e+03 4.979e-09
 57.01268    167.3 9.448e+03 4.357e-09
 57.04014    169.4 9.365e+03 4.328e-09
 57.06020    168.4 9.230e+03 4.199e-09
 57.09293    170.6 9.237e+03 4.314e-09
 57.13306    172.6 9.305e+03 4.672e-09
 57.17319    174.5 9.466e+03 5.254e-09
 57.20575    176.3 9.641e+03 5.846e-09
 57.22581    175.7 9.248e+03 4.755e-09
 57.25345    177.2 9.276e+03 4.711e-09
 57.29358    178.9 9.348e+03 4.370e-09
 57.32357    179.2 9.299e+03 4.047e-09
 57.34354    179.6 9.241e+03 3.775e-09
 57.36360    180.1 9.172e+03 3.538e-09
 57.38119    180.5 9.100e+03 3.348e-09
 57.39132    180.6 8.714e+03 2.215e-09
 57.41396    182.0 8.721e+03 2.164e-09
 57.45409    183.3 8.762e+03 2.209e-09
 57.48409    183.7 8.770e+03 2.235e-09
 57.50405    184.2 8.794e+03 2.357e-09
 57.52412    185.0 8.869e+03 2.750e-09
 57.54418    185.7 9.032e+03 3.447e-09
 57.55684    186.5 9.286e+03 4.413e-09
 57.56687    187.3 9.025e+03 2.751e-09
 57.58431    187.8 9.235e+03 3.512e-09
 57.60438    188.6 9.496e+03 4.479e-09
 57.62444    189.4 9.774e+03 5.377e-09
 57.63964    190.1 1.003e+04 6.044e-09
 57.64967    190.6 9.509e+03 4.058e-09
 57.66457    191.2 9.698e+03 4.184e-09
 57.68463    191.9 9.795e+03 4.152e-09
 57.70470    192.5 9.840e+03 4.097e-09
 57.72245    193.1 9.885e+03 4.021e-09
 57.73248    193.8 9.676e+03 2.920e-09
 57.74483    194.4 9.702e+03 2.883e-09
 57.76489    195.2 9.705e+03 2.902e-09
 57.78495    195.9 9.716e+03 2.986e-09
 57.80502    196.7 9.728e+03 3.141e-09
 57.81528    197.5 9.744e+03 3.332e-09
 57.82532    198.2 9.671e+03 2.676e-09
 57.84515    199.1 9.718e+03 2.891e-09
 57.86521    200.0 9.741e+03 3.228e-09
 57.88528    200.9 9.766e+03 3.685e-09
 57.89809    201.9 9.817e+03 4.259e-09
 57.90812    202.4 9.842e+03 3.895e-09
 57.92540    203.3 9.945e+03 4.754e-09
 57.94547    204.3 1.009e+04 5.802e-09
 57.96553    205.1 1.027e+04 6.959e-09
 57.98090    205.9 1.048e+04 8.030e-09
 57.99093    206.0 1.074e+04 9.294e-09
 58.00566    206.7 1.097e+04 1.066e-08
 58.02573    207.3 1.114e+04 1.132e-08
 58.04579    207.7 1.115e+04 1.121e-08
 58.06370    208.1 1.108e+04 1.067e-08
 58.07373    208.0 1.153e+04 1.384e-08
 58.08592    208.4 1.132e+04 1.236e-08
 58.10598    208.9 1.100e+04 1.047e-08
 58.12605    209.4 1.063e+04 8.609e-09
 58.14611    210.1 1.027e+04 7.053e-09
 58.15654    210.7 9.969e+03 5.867e-09
 58.16657    210.5 1.023e+04 6.934e-09
 58.18624    211.1 9.999e+03 6.101e-09
 58.20630    211.9 9.836e+03 5.575e-09
 58.22637    212.8 9.733e+03 5.276e-09
 58.23934    213.7 9.704e+03 5.218e-09
 58.24937    213.5 9.722e+03 5.211e-09
 58.26650    214.4 9.726e+03 5.240e-09
 58.28656    215.3 9.745e+03 5.350e-09
 58.30663    216.3 9.792e+03 5.566e-09
 58.32215    217.1 9.861e+03 5.872e-09
 58.33218    216.5 9.806e+03 5.393e-09
 58.34675    217.3 9.910e+03 5.894e-09
 58.36682    218.0 1.002e+04 6.490e-09
 58.38688    218.8 1.014e+04 7.191e-09
 58.40495    219.5 1.029e+04 8.017e-09
 58.41499    219.0 1.033e+04 7.893e-09
 58.42701    219.7 1.053e+04 9.035e-09
 58.44707    220.5 1.073e+04 9.918e-09
 58.46714    221.1 1.083e+04 9.937e-09
 58.48720    221.6 1.083e+04 9.751e-09
 58.49779    222.0 1.081e+04 9.060e-09
 58.50782    221.3 1.083e+04 8.979e-09
 58.52733    221.6 1.067e+04 7.812e-09
 58.54740    221.9 1.041e+04 6.434e-09
 58.56746    222.1 1.010e+04 5.132e-09
 58.58060    222.4 9.784e+03 4.082e-09
 58.58769    222.0 9.694e+03 3.743e-09
 58.59462    221.2 9.399e+03 2.910e-09
 58.61772    221.9 9.280e+03 2.435e-09
 58.65794    223.4 9.186e+03 2.389e-09
 58.68794    223.9 9.170e+03 2.426e-09
 58.70791    224.7 9.144e+03 2.454e-09
 58.72797    225.9 9.120e+03 2.532e-09
 58.74621    227.0 9.149e+03 2.697e-09
 58.75624    226.9 9.475e+03 3.357e-09
 58.76810    227.8 9.549e+03 3.606e-09
 58.78817    228.7 9.631e+03 3.825e-09
 58.80823    229.6 9.713e+03 4.007e-09
 58.82830    230.6 9.787e+03 4.164e-09
 58.83904    231.6 9.860e+03 4.310e-09
 58.84907    231.0 9.989e+03 4.509e-09
 58.86842    232.0 1.004e+04 4.542e-09
 58.88849    233.0 1.013e+04 4.626e-09
 58.90855    233.9 1.035e+04 4.972e-09
 58.92185    234.7 1.074e+04 5.834e-09
 58.93188    234.2 1.088e+04 5.782e-09
 58.94868    235.1 1.137e+04 7.479e-09
 58.96875    236.0 1.190e+04 1.016e-08
 58.98881    236.9 1.247e+04 1.399e-08
 59.00465    237.9 1.309e+04 1.931e-08
 59.01469    237.5 1.332e+04 1.998e-08
 59.02894    238.6 1.393e+04 2.703e-08
 59.04900    239.7 1.459e+04 3.626e-08
 59.06907    240.5 1.517e+04 4.735e-08
 59.08746    240.9 1.570e+04 5.995e-08
 59.09749    240.0 1.557e+04 5.031e-08
 59.10920    239.9 1.616e+04 6.264e-08
 59.12926    239.3 1.672e+04 7.483e-08
 59.14932    238.2 1.731e+04 8.810e-08
 59.16939    237.2 1.741e+04 9.557e-08
 59.18030    236.6 1.723e+04 8.967e-08
 59.19033    235.9 1.665e+04 6.204e-08
 59.20952    235.7 1.605e+04 5.425e-08
 59.22958    235.6 1.530e+04 4.419e-08
 59.24965    235.5 1.452e+04 3.475e-08
 59.26310    235.5 1.376e+04 2.733e-08
 59.27313    235.4 1.284e+04 2.281e-08
 59.28977    235.6 1.228e+04 1.882e-08
 59.30984    235.9 1.186e+04 1.609e-08
 59.32990    236.3 1.159e+04 1.432e-08
 59.34591    236.7 1.141e+04 1.313e-08
 59.35594    236.9 1.117e+04 1.166e-08
 59.37003    237.4 1.108e+04 1.126e-08
 59.39010    237.8 1.102e+04 1.085e-08
 59.41016    238.3 1.106e+04 1.042e-08
 59.42871    239.0 1.130e+04 9.657e-09
 59.43874    238.6 1.212e+04 8.665e-09
 59.45029    239.2 1.312e+04 8.563e-09
 59.47035    239.1 1.729e+04 1.005e-08
 59.49042    238.6 2.176e+04 1.883e-08
 59.51048    237.3 2.545e+04 9.905e-08
 59.52150    235.1 2.867e+04 5.072e-08
 59.52647    235.8 2.373e+04 4.252e-08
 59.53546    233.4 2.504e+04 4.392e-08
 59.54550    230.7 2.580e+04 6.485e-08
 59.55553    229.7 2.357e+04 1.260e-07
 59.56285    229.8 2.155e+04 2.071e-07
 59.56787    230.9 2.036e+04 3.272e-07
 59.57559    230.6 1.970e+04 5.573e-07
 59.58562    230.2 1.947e+04 7.719e-07
 59.59566    230.2 1.934e+04 8.829e-07
 59.60426    230.5 1.934e+04 9.548e-07
 59.60927    230.5 1.824e+04 2.426e-06
 59.61572    231.0 1.845e+04 2.333e-06
 59.62575    231.3 1.889e+04 2.141e-06
 59.63578    230.9 1.949e+04 1.875e-06
 59.64566    229.9 2.004e+04 1.596e-06
 59.65067    230.3 1.905e+04 3.062e-06
 59.65585    229.0 1.972e+04 2.188e-06
 59.66588    228.0 2.023e+04 1.541e-06
 59.67591    227.4 2.075e+04 1.090e-06
 59.68595    227.0 2.112e+04 7.945e-07
 59.69208    226.5 2.144e+04 5.378e-07
 59.69709    226.4 2.117e+04 6.761e-07
 59.70601    225.6 2.134e+04 4.085e-07
 59.71604    224.7 2.094e+04 2.419e-07
 59.72607    223.6 1.993e+04 1.402e-07
 59.73348    222.6 1.817e+04 8.370e-08
 59.73850    223.1 1.838e+04 9.002e-08
 59.74614    222.4 1.666e+04 5.931e-08
 59.75617    221.7 1.530e+04 4.366e-08
 59.76620    221.3 1.436e+04 3.488e-08
 59.77488    221.4 1.378e+04 3.037e-08
 59.77990    222.1 1.407e+04 3.149e-08
 59.78627    222.4 1.361e+04 2.775e-08
 59.79630    222.5 1.333e+04 2.538e-08
 59.80633    222.6 1.316e+04 2.409e-08
 59.81628    222.6 1.312e+04 2.381e-08
 59.82130    222.7 1.304e+04 2.310e-08
 59.83146    222.4 1.299e+04 2.196e-08
 59.85157    222.7 1.308e+04 2.266e-08
 59.86280    222.4 1.325e+04 2.398e-08
 59.87283    223.6 1.296e+04 2.058e-08
 59.89170    222.4 1.319e+04 2.265e-08
 59.91177    220.2 1.370e+04 2.710e-08
 59.93183    216.9 1.443e+04 3.383e-08
 59.94561    212.6 1.521e+04 4.187e-08
 59.95564    213.6 1.503e+04 4.067e-08
 59.97196    208.4 1.572e+04 5.021e-08
 59.99202    202.8 1.613e+04 5.850e-08
 60.01209    196.9 1.663e+04 7.030e-08
 60.02841    191.0 1.739e+04 9.786e-08
 60.03844    193.2 1.686e+04 8.234e-08
 60.05222    188.5 1.753e+04 1.161e-07
 60.07228    184.7 1.817e+04 1.666e-07
 60.09234    181.2 1.867e+04 1.868e-07
 60.11122    177.6 1.874e+04 1.767e-07
 60.12120    178.9 1.841e+04 1.560e-07
 60.13242    176.9 1.855e+04 1.443e-07
 60.15254    173.4 1.806e+04 8.340e-08
 60.17260    169.2 1.640e+04 3.424e-08
 60.19267    164.8 1.326e+04 1.453e-08
 60.20405    162.0 1.113e+04 8.952e-09
 60.21409    163.8 1.162e+04 9.539e-09
 60.23279    162.6 1.084e+04 7.226e-09
 60.26299    163.0 1.044e+04 5.698e-09
 60.28705    163.5 9.886e+03 4.006e-09
 60.30712    164.5 9.673e+03 3.764e-09
 60.34334    165.2 9.316e+03 2.917e-09
 60.38347    166.4 9.164e+03 2.480e-09
 60.42360    167.9 9.148e+03 2.406e-09
 60.45266    169.6 9.149e+03 2.408e-09
 60.47273    169.7 9.138e+03 2.390e-09
 60.50386    171.3 9.128e+03 2.383e-09
 60.54399    172.9 9.109e+03 2.364e-09
 60.58411    174.6 9.082e+03 2.301e-09
 60.61827    176.4 9.060e+03 2.183e-09
 60.63834    176.1 9.063e+03 2.150e-09
 60.66437    177.8 9.054e+03 2.026e-09
 60.70450    179.4 9.045e+03 1.917e-09
 60.74463    181.1 9.018e+03 1.851e-09
 60.78388    182.7 8.977e+03 1.837e-09
 60.80395    182.1 8.910e+03 1.764e-09
 60.82488    183.8 8.848e+03 1.755e-09
 60.86501    185.4 8.842e+03 1.767e-09
 60.90514    187.0 8.854e+03 1.816e-09
 60.94527    188.5 8.902e+03 1.914e-09
 60.96956    189.9 8.969e+03 2.048e-09
 60.98962    189.1 8.951e+03 2.108e-09
 61.02553    190.4 9.028e+03 2.351e-09
 61.06566    191.9 9.068e+03 2.588e-09
 61.10578    193.5 9.046e+03 2.746e-09
 61.13517    195.3 9.033e+03 2.763e-09
 61.15523    194.4 9.025e+03 2.977e-09
 61.18604    195.9 9.068e+03 2.867e-09
 61.22617    196.7 9.115e+03 2.832e-09
 61.26630    196.6 9.089e+03 2.847e-09
 61.29630    197.3 8.999e+03 2.984e-09
 61.31062    198.5 8.968e+03 3.445e-09
 61.32065    198.0 9.055e+03 3.786e-09
 61.33633    198.6 9.364e+03 4.551e-09
 61.35639    198.7 1.008e+04 6.305e-09
 61.37646    198.5 1.100e+04 9.658e-09
 61.39342    198.5 1.194e+04 1.525e-08
 61.40345    197.6 1.203e+04 1.621e-08
 61.41659    197.8 1.272e+04 2.273e-08
 61.43665    198.0 1.325e+04 2.870e-08
 61.45671    198.0 1.352e+04 3.156e-08
 61.47623    197.8 1.348e+04 3.054e-08
 61.48626    196.8 1.307e+04 2.516e-08
 61.49684    196.3 1.285e+04 2.155e-08
 61.51691    195.4 1.242e+04 1.702e-08
 61.53697    194.2 1.180e+04 1.331e-08
 61.55703    193.0 1.117e+04 1.121e-08
 61.56906    192.0 1.091e+04 1.079e-08
 61.57910    190.7 1.107e+04 1.205e-08
 61.59716    190.2 1.115e+04 1.240e-08
 61.61723    190.0 1.133e+04 1.325e-08
 61.63729    189.8 1.153e+04 1.434e-08
 61.65187    189.7 1.172e+04 1.541e-08
 61.66190    188.5 1.188e+04 1.558e-08
 61.67742    188.4 1.196e+04 1.607e-08
 61.69748    188.4 1.205e+04 1.647e-08
 61.71755    188.2 1.213e+04 1.668e-08
 61.73467    188.0 1.220e+04 1.676e-08
 61.74471    187.2 1.169e+04 1.393e-08
 61.75768    186.8 1.178e+04 1.423e-08
 61.77774    186.4 1.191e+04 1.475e-08
 61.79781    186.0 1.207e+04 1.543e-08
 61.81748    185.8 1.222e+04 1.618e-08
 61.82751    185.1 1.212e+04 1.570e-08
 61.83793    185.1 1.231e+04 1.679e-08
 61.85800    185.3 1.254e+04 1.818e-08
 61.87806    185.3 1.285e+04 2.027e-08
 61.89813    185.3 1.324e+04 2.333e-08
 61.91032    185.0 1.368e+04 2.710e-08
 61.92035    184.8 1.347e+04 2.438e-08
 61.93826    184.0 1.410e+04 2.825e-08
 61.95832    182.9 1.456e+04 2.942e-08
 61.97838    181.7 1.450e+04 2.841e-08
 61.99312    180.7 1.401e+04 2.376e-08
 62.00315    179.5 1.719e+04 4.150e-08
 62.01851    178.7 1.749e+04 2.946e-08
 62.03858    177.8 1.768e+04 1.693e-08
 62.05864    177.1 1.703e+04 8.899e-09
 62.07593    176.6 1.504e+04 6.841e-09
 62.08596    172.2 2.084e+04 4.548e-08
 62.09877    172.4 2.047e+04 4.388e-08
 62.11883    172.8 2.012e+04 4.503e-08
 62.13890    173.3 1.938e+04 5.077e-08
 62.15873    174.5 1.873e+04 6.164e-08
 62.16872    173.7 1.750e+04 1.613e-07
 62.17391    174.3 1.743e+04 1.636e-07
 62.18395    174.9 1.737e+04 1.707e-07
 62.19398    175.3 1.750e+04 1.871e-07
 62.20401    175.7 1.773e+04 2.130e-07
 62.21007    176.1 1.800e+04 2.516e-07
 62.21509    175.7 1.808e+04 3.012e-07
 62.22407    176.3 1.824e+04 3.663e-07
 62.23411    176.5 1.843e+04 4.481e-07
 62.24414    176.3 1.862e+04 5.342e-07
 62.25147    175.8 1.886e+04 6.078e-07
 62.25649    174.7 2.066e+04 3.812e-07
 62.26420    173.9 2.078e+04 3.774e-07
 62.27423    173.2 2.104e+04 3.526e-07
 62.28427    172.2 2.147e+04 3.029e-07
 62.29287    170.8 2.200e+04 2.419e-07
 62.29789    167.0 2.317e+04 8.610e-08
 62.30433    165.9 2.286e+04 7.335e-08
 62.31102    165.1 2.245e+04 6.590e-08
 62.31603    164.2 2.266e+04 6.207e-08
 62.32440    162.7 2.235e+04 5.380e-08
 62.33433    160.1 2.062e+04 6.327e-08
 62.34441    156.6 1.544e+04 3.417e-08
 62.35961    155.2 1.523e+04 3.504e-08
 62.37967    155.3 1.535e+04 4.041e-08
 62.39973    155.9 1.586e+04 4.998e-08
 62.41718    156.8 1.622e+04 5.601e-08
 62.42721    156.2 1.570e+04 4.985e-08
 62.43986    157.0 1.572e+04 5.037e-08
 62.45993    157.9 1.564e+04 4.869e-08
 62.47999    158.9 1.536e+04 4.452e-08
 62.49999    159.9 1.498e+04 3.950e-08
 62.52005    159.5 1.517e+04 4.219e-08
 62.54018    160.2 1.493e+04 3.957e-08
 62.56025    160.8 1.466e+04 3.692e-08
 62.58031    161.5 1.432e+04 3.389e-08
 62.59282    162.4 1.391e+04 3.052e-08
 62.60285    161.9 1.512e+04 4.407e-08
 62.62044    162.8 1.488e+04 4.054e-08
 62.64050    163.6 1.453e+04 3.573e-08
 62.66057    164.5 1.405e+04 2.978e-08
 62.67563    165.3 1.342e+04 2.349e-08
 62.68566    164.0 1.561e+04 4.479e-08
 62.70070    164.1 1.525e+04 3.758e-08
 62.72076    164.0 1.470e+04 3.045e-08
 62.74083    163.6 1.403e+04 2.545e-08
 62.75843    162.8 1.365e+04 2.352e-08
 62.76846    160.0 1.590e+04 4.813e-08
 62.78095    158.8 1.576e+04 4.018e-08
 62.80102    158.2 1.580e+04 3.426e-08
 62.82108    157.9 1.573e+04 3.079e-08
 62.84115    158.1 1.577e+04 3.136e-08
 62.86121    154.8 1.714e+04 3.759e-08
 62.88128    154.8 1.705e+04 3.896e-08
 62.90134    154.8 1.696e+04 4.045e-08
 62.91634    154.0 1.725e+04 4.449e-08
 62.92632    153.6 1.705e+04 4.637e-08
 62.93398    153.3 1.687e+04 4.741e-08
 62.94406    152.2 1.623e+04 4.426e-08
 62.95647    152.0 1.645e+04 4.860e-08
 62.96645    151.8 1.656e+04 5.245e-08
 62.97538    151.5 1.655e+04 5.437e-08
 62.98040    151.0 1.631e+04 5.140e-08
 62.98652    150.7 1.632e+04 5.207e-08
 62.99655    150.4 1.631e+04 5.149e-08
 63.00658    149.8 1.634e+04 5.083e-08
 63.01661    148.8 1.644e+04 5.127e-08
 63.02180    147.0 1.678e+04 5.417e-08
 63.02681    146.3 1.697e+04 5.553e-08
 63.04174    139.9 1.862e+04 8.979e-08
 63.06185    132.6 1.998e+04 1.473e-07
 63.07685    128.7 2.050e+04 1.984e-07
 63.08684    125.7 2.081e+04 1.902e-07
 63.09964    118.4 2.144e+04 1.151e-07
 63.10972    118.2 2.133e+04 1.116e-07
 63.12205    109.8 2.375e+04 2.040e-08
 63.14211     94.3 1.686e+04 4.496e-09
 63.16218     81.9 9.537e+03 4.654e-09
 63.18224     78.6 9.226e+03 4.459e-09
 63.19252     77.1 9.267e+03 4.507e-09
 63.20255     77.2 9.270e+03 4.433e-09
 63.22237     75.0 9.419e+03 4.692e-09
 63.24243     72.5 9.641e+03 5.267e-09
 63.26250     70.0 9.952e+03 6.235e-09
 63.27533     67.7 1.048e+04 7.811e-09
 63.28536     66.9 1.079e+04 8.833e-09
 63.30263     64.8 1.139e+04 1.154e-08
 63.32269     63.0 1.195e+04 1.478e-08
 63.34275     61.2 1.260e+04 1.835e-08
 63.35813     58.9 1.346e+04 2.268e-08
 63.36816     57.3 1.375e+04 2.359e-08
 63.38288     54.3 1.453e+04 2.900e-08
 63.40295     51.3 1.492e+04 3.403e-08
 63.42301     49.0 1.513e+04 3.767e-08
 63.44094     47.4 1.485e+04 3.763e-08
 63.45097     46.4 1.469e+04 3.550e-08
 63.46314     45.4 1.409e+04 2.727e-08
 63.48320     44.2 1.314e+04 1.738e-08
 63.50327     42.4 1.181e+04 1.038e-08
 63.52333     40.3 1.057e+04 6.985e-09
 63.53378     38.4 1.041e+04 6.591e-09
 63.54367     36.5 1.093e+04 7.979e-09
 63.55329     34.0 1.074e+04 7.474e-09
 63.56346     32.7 1.143e+04 1.038e-08
 63.58353     31.6 1.216e+04 1.479e-08
 63.60359     31.2 1.269e+04 1.934e-08
 63.61658     30.5 1.309e+04 2.268e-08
 63.62661     28.8 1.353e+04 2.437e-08
 63.64372     24.6 1.553e+04 3.375e-08
 63.66378     13.2 1.897e+04 9.248e-08
 63.67878      7.4 1.975e+04 1.660e-07
 63.68876      3.7 1.964e+04 2.497e-07
 63.69880      1.0 1.927e+04 2.452e-07
 63.70430     -0.7 1.862e+04 1.962e-07
 63.70932     -0.8 1.841e+04 1.658e-07
 63.71886     -1.8 1.735e+04 9.544e-08
 63.72889     -4.1 1.623e+04 5.570e-08
 63.74399     -8.2 1.439e+04 2.614e-08
 63.76410    -13.1 1.239e+04 1.262e-08
 63.78219    -16.7 1.074e+04 8.587e-09
 63.79222    -16.0 1.063e+04 8.416e-09
 63.80423    -15.9 1.048e+04 8.054e-09
 63.82430    -15.6 1.038e+04 7.794e-09
 63.84436    -15.2 1.027e+04 7.299e-09
 63.86442    -14.8 1.002e+04 6.484e-09
 63.87503    -14.3 9.666e+03 5.483e-09
 63.88506    -13.8 9.822e+03 6.087e-09
 63.90455    -13.4 9.563e+03 5.127e-09
 63.92462    -13.4 9.362e+03 4.436e-09
 63.94468    -13.3 9.058e+03 3.921e-09
 63.95783    -12.8 8.980e+03 3.870e-09
 63.96787    -12.2 9.214e+03 4.428e-09
 63.98481    -11.8 9.312e+03 4.611e-09
 64.00487    -11.6 9.499e+03 5.027e-09
 64.02494    -11.7 9.845e+03 5.924e-09
 64.04064    -11.9 1.023e+04 7.257e-09
 64.05067    -11.5 1.055e+04 8.266e-09
 64.06507    -11.6 1.097e+04 1.031e-08
 64.08513    -11.3 1.101e+04 1.073e-08
 64.10520    -10.7 1.079e+04 9.949e-09
 64.12344    -10.5 1.046e+04 8.198e-09
 64.13348    -10.7 1.081e+04 9.373e-09
 64.14532    -11.5 1.061e+04 7.948e-09
 64.16539    -12.4 1.043e+04 7.435e-09
 64.18545    -13.2 1.047e+04 7.687e-09
 64.20552    -13.7 1.062e+04 8.294e-09
 64.21628    -14.1 1.086e+04 9.327e-09
 64.22631    -14.3 1.086e+04 9.327e-09
 64.24565    -14.2 1.091e+04 9.560e-09
 64.26571    -14.5 1.100e+04 9.387e-09
 64.28577    -14.6 1.088e+04 8.624e-09
 64.29909    -14.7 1.062e+04 7.522e-09
 64.30912    -14.5 9.989e+03 5.203e-09
 64.32590    -14.7 9.835e+03 4.364e-09
 64.34597    -15.1 9.816e+03 3.668e-09
 64.36603    -15.4 9.944e+03 3.213e-09
 64.38189    -16.2 1.020e+04 3.064e-09
 64.40205    -16.7 1.032e+04 2.653e-09
 64.43645    -18.1 1.042e+04 2.535e-09
 64.47658    -20.6 1.058e+04 2.729e-09
 64.50658    -24.4 1.036e+04 2.931e-09
 64.52655    -24.0 1.006e+04 2.956e-09
 64.54661    -24.8 9.627e+03 3.738e-09
 64.55753    -24.2 9.638e+03 3.736e-09
 64.56757    -24.6 1.002e+04 4.628e-09
 64.58674    -25.1 1.014e+04 5.345e-09
 64.60680    -25.4 1.018e+04 5.953e-09
 64.62687    -25.6 1.025e+04 6.950e-09
 64.64034    -25.8 1.041e+04 7.304e-09
 64.65037    -26.5 1.054e+04 7.466e-09
 64.66700    -27.2 1.030e+04 7.609e-09
 64.68706    -27.4 1.022e+04 6.207e-09
 64.70712    -28.0 9.630e+03 5.905e-09
 64.72314    -28.6 9.653e+03 4.287e-09
 64.73318    -29.2 9.411e+03 3.197e-09
 64.74725    -30.3 8.747e+03 2.971e-09
 64.76732    -30.7 8.565e+03 2.746e-09
 64.78738    -31.0 8.546e+03 2.906e-09
 64.80595    -31.4 8.882e+03 2.860e-09
 64.81598    -32.1 8.773e+03 2.648e-09
 64.82751    -32.6 8.875e+03 3.412e-09
 64.84757    -33.6 9.461e+03 4.736e-09
 64.86764    -36.4 1.126e+04 9.377e-09
 64.88770    -39.4 1.294e+04 2.000e-08
 64.89879    -41.3 1.427e+04 3.481e-08
 64.90882    -40.8 1.420e+04 3.412e-08
 64.92783    -41.1 1.628e+04 5.836e-08
 64.94789    -43.7 1.786e+04 7.613e-08
 64.96796    -48.1 1.827e+04 8.036e-08
 64.98159    -53.1 1.837e+04 8.205e-08
 64.98656    -52.1 1.917e+04 1.350e-07
 64.99294    -54.5 1.941e+04 1.418e-07
 65.00297    -57.5 1.980e+04 1.249e-07
 65.01301    -60.4 2.007e+04 1.256e-07
 65.02810    -65.3 2.015e+04 1.235e-07
 65.04822    -72.1 1.935e+04 1.322e-07
 65.06440    -76.7 1.864e+04 1.388e-07
 65.07438    -78.5 1.823e+04 1.429e-07
 65.08830    -81.0 1.791e+04 1.158e-07
 65.10841    -84.4 1.703e+04 6.751e-08
 65.12847    -89.4 1.536e+04 3.897e-08
 65.14720    -93.8 1.401e+04 3.092e-08
 65.15723    -94.6 1.359e+04 2.740e-08
 65.16860    -96.1 1.323e+04 2.620e-08
 65.18867    -97.0 1.316e+04 2.605e-08
 65.20873    -98.0 1.297e+04 2.354e-08
 65.22879    -99.5 1.256e+04 1.926e-08
 65.24004   -101.4 1.203e+04 1.567e-08
 65.25007   -101.1 1.191e+04 1.510e-08
 65.26892   -102.5 1.153e+04 1.355e-08
 65.28899   -103.4 1.141e+04 1.306e-08
 65.30905   -104.1 1.141e+04 1.291e-08
 65.32284   -104.9 1.185e+04 1.419e-08
 65.33288   -103.7 1.153e+04 1.303e-08
 65.34918   -104.5 1.218e+04 1.517e-08
 65.36924   -105.4 1.310e+04 2.007e-08
 65.38931   -106.2 1.398e+04 2.784e-08
 65.40565   -106.6 1.458e+04 3.426e-08
 65.41568   -105.3 1.425e+04 3.129e-08
 65.42944   -105.7 1.462e+04 3.497e-08
 65.44950   -106.0 1.473e+04 3.599e-08
 65.46957   -106.4 1.471e+04 3.276e-08
 65.48845   -107.1 1.454e+04 2.461e-08
 65.49849   -105.3 1.454e+04 2.955e-08
 65.50969   -106.2 1.446e+04 2.250e-08
 65.52976   -107.8 1.415e+04 1.589e-08
 65.54982   -110.1 1.315e+04 1.158e-08
 65.56989   -112.3 1.158e+04 1.002e-08
 65.58129   -114.1 1.081e+04 9.631e-09
 65.59132   -112.3 1.250e+04 1.407e-08
 65.61002   -113.7 1.211e+04 1.444e-08
 65.63008   -115.0 1.217e+04 1.453e-08
 65.65014   -116.9 1.235e+04 1.352e-08
 65.66410   -119.9 1.232e+04 1.139e-08
 65.67413   -117.6 1.345e+04 1.978e-08
 65.69027   -121.4 1.296e+04 1.485e-08
 65.71034   -126.0 1.227e+04 1.169e-08
 65.73040   -131.1 1.183e+04 1.084e-08
 65.74690   -135.0 1.163e+04 1.094e-08
 65.75693   -134.5 1.156e+04 1.312e-08
 65.77053   -137.7 1.164e+04 1.359e-08
 65.79059   -139.9 1.173e+04 1.425e-08
 65.81066   -141.9 1.170e+04 1.437e-08
 65.82971   -144.0 1.169e+04 1.440e-08
 65.83974   -144.8 1.216e+04 1.752e-08
 65.85079   -148.0 1.237e+04 1.812e-08
 65.87085   -151.8 1.312e+04 2.067e-08
 65.89091   -155.8 1.432e+04 2.776e-08
 65.91098   -159.2 1.537e+04 3.968e-08
 65.92254   -162.0 1.605e+04 5.375e-08
 65.93258   -163.1 1.636e+04 6.390e-08
 65.95111   -165.1 1.663e+04 7.299e-08
 65.97117   -166.8 1.663e+04 7.499e-08
 65.99124   -168.2 1.603e+04 6.275e-08
 66.00535   -169.7 1.492e+04 4.394e-08
 66.01538   -170.3 1.489e+04 4.377e-08
 66.02761   -171.4 1.376e+04 3.124e-08
 66.03764   -171.6 1.366e+04 3.052e-08
 66.05143   -172.3 1.266e+04 2.285e-08
 66.07149   -172.9 1.224e+04 1.994e-08
 66.08815   -173.2 1.213e+04 1.928e-08
 66.09819   -173.0 1.209e+04 1.937e-08
 66.11162   -173.3 1.209e+04 1.935e-08
 66.13169   -173.6 1.217e+04 1.990e-08
 66.15175   -174.0 1.227e+04 2.052e-08
 66.17096   -174.3 1.229e+04 2.065e-08
 66.18099   -174.4 1.248e+04 2.233e-08
 66.19188   -174.7 1.249e+04 2.242e-08
 66.21194   -175.0 1.235e+04 2.087e-08
 66.23201   -175.2 1.208e+04 1.835e-08
 66.25207   -175.3 1.176e+04 1.574e-08
 66.26380   -175.5 1.144e+04 1.348e-08
 66.27383   -175.7 1.201e+04 1.737e-08
 66.29220   -175.9 1.172e+04 1.496e-08
 66.31226   -176.0 1.145e+04 1.301e-08
 66.33233   -176.2 1.122e+04 1.153e-08
 66.34660   -176.4 1.104e+04 1.051e-08
 66.35663   -176.7 1.146e+04 1.258e-08
 66.37246   -176.9 1.130e+04 1.158e-08
 66.39252   -177.1 1.123e+04 1.102e-08
 66.41259   -177.2 1.120e+04 1.071e-08
 66.42941   -177.3 1.116e+04 1.041e-08
 66.43944   -178.0 1.119e+04 1.065e-08
 66.45271   -178.0 1.110e+04 1.007e-08
 66.47278   -177.8 1.098e+04 9.502e-09
 66.49284   -177.5 1.088e+04 8.955e-09
 66.51221   -177.1 1.077e+04 8.410e-09
 66.52224   -177.8 1.060e+04 7.701e-09
 66.53297   -177.3 1.046e+04 7.042e-09
 66.55304   -176.5 1.025e+04 6.206e-09
 66.57310   -175.6 9.986e+03 5.199e-09
 66.59316   -174.3 9.709e+03 4.158e-09
 66.60505   -173.0 9.521e+03 3.328e-09
 66.61508   -172.9 9.493e+03 3.001e-09
 66.64342   -172.8 9.512e+03 2.720e-09
 66.68365   -172.3 9.527e+03 2.453e-09
 66.72378   -170.8 9.458e+03 2.260e-09
 66.76082   -168.8 9.431e+03 2.214e-09
 66.78089   -169.2 9.286e+03 2.023e-09
 66.80403   -166.9 9.357e+03 2.109e-09
 66.84416   -164.6 9.518e+03 2.356e-09
 66.88429   -162.3 9.684e+03 2.736e-09
 66.92442   -160.1 9.782e+03 3.144e-09
 66.94640   -157.8 9.812e+03 3.315e-09
 66.96646   -157.8 9.751e+03 3.206e-09
 67.00468   -155.7 9.803e+03 3.371e-09
 67.04480   -153.9 9.844e+03 3.381e-09
 67.08493   -152.4 9.891e+03 3.190e-09
 67.11211   -150.9 9.898e+03 2.996e-09
 67.13217   -149.9 9.929e+03 3.137e-09
 67.16519   -148.5 9.918e+03 3.041e-09
 67.20532   -147.4 9.934e+03 2.976e-09
 67.24545   -146.6 9.866e+03 2.826e-09
 67.27772   -145.6 9.725e+03 2.528e-09
 67.29778   -144.7 1.016e+04 3.601e-09
 67.32570   -143.7 9.955e+03 3.012e-09
 67.36583   -142.5 9.712e+03 2.292e-09
 67.40596   -141.1 9.504e+03 1.635e-09
 67.44333   -139.5 9.365e+03 1.165e-09
 67.46339   -138.4 9.518e+03 1.379e-09
 67.48622   -136.7 9.381e+03 9.258e-10
 67.52635   -134.9 9.320e+03 7.262e-10
 67.56648   -132.8 9.315e+03 6.524e-10
 67.60660   -130.7 9.314e+03 6.378e-10
 67.62900   -128.7 9.330e+03 6.384e-10
 67.64907   -127.3 9.327e+03 6.275e-10
 67.68686   -126.7 9.612e+03 6.723e-10
 67.72699   -126.8 1.020e+04 1.258e-09
 67.76712   -127.0 1.076e+04 3.200e-09
 67.79461   -127.2 1.145e+04 7.143e-09
 67.81468   -127.4 1.190e+04 9.620e-09
 67.84738   -128.7 1.208e+04 1.305e-08
 67.88750   -130.2 1.201e+04 1.358e-08
 67.91750   -130.7 1.157e+04 1.206e-08
 67.93747   -130.7 1.141e+04 1.142e-08
 67.95753   -131.1 1.097e+04 9.443e-09
 67.97006   -131.1 1.071e+04 8.070e-09
 67.98009   -131.3 1.080e+04 8.615e-09
 67.99766   -131.5 1.053e+04 7.651e-09
 68.01773   -131.5 1.038e+04 7.288e-09
 68.03779   -131.6 1.032e+04 7.221e-09
 68.05287   -131.4 1.031e+04 7.239e-09
 68.06290   -131.4 1.045e+04 8.059e-09
 68.07792   -131.3 1.043e+04 8.089e-09
 68.09798   -131.1 1.036e+04 8.041e-09
 68.11805   -130.8 1.020e+04 7.618e-09
 68.13567   -130.5 1.000e+04 6.934e-09
 68.14570   -130.5 1.005e+04 7.233e-09
 68.15818   -130.2 9.842e+03 6.554e-09
 68.17824   -130.0 9.651e+03 6.040e-09
 68.19830   -129.7 9.502e+03 5.736e-09
 68.21837   -129.3 9.415e+03 5.633e-09
 68.22851   -128.9 9.397e+03 5.627e-09
 68.23854   -128.9 9.400e+03 5.812e-09
 68.25850   -128.6 9.363e+03 5.779e-09
 68.27856   -128.4 9.324e+03 5.801e-09
 68.29863   -128.2 9.278e+03 5.727e-09
 68.31131   -128.1 9.241e+03 5.601e-09
 68.32134   -128.1 9.119e+03 5.318e-09
 68.33875   -128.0 9.011e+03 4.993e-09
 68.35882   -128.0 8.913e+03 4.682e-09
 68.37888   -127.9 8.803e+03 4.367e-09
 68.39412   -127.7 8.689e+03 4.051e-09
 68.40415   -127.3 8.442e+03 3.546e-09
 68.41901   -127.1 8.437e+03 3.416e-09
 68.43908   -127.0 8.475e+03 3.371e-09
 68.45914   -127.0 8.484e+03 3.362e-09
 68.47692   -127.2 8.523e+03 3.363e-09
 68.48696   -127.0 8.501e+03 3.267e-09
 68.49927   -127.2 8.531e+03 3.322e-09
 68.51196   -127.6 8.589e+03 3.406e-09
 68.53213   -128.0 8.569e+03 3.203e-09
 68.56969   -128.9 8.632e+03 3.211e-09
 68.59969   -130.1 8.734e+03 3.464e-09
 68.61965   -131.1 8.880e+03 3.803e-09
 68.63972   -132.4 9.044e+03 4.316e-09
 68.65257   -133.4 9.261e+03 4.917e-09
 68.66260   -133.6 9.209e+03 4.775e-09
 68.67985   -134.7 9.398e+03 5.311e-09
 68.69991   -136.0 9.615e+03 5.890e-09
 68.71998   -137.4 9.841e+03 6.587e-09
 68.73537   -138.7 1.007e+04 7.415e-09
 68.74540   -138.7 9.787e+03 6.504e-09
 68.76010   -139.9 9.981e+03 7.194e-09
 68.78017   -140.9 1.015e+04 7.896e-09
 68.80023   -141.8 1.024e+04 8.356e-09
 68.81818   -142.4 1.025e+04 8.468e-09
 68.82821   -142.5 1.003e+04 7.645e-09
 68.84036   -142.9 1.003e+04 7.708e-09
 68.86043   -143.2 9.962e+03 7.626e-09
 68.88049   -143.4 9.886e+03 7.400e-09
 68.90055   -143.7 9.858e+03 7.237e-09
 68.91101   -144.1 9.873e+03 7.237e-09
 68.92105   -144.4 9.926e+03 7.341e-09
 68.94068   -145.3 1.016e+04 7.954e-09
 68.96075   -146.3 1.049e+04 9.015e-09
 68.98081   -147.5 1.084e+04 1.039e-08
 68.99382   -148.9 1.116e+04 1.189e-08
 69.00385   -150.4 1.140e+04 1.341e-08
 69.02094   -152.3 1.174e+04 1.538e-08
 69.04100   -154.4 1.214e+04 1.781e-08
 69.06107   -156.7 1.264e+04 2.123e-08
 69.07662   -159.2 1.318e+04 2.596e-08
 69.08666   -161.0 1.337e+04 2.846e-08
 69.10120   -163.3 1.370e+04 3.209e-08
 69.12126   -165.4 1.381e+04 3.384e-08
 69.14132   -167.6 1.368e+04 3.310e-08
 69.15943   -169.6 1.291e+04 2.471e-08
 69.16946   -170.9 1.234e+04 2.010e-08
 69.18145   -173.1 1.100e+04 1.173e-08
 69.20152   -175.4 9.553e+03 6.773e-09
 69.22158   -177.4 8.599e+03 4.492e-09
 69.24165   -178.6 8.332e+03 3.735e-09
 69.25227   -179.3 8.266e+03 3.571e-09
 69.26230   -179.6 8.162e+03 3.308e-09
 69.28177   -180.7 8.192e+03 3.318e-09
 69.30184   -183.1 8.381e+03 3.483e-09
 69.32190   -187.0 9.360e+03 4.981e-09
 69.33507   -190.8 1.147e+04 1.011e-08
 69.34510   -193.8 1.281e+04 1.642e-08
 69.36203   -196.6 1.405e+04 2.941e-08
 69.38210   -199.4 1.473e+04 4.093e-08
 69.40216   -202.5 1.494e+04 4.519e-08
 69.41788   -205.5 1.476e+04 4.435e-08
 69.42791   -208.5 1.384e+04 3.172e-08
 69.44229   -211.3 1.267e+04 1.995e-08
 69.46235   -214.1 1.144e+04 1.260e-08
 69.48242   -216.5 1.069e+04 9.429e-09
 69.50068   -218.4 1.050e+04 8.653e-09
 69.51071   -219.9 9.823e+03 6.373e-09
 69.52255   -221.2 9.921e+03 6.409e-09
 69.54261   -222.5 1.032e+04 7.239e-09
 69.56267   -223.6 1.071e+04 8.707e-09
 69.58274   -224.8 1.102e+04 1.020e-08
 69.59352   -225.9 1.125e+04 1.140e-08
 69.60355   -226.4 1.055e+04 8.086e-09
 69.62287   -227.6 1.069e+04 8.668e-09
 69.64293   -228.8 1.085e+04 9.359e-09
 69.66300   -230.2 1.109e+04 1.046e-08
 69.67632   -231.5 1.142e+04 1.212e-08
 69.68636   -231.2 1.095e+04 9.739e-09
 69.70312   -232.4 1.137e+04 1.187e-08
 69.72319   -233.5 1.175e+04 1.411e-08
 69.74325   -234.7 1.206e+04 1.550e-08
 69.75913   -236.1 1.218e+04 1.578e-08
 69.76916   -235.4 1.208e+04 1.488e-08
 69.78338   -236.9 1.216e+04 1.476e-08
 69.80345   -238.5 1.219e+04 1.271e-08
 69.82351   -240.2 1.208e+04 1.030e-08
 69.84193   -241.7 1.196e+04 8.216e-09
 69.85197   -240.6 1.194e+04 8.858e-09
 69.86364   -241.9 1.179e+04 7.072e-09
 69.88370   -242.8 1.163e+04 5.898e-09
 69.90377   -243.2 1.145e+04 5.136e-09
 69.92383   -243.2 1.128e+04 4.584e-09
 69.93477   -243.2 1.112e+04 4.143e-09
 69.94480   -242.4 1.112e+04 3.981e-09
 69.96396   -242.2 1.097e+04 3.637e-09
 69.98402   -241.5 1.085e+04 3.398e-09
 70.00409   -240.7 1.079e+04 3.295e-09
 70.01758   -239.7 1.078e+04 3.278e-09
 70.02761   -239.0 1.080e+04 3.209e-09
 70.04422   -238.1 1.080e+04 3.213e-09
 70.06428   -237.5 1.089e+04 3.240e-09
 70.08434   -237.3 1.136e+04 3.559e-09
 70.10038   -237.1 1.167e+04 4.953e-09
 70.11041   -236.3 1.166e+04 4.703e-09
 70.12447   -236.3 1.208e+04 7.350e-09
 70.14454   -236.2 1.266e+04 1.181e-08
 70.16460   -236.2 1.325e+04 1.780e-08
 70.18319   -237.2 1.359e+04 2.311e-08
 70.19322   -236.5 1.382e+04 2.447e-08
 70.20473   -238.2 1.387e+04 2.725e-08
 70.22479   -239.6 1.370e+04 2.744e-08
 70.24486   -240.0 1.284e+04 2.325e-08
 70.26492   -239.9 1.189e+04 1.639e-08
 70.27602   -239.8 1.099e+04 1.077e-08
 70.28606   -239.1 1.139e+04 1.328e-08
 70.30505   -238.6 1.051e+04 8.543e-09
 70.32512   -237.7 9.765e+03 5.592e-09
 70.34518   -236.3 9.217e+03 3.891e-09
 70.35883   -235.0 8.906e+03 2.997e-09
 70.36886   -234.1 9.049e+03 3.398e-09
 70.38531   -232.6 8.885e+03 2.841e-09
 70.41550   -231.6 8.796e+03 2.579e-09
 70.45573   -230.1 8.510e+03 2.204e-09
 70.49586   -227.9 8.149e+03 1.884e-09
 70.52463   -225.7 7.908e+03 1.709e-09
 70.54470   -224.0 8.051e+03 1.810e-09
 70.57611   -221.9 7.887e+03 1.721e-09
 70.61624   -219.9 7.842e+03 1.710e-09
 70.65637   -218.0 7.812e+03 1.758e-09
 70.69024   -216.4 7.800e+03 1.832e-09
 70.71031   -214.6 7.871e+03 1.898e-09
 70.73663   -213.0 7.847e+03 1.929e-09
 70.77676   -211.5 7.783e+03 1.865e-09
 70.81689   -209.9 7.688e+03 1.753e-09
 70.85585   -208.3 7.578e+03 1.603e-09
 70.87592   -206.2 7.607e+03 1.607e-09
 70.89714   -204.4 7.490e+03 1.417e-09
 70.93727   -202.6 7.401e+03 1.268e-09
 70.97740   -200.8 7.346e+03 1.159e-09
 71.01753   -198.9 7.308e+03 1.107e-09
 71.04153   -197.0 7.296e+03 1.094e-09
 71.06159   -194.8 7.348e+03 1.030e-09
 71.09779   -192.9 7.351e+03 1.026e-09
 71.13791   -191.3 7.467e+03 1.090e-09
 71.17804   -190.4 7.656e+03 1.341e-09
 71.20714   -189.9 8.126e+03 1.924e-09
 71.22720   -187.7 8.039e+03 1.671e-09
 71.25830   -187.3 8.755e+03 2.721e-09
 71.29843   -188.0 9.714e+03 4.570e-09
 71.33856   -190.5 1.061e+04 7.158e-09
 71.37275   -194.2 1.116e+04 9.614e-09
 71.39281   -191.1 1.089e+04 8.566e-09
 71.41881   -194.8 1.101e+04 9.293e-09
 71.45894   -197.8 1.101e+04 9.413e-09
 71.49907   -199.8 1.096e+04 9.088e-09
 71.53836   -200.6 1.095e+04 8.304e-09
 71.55842   -198.4 1.066e+04 6.736e-09
 71.57933   -198.5 1.069e+04 6.400e-09
 71.61946   -198.5 1.072e+04 6.363e-09
 71.65958   -199.3 1.118e+04 6.592e-09
 71.68958   -199.4 1.185e+04 7.548e-09
 71.70955   -200.3 1.217e+04 9.415e-09
 71.72384   -201.5 1.265e+04 1.275e-08
 71.73387   -200.0 1.235e+04 1.071e-08
 71.74968   -201.8 1.310e+04 1.516e-08
 71.76974   -204.1 1.379e+04 2.201e-08
 71.78981   -206.5 1.422e+04 2.905e-08
 71.80664   -208.7 1.424e+04 3.276e-08
 71.81668   -207.2 1.399e+04 2.703e-08
 71.82994   -209.3 1.396e+04 2.814e-08
 71.85000   -210.9 1.351e+04 2.732e-08
 71.87006   -212.1 1.283e+04 2.079e-08
 71.88945   -213.0 1.212e+04 1.383e-08
 71.89948   -212.0 1.227e+04 1.541e-08
 71.91019   -212.8 1.170e+04 1.030e-08
 71.93026   -213.6 1.124e+04 6.706e-09
 71.95032   -214.3 1.098e+04 4.665e-09
 71.97039   -215.0 1.097e+04 3.824e-09
 71.98229   -215.7 1.101e+04 3.650e-09
 71.99232   -214.8 1.102e+04 3.727e-09
 72.01051   -215.5 1.103e+04 3.661e-09
 72.03058   -216.2 1.119e+04 3.735e-09
 72.05064   -217.0 1.143e+04 4.342e-09
 72.06509   -217.8 1.160e+04 5.244e-09
 72.07512   -216.7 1.136e+04 4.529e-09
 72.09077   -217.3 1.147e+04 5.141e-09
 72.11083   -217.8 1.151e+04 5.485e-09
 72.13090   -218.3 1.151e+04 5.545e-09
 72.14790   -218.5 1.138e+04 5.394e-09
 72.15793   -216.9 1.108e+04 4.383e-09
 72.17103   -216.9 1.112e+04 3.874e-09
 72.19109   -216.9 1.125e+04 3.338e-09
 72.22077   -217.1 1.135e+04 2.697e-09
 72.24093   -215.3 1.112e+04 2.333e-09
 72.26151   -214.9 1.106e+04 1.671e-09
 72.30164   -214.4 1.101e+04 1.238e-09
 72.34177   -213.2 1.089e+04 1.066e-09
 72.38190   -211.4 1.084e+04 1.039e-09
 72.40654   -209.5 1.080e+04 1.061e-09
 72.42660   -208.0 1.099e+04 7.641e-10
 72.46215   -206.2 1.105e+04 8.057e-10
 72.50228   -204.5 1.101e+04 9.304e-10
 72.54241   -202.7 1.095e+04 1.062e-09
 72.57215   -200.8 1.090e+04 1.156e-09
 72.59221   -199.6 1.105e+04 9.342e-10
 72.62267   -197.7 1.099e+04 1.003e-09
 72.66280   -195.7 1.092e+04 1.055e-09
 72.70293   -193.6 1.087e+04 1.101e-09
 72.73776   -191.6 1.087e+04 1.167e-09
 72.75783   -190.5 1.100e+04 9.781e-10
 72.78318   -188.7 1.102e+04 1.052e-09
 72.82331   -187.0 1.105e+04 1.206e-09
 72.86344   -185.5 1.110e+04 1.496e-09
 72.90337   -184.1 1.115e+04 1.952e-09
 72.92344   -183.1 1.106e+04 1.539e-09
 72.94370   -181.9 1.107e+04 2.035e-09
 72.98383   -180.8 1.106e+04 2.475e-09
 73.02395   -179.9 1.101e+04 2.656e-09
 73.06408   -179.0 1.096e+04 2.674e-09
 73.08905   -177.7 1.070e+04 2.436e-09
 73.10911   -176.7 1.057e+04 1.738e-09
 73.14434   -175.1 1.041e+04 1.360e-09
 73.18447   -173.4 1.030e+04 1.033e-09
 73.22460   -171.7 1.021e+04 7.939e-10
 73.25466   -169.8 1.015e+04 6.283e-10
 73.27472   -169.1 1.010e+04 5.711e-10
 73.30485   -167.2 1.007e+04 4.945e-10
 73.34498   -165.3 1.007e+04 4.467e-10
 73.38511   -163.3 1.007e+04 4.262e-10
 73.42027   -161.4 1.007e+04 4.223e-10
 73.44033   -160.7 1.010e+04 4.435e-10
 73.46080   -158.9 1.019e+04 4.440e-10
 73.48086   -157.9 1.008e+04 4.478e-10
 73.50550   -156.3 1.028e+04 4.707e-10
 73.54562   -154.9 1.047e+04 6.344e-10
 73.58575   -153.4 1.053e+04 9.519e-10
 73.62588   -150.6 1.063e+04 1.329e-09
 73.66601   -148.8 1.075e+04 1.802e-09
 73.70614   -146.9 1.088e+04 2.274e-09
 73.74627   -144.9 1.099e+04 2.641e-09
 73.77155   -142.8 1.108e+04 2.856e-09
 73.79162   -141.9 1.123e+04 3.474e-09
 73.82652   -140.0 1.137e+04 3.832e-09
 73.86665   -138.1 1.152e+04 4.238e-09
 73.90678   -136.2 1.177e+04 4.917e-09
 73.93716   -134.6 1.224e+04 6.355e-09
 73.95723   -135.4 1.230e+04 6.722e-09
 73.97691   -134.6 1.275e+04 9.379e-09
 73.99688   -134.0 1.308e+04 1.141e-08
 74.01694   -133.8 1.349e+04 1.409e-08
 74.02980   -134.0 1.390e+04 1.697e-08
 74.03984   -135.0 1.364e+04 1.539e-08
 74.05707   -135.3 1.380e+04 1.594e-08
 74.07713   -135.8 1.388e+04 1.561e-08
 74.09720   -136.2 1.396e+04 1.392e-08
 74.11261   -136.5 1.410e+04 1.279e-08
 74.12264   -137.5 1.362e+04 1.036e-08
 74.13733   -137.8 1.366e+04 1.021e-08
 74.15739   -139.2 1.480e+04 1.214e-08
 74.17745   -141.5 1.883e+04 2.544e-08
 74.19245   -142.7 2.051e+04 2.496e-08
 74.20033   -144.6 2.093e+04 3.208e-08
 74.20540   -145.6 1.596e+04 2.529e-08
 74.21758   -149.7 1.666e+04 2.915e-08
 74.23765   -155.7 1.820e+04 3.179e-08
 74.25265   -160.1 1.862e+04 2.550e-08
 74.26263   -167.3 2.056e+04 4.238e-08
 74.27266   -174.0 2.139e+04 1.064e-07
 74.28269   -179.0 2.103e+04 2.866e-07
 74.28815   -183.3 2.067e+04 4.935e-07
 74.29317   -182.7 1.998e+04 7.850e-07
 74.30276   -187.0 1.951e+04 1.080e-06
 74.31279   -190.7 1.926e+04 1.116e-06
 74.32282   -192.4 1.872e+04 7.757e-07
 74.32956   -192.9 1.854e+04 3.456e-07
 74.33457   -192.4 1.852e+04 5.176e-07
 74.34289   -192.5 1.832e+04 2.034e-07
 74.35292   -192.9 1.762e+04 8.734e-08
 74.36295   -193.4 1.657e+04 4.900e-08
 74.37096   -193.4 1.576e+04 3.507e-08
 74.37597   -192.8 1.593e+04 3.601e-08
 74.38301   -192.5 1.548e+04 2.891e-08
 74.39811   -192.0 1.514e+04 2.346e-08
 74.41822   -190.5 1.442e+04 1.430e-08
 74.43829   -188.4 1.376e+04 8.301e-09
 74.45386   -186.8 1.361e+04 5.847e-09
 74.46389   -186.7 1.366e+04 3.957e-09
 74.47842   -185.0 1.356e+04 3.193e-09
 74.49848   -183.1 1.347e+04 2.584e-09
 74.51855   -181.2 1.347e+04 2.151e-09
 74.54874   -179.3 1.348e+04 1.922e-09
 74.58897   -177.6 1.337e+04 1.760e-09
 74.61967   -175.2 1.310e+04 1.554e-09
 74.63973   -174.4 1.290e+04 1.208e-09
 74.66922   -172.0 1.283e+04 1.140e-09
 74.70935   -169.7 1.283e+04 1.121e-09
 74.74948   -167.7 1.285e+04 1.115e-09
 74.78528   -166.1 1.306e+04 1.139e-09
 74.80534   -165.1 1.282e+04 1.103e-09
 74.82974   -163.7 1.291e+04 1.347e-09
 74.86987   -162.6 1.304e+04 1.741e-09
 74.90999   -161.7 1.323e+04 2.503e-09
 74.95012   -161.0 1.348e+04 3.982e-09
 74.97095   -160.5 1.374e+04 6.373e-09
 74.99102   -159.2 1.361e+04 6.266e-09
 75.03038   -159.1 1.386e+04 9.338e-09
 75.05366   -159.5 1.396e+04 1.193e-08
 75.06359   -159.1 1.394e+04 1.227e-08
 75.08035   -159.6 1.395e+04 1.308e-08
 75.10041   -160.1 1.389e+04 1.355e-08
 75.12047   -160.1 1.360e+04 1.366e-08
 75.13637   -160.1 1.316e+04 1.289e-08
 75.14640   -159.9 1.308e+04 1.316e-08
 75.16060   -159.5 1.272e+04 1.144e-08
 75.18067   -158.9 1.237e+04 9.617e-09
 75.20073   -158.0 1.205e+04 7.993e-09
 75.21917   -157.1 1.178e+04 6.682e-09
 75.22920   -157.0 1.176e+04 6.656e-09
 75.24086   -156.1 1.155e+04 5.726e-09
 75.26092   -155.2 1.135e+04 5.101e-09
 75.28099   -154.2 1.118e+04 4.688e-09
 75.30105   -153.2 1.104e+04 4.387e-09
 75.31201   -152.1 1.088e+04 4.127e-09
 75.32204   -152.1 1.084e+04 4.105e-09
 75.34118   -150.9 1.071e+04 3.905e-09
 75.36124   -149.8 1.061e+04 3.794e-09
 75.38131   -148.8 1.056e+04 3.732e-09
 75.39481   -148.0 1.051e+04 3.699e-09
 75.40485   -148.0 1.043e+04 3.640e-09
 75.42144   -146.9 1.037e+04 3.624e-09
 75.44150   -146.0 1.032e+04 3.622e-09
 75.46768   -144.7 1.031e+04 3.713e-09
 75.48785   -145.2 1.019e+04 3.202e-09
 75.51192   -143.4 9.974e+03 3.081e-09
 75.55205   -141.7 9.843e+03 3.024e-09
 75.59218   -140.1 9.732e+03 2.967e-09
 75.63231   -138.5 9.597e+03 2.905e-09
 75.65346   -136.7 9.460e+03 2.860e-09
 75.67352   -137.0 9.369e+03 2.806e-09
 75.71256   -135.2 9.313e+03 2.827e-09
 75.75269   -133.4 9.254e+03 2.844e-09
 75.79282   -131.7 9.226e+03 2.850e-09
 75.81907   -130.3 9.183e+03 3.091e-09
 75.83913   -130.4 8.928e+03 2.634e-09
 75.87308   -129.1 9.089e+03 3.291e-09
 75.91321   -128.5 9.722e+03 4.922e-09
 75.95334   -128.3 1.047e+04 7.559e-09
 75.98468   -128.4 1.118e+04 1.086e-08
 76.00474   -128.1 1.059e+04 7.941e-09
 76.03359   -128.5 1.125e+04 1.095e-08
 76.07372   -129.8 1.172e+04 1.287e-08
 76.11385   -131.1 1.185e+04 1.327e-08
 76.15029   -132.2 1.189e+04 1.319e-08
 76.17035   -130.4 1.176e+04 1.198e-08
 76.19411   -131.2 1.198e+04 1.217e-08
 76.22411   -132.1 1.217e+04 1.250e-08
 76.24293   -132.6 1.224e+04 1.279e-08
 76.25296   -131.7 1.246e+04 1.346e-08
 76.26414   -132.6 1.275e+04 1.549e-08
 76.28420   -133.7 1.293e+04 1.832e-08
 76.30426   -134.7 1.303e+04 2.069e-08
 76.32433   -135.8 1.303e+04 2.148e-08
 76.33577   -136.9 1.298e+04 2.135e-08
 76.34580   -136.9 1.412e+04 3.616e-08
 76.36446   -138.1 1.396e+04 3.539e-08
 76.38452   -139.0 1.359e+04 3.121e-08
 76.40459   -139.8 1.326e+04 2.708e-08
 76.41857   -140.6 1.315e+04 2.504e-08
 76.42860   -140.3 1.331e+04 2.625e-08
 76.44471   -141.1 1.313e+04 2.373e-08
 76.46478   -141.8 1.314e+04 2.353e-08
 76.48484   -142.5 1.327e+04 2.412e-08
 76.50138   -143.3 1.336e+04 2.453e-08
 76.51141   -142.7 1.314e+04 1.938e-08
 76.52497   -143.4 1.328e+04 2.061e-08
 76.54504   -144.3 1.326e+04 2.029e-08
 76.56510   -145.0 1.305e+04 1.795e-08
 76.58418   -145.6 1.269e+04 1.475e-08
 76.59421   -144.8 1.307e+04 1.685e-08
 76.60523   -145.3 1.274e+04 1.440e-08
 76.62529   -145.6 1.252e+04 1.244e-08
 76.64536   -145.9 1.245e+04 1.126e-08
 76.66542   -146.1 1.246e+04 1.053e-08
 76.67702   -146.4 1.248e+04 9.883e-09
 76.68705   -145.8 1.267e+04 9.784e-09
 76.70555   -146.1 1.260e+04 9.122e-09
 76.72561   -146.3 1.254e+04 8.516e-09
 76.74568   -146.5 1.248e+04 7.952e-09
 76.75982   -146.5 1.248e+04 7.435e-09
 76.76986   -145.6 1.262e+04 7.911e-09
 76.78581   -145.7 1.264e+04 7.673e-09
 76.80587   -145.9 1.266e+04 7.442e-09
 76.82594   -146.2 1.268e+04 7.262e-09
 76.84263   -146.8 1.267e+04 7.196e-09
 76.85276   -145.5 1.300e+04 8.571e-09
 76.86616   -146.8 1.283e+04 7.984e-09
 76.88613   -147.8 1.275e+04 8.114e-09
 76.90619   -148.9 1.263e+04 8.345e-09
 76.92543   -150.0 1.251e+04 8.599e-09
 76.93547   -149.8 1.246e+04 9.440e-09
 76.94632   -150.6 1.221e+04 9.052e-09
 76.96639   -151.0 1.200e+04 8.333e-09
 76.98645   -151.3 1.184e+04 7.306e-09
 77.00651   -151.3 1.171e+04 6.296e-09
 77.01827   -151.3 1.161e+04 5.492e-09
 77.02830   -150.9 1.154e+04 5.012e-09
 77.04664   -150.8 1.146e+04 4.732e-09
 77.06671   -150.6 1.143e+04 4.678e-09
 77.08677   -150.3 1.142e+04 4.716e-09
 77.10108   -150.0 1.146e+04 4.985e-09
 77.11111   -149.5 1.143e+04 4.841e-09
 77.12690   -149.2 1.147e+04 5.206e-09
 77.14696   -149.0 1.150e+04 5.369e-09
 77.16703   -148.9 1.148e+04 5.374e-09
 77.18388   -148.8 1.140e+04 4.937e-09
 77.19391   -148.2 1.140e+04 5.093e-09
 77.20716   -148.0 1.131e+04 4.493e-09
 77.22722   -147.8 1.119e+04 3.813e-09
 77.24729   -147.4 1.110e+04 3.277e-09
 77.26669   -147.0 1.104e+04 2.956e-09
 77.27672   -146.5 1.106e+04 3.024e-09
 77.28741   -146.1 1.105e+04 2.849e-09
 77.31761   -145.9 1.102e+04 2.715e-09
 77.34969   -144.6 1.093e+04 2.314e-09
 77.36975   -143.8 1.099e+04 2.468e-09
 77.39796   -142.4 1.090e+04 2.145e-09
 77.43809   -141.1 1.084e+04 1.879e-09
 77.47822   -139.7 1.083e+04 1.677e-09
 77.51530   -138.1 1.086e+04 1.548e-09
 77.53536   -137.3 1.079e+04 1.397e-09
 77.55848   -135.6 1.082e+04 1.292e-09
 77.59860   -133.7 1.083e+04 1.260e-09
 77.63873   -131.8 1.081e+04 1.254e-09
 77.67886   -129.9 1.074e+04 1.330e-09
 77.70097   -128.0 1.061e+04 1.448e-09
 77.72104   -127.1 1.067e+04 1.532e-09
 77.75912   -125.2 1.051e+04 1.718e-09
 77.79925   -123.4 1.035e+04 1.874e-09
 77.83938   -121.5 1.021e+04 2.002e-09
 77.86658   -119.6 1.010e+04 2.104e-09
 77.88665   -119.2 1.023e+04 2.399e-09
 77.91963   -117.1 1.012e+04 2.447e-09
 77.95976   -114.9 9.994e+03 2.543e-09
 77.99989   -112.5 9.925e+03 2.738e-09
 78.03219   -110.1 9.935e+03 3.046e-09
 78.05226   -109.8 1.010e+04 3.430e-09
 78.07002   -108.0 1.003e+04 3.484e-09
 78.08998   -107.4 1.003e+04 3.624e-09
 78.11005   -106.2 1.003e+04 3.923e-09
 78.12484   -105.3 1.009e+04 4.350e-09
 78.13487   -105.3 1.015e+04 4.529e-09
 78.15018   -104.4 1.023e+04 5.032e-09
 78.17024   -103.6 1.037e+04 5.852e-09
 78.19031   -102.9 1.061e+04 7.097e-09
 78.20764   -102.4 1.099e+04 9.099e-09
 78.21777   -102.7 1.072e+04 7.648e-09
 78.24066   -101.5 1.126e+04 1.093e-08
 78.27066   -100.8 1.145e+04 1.298e-08
 78.29045   -100.3 1.167e+04 1.510e-08
 78.30048    -99.7 1.161e+04 1.467e-08
 78.31069    -99.2 1.184e+04 1.692e-08
 78.33076    -98.8 1.220e+04 2.010e-08
 78.35082    -98.3 1.256e+04 2.340e-08
 78.37088    -97.6 1.289e+04 2.685e-08
 78.38328    -96.9 1.311e+04 2.881e-08
 78.39332    -95.4 1.338e+04 3.341e-08
 78.41101    -94.2 1.351e+04 3.502e-08
 78.42931    -92.8 1.355e+04 3.510e-08
 78.43934    -90.8 1.301e+04 2.540e-08
 78.45114    -88.7 1.307e+04 2.503e-08
 78.46609    -87.9 1.339e+04 2.608e-08
 78.47612    -84.3 1.664e+04 3.599e-08
 78.48620    -91.5 2.461e+04 3.120e-08
 78.49619    -98.4 2.760e+04 7.678e-08
 78.50622   -109.2 2.416e+04 3.735e-07
 78.51241   -119.0 2.104e+04 1.107e-06
 78.51743   -120.6 2.172e+04 1.041e-06
 78.52628   -134.7 2.181e+04 1.106e-06
 78.53632   -150.0 2.396e+04 4.494e-07
 78.54635   -165.4 2.604e+04 8.761e-08
 78.55381   -178.9 2.014e+04 1.846e-08
 78.55883   -185.9 1.359e+04 1.186e-08
 78.56641   -187.1 1.180e+04 1.081e-08
 78.57644   -186.1 1.153e+04 1.056e-08
 78.59154   -184.4 1.112e+04 1.016e-08
 78.61165   -179.8 9.952e+03 9.194e-09
 78.63170   -176.1 9.527e+03 8.572e-09
 78.65176   -173.3 9.307e+03 7.734e-09
 78.67185   -170.9 9.281e+03 7.663e-09
 78.69191   -168.8 9.227e+03 7.492e-09
 78.71198   -167.0 9.152e+03 7.195e-09
 78.72454   -165.4 9.051e+03 6.793e-09
 78.73457   -165.0 9.079e+03 7.117e-09
 78.75210   -163.5 8.996e+03 6.752e-09
 78.77217   -162.1 8.867e+03 6.228e-09
 78.79223   -160.8 8.699e+03 5.575e-09
 78.80734   -159.4 8.516e+03 4.819e-09
 78.81737   -159.3 8.651e+03 5.369e-09
 78.83236   -158.0 8.475e+03 4.666e-09
 78.85243   -156.5 8.332e+03 3.994e-09
 78.88021   -155.1 8.250e+03 3.471e-09
 78.90028   -154.1 8.308e+03 3.771e-09
 78.92275   -152.8 8.333e+03 3.598e-09
 78.96297   -150.8 8.283e+03 3.257e-09
 79.00310   -148.4 8.177e+03 2.802e-09
 79.04323   -145.8 8.138e+03 2.419e-09
 79.06598   -143.5 8.216e+03 2.230e-09
 79.08605   -143.7 8.312e+03 2.366e-09
 79.12349   -141.6 8.330e+03 2.329e-09
 79.16362   -140.1 8.582e+03 2.311e-09
 79.20375   -139.2 9.190e+03 2.749e-09
 79.23150   -139.6 9.679e+03 3.916e-09
 79.24143   -140.2 1.002e+04 5.359e-09
 79.25371   -140.9 1.079e+04 8.101e-09
 79.27378   -142.0 1.166e+04 1.244e-08
 79.29384   -143.5 1.238e+04 1.771e-08
 79.31390   -145.4 1.280e+04 2.153e-08
 79.32424   -147.3 1.291e+04 2.252e-08
 79.33427   -148.0 1.308e+04 2.463e-08
 79.35403   -149.6 1.280e+04 2.012e-08
 79.37410   -151.1 1.243e+04 1.424e-08
 79.39416   -152.6 1.206e+04 9.785e-09
 79.40704   -154.1 1.173e+04 7.229e-09
 79.41707   -154.4 1.156e+04 6.219e-09
 79.43429   -155.5 1.132e+04 5.778e-09
 79.45435   -156.2 1.121e+04 5.651e-09
 79.47442   -156.7 1.116e+04 5.613e-09
 79.48985   -157.3 1.111e+04 5.765e-09
 79.49988   -157.6 1.147e+04 6.664e-09
 79.51455   -158.3 1.150e+04 7.130e-09
 79.53461   -158.9 1.153e+04 7.355e-09
 79.55467   -159.6 1.153e+04 7.421e-09
 79.57265   -160.3 1.150e+04 7.327e-09
 79.58268   -161.2 1.179e+04 8.342e-09
 79.59480   -162.0 1.176e+04 7.693e-09
 79.61487   -162.8 1.175e+04 7.207e-09
 79.63493   -163.3 1.176e+04 6.943e-09
 79.65500   -163.7 1.177e+04 6.842e-09
 79.66549   -163.9 1.177e+04 6.780e-09
 79.67552   -165.3 1.213e+04 8.136e-09
 79.69512   -165.1 1.203e+04 7.707e-09
 79.71519   -164.8 1.194e+04 7.298e-09
 79.73525   -164.3 1.192e+04 6.820e-09
 79.74829   -163.8 1.183e+04 6.337e-09
 79.75833   -164.7 1.181e+04 6.110e-09
 79.77538   -164.0 1.167e+04 5.517e-09
 79.79545   -163.4 1.154e+04 4.973e-09
 79.81551   -162.8 1.141e+04 4.483e-09
 79.83110   -162.0 1.128e+04 4.077e-09
 79.84113   -162.5 1.128e+04 3.941e-09
 79.85564   -161.7 1.117e+04 3.755e-09
 79.87570   -160.7 1.107e+04 3.628e-09
 79.89577   -159.8 1.098e+04 3.561e-09
 79.91390   -158.7 1.095e+04 3.545e-09
 79.92394   -158.9 1.109e+04 3.663e-09
 79.93590   -157.9 1.107e+04 3.792e-09
 79.95596   -157.0 1.107e+04 4.103e-09
 79.97602   -156.0 1.109e+04 4.558e-09
 79.99609   -154.9 1.114e+04 5.100e-09
 80.00674   -153.9 1.119e+04 5.672e-09
 80.01677   -154.0 1.121e+04 5.677e-09
 80.03622   -153.0 1.125e+04 6.147e-09
 80.05628   -152.1 1.128e+04 6.443e-09
 80.07635   -151.3 1.130e+04 6.552e-09
 80.08955   -150.6 1.130e+04 6.576e-09
 80.09958   -150.6 1.114e+04 5.891e-09
 80.11647   -149.8 1.105e+04 5.889e-09
 80.13654   -148.9 1.095e+04 5.771e-09
 80.15660   -147.9 1.086e+04 5.592e-09
 80.17235   -146.9 1.077e+04 5.358e-09
 80.18238   -146.5 1.068e+04 4.676e-09
 80.19673   -145.4 1.062e+04 4.485e-09
 80.21680   -144.2 1.054e+04 4.209e-09
 80.23686   -142.9 1.045e+04 3.840e-09
 80.25516   -141.6 1.035e+04 3.390e-09
 80.26519   -141.5 1.042e+04 3.423e-09
 80.27699   -140.2 1.035e+04 3.152e-09
 80.29705   -139.0 1.031e+04 2.985e-09
 80.32725   -137.7 1.029e+04 2.892e-09
 80.36747   -135.6 1.015e+04 2.698e-09
 80.40760   -133.1 9.954e+03 2.437e-09
 80.43099   -130.6 9.769e+03 2.167e-09
 80.45106   -130.1 1.008e+04 2.916e-09
 80.48786   -127.6 9.962e+03 2.697e-09
 80.52799   -125.2 9.923e+03 2.595e-09
 80.56812   -123.3 9.966e+03 2.604e-09
 80.59651   -121.9 1.014e+04 3.311e-09
 80.60644   -121.5 1.043e+04 4.742e-09
 80.61808   -120.7 1.061e+04 5.446e-09
 80.64827   -120.0 1.091e+04 6.580e-09
 80.67837   -118.6 1.114e+04 7.798e-09
 80.68925   -118.6 1.130e+04 8.481e-09
 80.69928   -118.7 1.171e+04 1.026e-08
 80.71840   -119.1 1.233e+04 1.411e-08
 80.73847   -119.6 1.293e+04 1.900e-08
 80.75853   -120.1 1.342e+04 2.425e-08
 80.77205   -120.8 1.374e+04 2.744e-08
 80.78208   -121.7 1.473e+04 4.190e-08
 80.79866   -122.8 1.484e+04 4.319e-08
 80.81872   -124.1 1.495e+04 4.201e-08
 80.83879   -125.7 1.495e+04 3.910e-08
 80.85486   -127.7 1.493e+04 3.734e-08
 80.86489   -128.9 1.569e+04 5.180e-08
 80.87892   -131.0 1.543e+04 4.737e-08
 80.89898   -132.9 1.496e+04 4.309e-08
 80.91366   -134.5 1.427e+04 3.692e-08
 80.92369   -136.9 1.354e+04 3.042e-08
 80.93766   -137.7 1.273e+04 2.116e-08
 80.94769   -138.3 1.241e+04 1.803e-08
 80.95917   -139.1 1.152e+04 1.108e-08
 80.97924   -139.9 1.074e+04 6.939e-09
 80.99930   -140.5 1.019e+04 4.726e-09
 81.01937   -140.7 9.857e+03 3.526e-09
 81.03050   -140.8 9.629e+03 2.797e-09
 81.04053   -141.0 9.477e+03 2.584e-09
 81.05949   -140.5 9.344e+03 2.231e-09
 81.07956   -139.8 9.282e+03 2.021e-09
 81.09962   -138.9 9.239e+03 1.877e-09
 81.11340   -137.8 9.183e+03 1.727e-09
 81.13356   -137.3 9.214e+03 1.783e-09
 81.17004   -134.6 9.099e+03 1.531e-09
 81.21017   -132.4 9.083e+03 1.470e-09
 81.25030   -130.2 9.081e+03 1.460e-09
 81.27911   -128.2 9.118e+03 1.491e-09
 81.29917   -127.9 9.219e+03 1.853e-09
 81.33056   -126.0 9.256e+03 1.866e-09
 81.37069   -124.2 9.286e+03 1.864e-09
 81.41081   -122.6 9.329e+03 1.870e-09
 81.44472   -121.3 9.459e+03 2.022e-09
 81.46478   -120.9 9.335e+03 1.716e-09
 81.49107   -119.9 9.545e+03 1.825e-09
 81.53120   -119.5 9.778e+03 2.188e-09
 81.57133   -119.3 9.962e+03 2.709e-09
 81.61033   -119.2 1.009e+04 3.159e-09
 81.63039   -118.4 9.989e+03 3.006e-09
 81.65159   -118.0 1.008e+04 3.250e-09
 81.69171   -117.3 1.009e+04 3.289e-09
 81.73184   -116.3 1.003e+04 3.024e-09
 81.77197   -115.0 9.957e+03 2.451e-09
 81.79601   -113.6 9.891e+03 1.927e-09
 81.81607   -112.6 1.005e+04 2.607e-09
 81.85223   -111.3 9.992e+03 2.178e-09
 81.89236   -109.9 9.956e+03 1.788e-09
 81.93248   -108.5 9.940e+03 1.476e-09
 81.96162   -107.0 9.948e+03 1.244e-09
 81.98168   -106.3 1.003e+04 1.671e-09
 82.01274   -104.8 1.004e+04 1.371e-09
 82.05287   -103.1 1.008e+04 1.175e-09
 82.09300   -101.3 1.013e+04 1.077e-09
 82.12723    -99.4 1.015e+04 1.054e-09
 82.14729    -99.0 1.025e+04 1.478e-09
 82.17326    -97.3 1.041e+04 1.543e-09
 82.21338    -95.7 1.065e+04 2.049e-09
 82.25351    -94.0 1.080e+04 3.070e-09
 82.29284    -92.1 1.099e+04 4.464e-09
 82.31290    -92.1 1.122e+04 5.546e-09
 82.33377    -90.3 1.132e+04 5.832e-09
 82.37390    -88.5 1.141e+04 5.490e-09
 82.41403    -86.7 1.147e+04 5.332e-09
 82.45416    -85.0 1.166e+04 5.512e-09
 82.47851    -83.6 1.201e+04 6.357e-09
 82.49857    -83.1 1.164e+04 3.461e-09
 82.53441    -82.0 1.196e+04 4.497e-09
 82.57454    -81.2 1.223e+04 6.013e-09
 82.61467    -80.5 1.237e+04 6.988e-09
 82.64412    -79.8 1.238e+04 7.057e-09
 82.66418    -78.9 1.218e+04 5.191e-09
 82.69493    -77.9 1.220e+04 5.241e-09
 82.73506    -76.7 1.226e+04 5.062e-09
 82.77518    -75.3 1.236e+04 4.997e-09
 82.80973    -73.8 1.241e+04 4.997e-09
 82.82980    -73.4 1.244e+04 5.190e-09
 82.85544    -71.8 1.253e+04 4.992e-09
 82.89557    -70.2 1.245e+04 4.672e-09
 82.93570    -68.7 1.225e+04 4.324e-09
 82.97534    -67.3 1.201e+04 4.081e-09
 82.99541    -66.7 1.211e+04 3.130e-09
 83.01595    -65.3 1.201e+04 3.090e-09
 83.05608    -64.0 1.193e+04 3.361e-09
 83.09621    -63.1 1.197e+04 4.893e-09
 83.13634    -62.1 1.237e+04 8.407e-09
 83.16102    -61.3 1.276e+04 1.387e-08
 83.18108    -61.2 1.290e+04 1.362e-08
 83.20647    -60.8 1.299e+04 1.649e-08
 83.22643    -60.9 1.301e+04 1.677e-08
 83.24363    -60.9 1.293e+04 1.599e-08
 83.25366    -61.0 1.295e+04 1.577e-08
 83.26656    -61.1 1.264e+04 1.439e-08
 83.29676    -60.9 1.227e+04 1.227e-08
 83.32663    -60.1 1.133e+04 6.321e-09
 83.34669    -60.8 1.181e+04 7.825e-09
 83.37711    -59.8 1.129e+04 5.527e-09
 83.39821    -58.6 1.115e+04 4.949e-09
 83.41827    -57.1 1.081e+04 3.732e-09
 83.45737    -55.3 1.079e+04 3.669e-09
 83.49224    -53.8 1.100e+04 3.825e-09
 83.51230    -55.7 1.141e+04 5.087e-09
 83.53763    -55.5 1.176e+04 6.777e-09
 83.56762    -55.1 1.185e+04 8.376e-09
 83.58488    -55.5 1.200e+04 9.825e-09
 83.59491    -56.2 1.179e+04 9.560e-09
 83.60766    -56.7 1.183e+04 1.088e-08
 83.62772    -57.5 1.185e+04 1.165e-08
 83.64778    -58.5 1.181e+04 1.207e-08
 83.66768    -59.6 1.160e+04 1.203e-08
 83.67772    -60.6 1.154e+04 1.217e-08
 83.68791    -61.2 1.132e+04 1.178e-08
 83.70798    -61.4 1.119e+04 1.170e-08
 83.72804    -61.5 1.115e+04 1.180e-08
 83.74810    -61.3 1.113e+04 1.173e-08
 83.76052    -61.0 1.110e+04 1.164e-08
 83.77055    -61.7 1.083e+04 9.669e-09
 83.78823    -61.6 1.074e+04 8.453e-09
 83.80830    -61.6 1.062e+04 7.460e-09
 83.82836    -61.6 1.044e+04 6.817e-09
 83.84333    -61.6 1.026e+04 6.461e-09
 83.85336    -63.1 9.750e+03 4.987e-09
 83.86849    -63.1 9.657e+03 4.920e-09
 83.89868    -63.1 9.549e+03 4.729e-09
 83.93891    -62.1 9.418e+03 4.503e-09
 83.97904    -61.1 9.123e+03 3.581e-09
 84.00913    -60.2 8.787e+03 2.469e-09
 84.02920    -62.8 8.134e+03 1.599e-09
 84.05930    -62.0 7.988e+03 1.331e-09
 84.09942    -60.9 7.919e+03 1.125e-09
 84.13955    -59.7 7.859e+03 9.475e-10
 84.17474    -58.2 7.829e+03 7.885e-10
 84.19481    -59.6 7.809e+03 8.079e-10
 84.21981    -57.9 7.825e+03 6.818e-10
 84.25994    -56.3 7.923e+03 6.161e-10
 84.30007    -54.9 7.970e+03 6.065e-10
 84.34020    -54.3 8.363e+03 7.122e-10
 84.38032    -55.2 8.887e+03 2.016e-09
 84.42045    -54.3 9.219e+03 2.808e-09
 84.46058    -53.7 9.352e+03 3.012e-09
 84.50071    -53.4 9.474e+03 2.617e-09
 84.52603    -53.0 9.492e+03 1.670e-09
 84.54609    -53.6 9.450e+03 1.372e-09
 84.58097    -52.9 9.336e+03 1.034e-09
 84.62110    -52.0 9.174e+03 8.803e-10
 84.66122    -50.8 9.077e+03 8.492e-10
 84.69164    -49.4 9.052e+03 8.502e-10
 84.71170    -49.1 9.037e+03 8.447e-10
 84.74148    -47.7 9.011e+03 8.522e-10
 84.78161    -46.2 8.985e+03 8.797e-10
 84.82174    -44.8 8.961e+03 9.270e-10
 84.85725    -43.5 8.959e+03 1.027e-09
 84.87731    -42.9 9.038e+03 9.524e-10
 84.90200    -41.7 9.081e+03 1.148e-09
 84.94212    -40.7 9.148e+03 1.506e-09
 84.98225    -39.9 9.205e+03 1.953e-09
 85.02238    -39.3 9.256e+03 2.320e-09
 85.04292    -38.9 9.238e+03 2.556e-09
 85.06299    -38.6 9.489e+03 3.055e-09
 85.10264    -38.3 9.443e+03 3.133e-09
 85.14277    -37.6 9.281e+03 2.882e-09
 85.18289    -36.4 9.242e+03 2.536e-09
 85.20853    -35.2 9.280e+03 2.476e-09
 85.22860    -35.3 9.426e+03 2.408e-09
 85.26315    -34.1 9.481e+03 2.565e-09
 85.30328    -33.1 9.693e+03 3.417e-09
 85.34341    -32.1 1.009e+04 4.924e-09
 85.37414    -31.4 1.050e+04 6.205e-09
 85.39411    -31.7 1.103e+04 8.744e-09
 85.41344    -32.0 1.121e+04 1.038e-08
 85.43350    -32.2 1.118e+04 1.096e-08
 85.45357    -31.8 1.085e+04 1.054e-08
 85.46678    -31.1 1.042e+04 7.588e-09
 85.47682    -31.2 1.089e+04 1.043e-08
 85.49370    -31.1 1.051e+04 6.195e-09
 85.51376    -31.3 1.026e+04 3.713e-09
 85.53965    -31.6 9.994e+03 2.034e-09
 85.55972    -32.1 1.022e+04 2.375e-09
 85.57395    -31.8 1.019e+04 2.137e-09
 85.59402    -31.5 1.020e+04 2.115e-09
 85.62421    -30.8 1.013e+04 2.087e-09
 85.66444    -28.9 9.975e+03 1.866e-09
 85.70457    -26.8 9.934e+03 1.794e-09
 85.72543    -24.7 1.001e+04 1.829e-09
 85.74549    -25.6 1.021e+04 2.029e-09
 85.78482    -23.3 1.025e+04 2.133e-09
 85.82495    -21.2 1.023e+04 2.269e-09
 85.86508    -19.0 1.027e+04 2.346e-09
 85.89104    -16.8 1.023e+04 2.374e-09
 85.91110    -17.8 1.032e+04 2.449e-09
 85.94534    -16.2 1.042e+04 2.563e-09
 85.98547    -14.9 1.063e+04 3.199e-09
 86.02559    -13.7 1.083e+04 4.617e-09
 86.05665    -12.3 1.098e+04 6.053e-09
 86.07671    -14.3 1.112e+04 8.062e-09
 86.10585    -13.0 1.087e+04 7.053e-09
 86.14598    -11.4 1.062e+04 5.005e-09
 86.18611    -10.1 1.035e+04 3.611e-09
 86.22226     -8.6 1.016e+04 3.162e-09
 86.24232     -9.8 1.001e+04 2.546e-09
 86.26636     -7.6 9.840e+03 2.173e-09
 86.30649     -5.3 9.886e+03 1.811e-09
 86.34662     -3.3 1.006e+04 1.526e-09
 86.38675     -1.9 1.034e+04 1.315e-09
 86.40793     -0.4 1.011e+04 1.385e-09
 86.42800     -1.8 9.697e+03 1.235e-09
 86.46701      1.0 9.592e+03 1.204e-09
 86.50714      3.3 9.873e+03 8.980e-10
 86.54726      5.0 9.924e+03 8.249e-10
 86.57354      6.7 9.916e+03 9.268e-10
 86.59361      6.0 9.823e+03 1.219e-09
 86.62752      8.7 9.772e+03 1.419e-09
 86.66765     11.4 9.789e+03 1.519e-09
 86.70778     13.8 9.870e+03 1.479e-09
 86.73915     16.2 9.949e+03 1.478e-09
 86.75922     15.6 1.008e+04 1.226e-09
 86.78804     18.0 1.016e+04 1.366e-09
 86.82816     20.2 1.018e+04 1.769e-09
 86.86829     23.1 1.038e+04 2.854e-09
 86.89829     24.8 1.039e+04 2.957e-09
 86.91460     25.7 1.049e+04 3.431e-09
 86.92463     25.3 1.056e+04 3.314e-09
 86.93832     26.5 1.060e+04 4.058e-09
 86.95839     27.7 1.068e+04 4.719e-09
 86.97845     28.6 1.090e+04 5.226e-09
 86.99741     27.7 1.184e+04 6.524e-09
 87.00744     25.8 1.249e+04 7.017e-09
 87.01858     22.3 1.415e+04 1.743e-08
 87.03864     21.1 1.480e+04 4.110e-08
 87.05871     21.1 1.504e+04 5.421e-08
 87.07877     20.8 1.481e+04 4.695e-08
 87.09024     20.1 1.399e+04 3.084e-08
 87.10027     18.4 1.352e+04 2.808e-08
 87.11890     17.6 1.262e+04 1.858e-08
 87.13896     18.5 1.148e+04 1.098e-08
 87.15903     18.2 1.107e+04 8.453e-09
 87.18922     20.3 1.038e+04 5.049e-09
 87.22945     23.0 9.961e+03 3.008e-09
 87.25605     25.6 9.776e+03 2.343e-09
 87.27611     25.4 9.712e+03 2.123e-09
 87.30971     28.6 9.712e+03 2.141e-09
 87.34983     31.8 9.763e+03 2.288e-09
 87.38996     34.9 9.798e+03 2.539e-09
 87.42166     38.1 9.911e+03 2.716e-09
 87.44172     38.4 9.850e+03 1.936e-09
 87.47022     41.4 9.883e+03 1.913e-09
 87.51035     44.4 9.946e+03 1.790e-09
 87.55048     47.3 9.945e+03 1.567e-09
 87.58727     50.2 9.880e+03 1.326e-09
 87.60733     50.6 9.880e+03 9.666e-10
 87.63073     53.4 9.847e+03 8.838e-10
 87.67086     56.3 9.665e+03 8.675e-10
 87.71099     59.3 9.608e+03 8.754e-10
 87.75112     62.2 9.555e+03 9.108e-10
 87.77294     65.1 9.507e+03 1.027e-09
 87.79301     65.2 1.000e+04 1.056e-09
 87.83138     67.5 1.007e+04 1.275e-09
 87.87151     70.7 1.041e+04 1.996e-09
 87.90150     72.0 1.055e+04 2.682e-09
 87.92147     73.0 1.064e+04 3.341e-09
 87.93836     74.1 1.073e+04 4.080e-09
 87.94839     74.1 1.107e+04 5.625e-09
 87.96160     75.2 1.124e+04 6.449e-09
 87.98166     76.2 1.138e+04 7.344e-09
 88.00173     77.3 1.146e+04 8.244e-09
 88.02116     78.3 1.153e+04 9.155e-09
 88.03120     77.8 1.174e+04 1.022e-08
 88.04186     78.7 1.186e+04 1.136e-08
 88.06192     79.5 1.201e+04 1.266e-08
 88.08198     80.3 1.221e+04 1.429e-08
 88.10205     80.9 1.241e+04 1.625e-08
 88.11400     81.5 1.260e+04 1.835e-08
 88.12403     81.2 1.284e+04 1.995e-08
 88.14218     81.8 1.297e+04 2.145e-08
 88.16224     82.5 1.296e+04 2.134e-08
 88.18231     83.2 1.284e+04 2.039e-08
 88.19681     84.1 1.262e+04 1.861e-08
 88.20684     83.9 1.257e+04 1.654e-08
 88.22243     85.1 1.229e+04 1.399e-08
 88.24250     86.3 1.204e+04 1.150e-08
 88.26256     87.5 1.186e+04 9.454e-09
 88.27961     88.7 1.175e+04 7.966e-09
 88.28964     88.6 1.173e+04 7.256e-09
 88.30269     89.8 1.165e+04 6.487e-09
 88.32276     91.1 1.163e+04 5.910e-09
 88.34282     92.6 1.167e+04 5.827e-09
 88.35668     94.0 1.177e+04 6.028e-09
 88.36625     94.0 1.281e+04 1.193e-08
 88.37245     93.5 1.346e+04 1.708e-08
 88.38295     94.2 1.447e+04 2.624e-08
 88.40301     94.6 1.613e+04 5.202e-08
 88.41380     94.8 1.660e+04 6.459e-08
 88.41877     94.7 1.682e+04 7.405e-08
 88.42800     94.8 1.735e+04 9.984e-08
 88.43803     94.8 1.799e+04 1.408e-07
 88.44806     94.0 1.848e+04 2.238e-07
 88.45516     92.5 1.845e+04 4.597e-07
 88.46017     93.0 1.865e+04 6.082e-07
 88.46812     91.2 1.805e+04 1.315e-06
 88.47816     88.9 1.785e+04 1.792e-06
 88.48819     86.1 1.790e+04 1.644e-06
 88.49656     84.5 1.826e+04 8.224e-07
 88.50157     83.8 1.871e+04 4.739e-07
 88.50825     82.4 1.972e+04 1.450e-07
 88.52335     79.0 2.121e+04 1.938e-08
 88.53806     70.6 1.339e+04 5.332e-09
 88.54809     68.8 1.219e+04 4.440e-09
 88.56353     68.6 1.162e+04 4.267e-09
 88.58359     69.5 1.158e+04 4.308e-09
 88.60366     70.7 1.157e+04 4.562e-09
 88.62086     71.7 1.159e+04 4.930e-09
 88.63090     71.6 1.141e+04 4.726e-09
 88.64378     72.2 1.136e+04 5.060e-09
 88.66385     72.6 1.131e+04 5.182e-09
 88.68391     72.8 1.128e+04 5.139e-09
 88.70367     72.9 1.117e+04 4.950e-09
 88.71370     72.4 1.099e+04 5.222e-09
 88.72404     72.3 1.085e+04 4.908e-09
 88.74411     72.2 1.070e+04 4.417e-09
 88.76417     71.8 1.059e+04 3.847e-09
 88.78423     71.3 1.051e+04 3.278e-09
 88.79651     70.5 1.050e+04 2.841e-09
 88.80654     70.7 1.042e+04 2.912e-09
 88.82436     70.0 1.041e+04 2.896e-09
 88.84443     69.4 1.044e+04 3.014e-09
 88.86449     68.9 1.053e+04 3.386e-09
 88.87931     68.5 1.069e+04 3.913e-09
 88.88934     68.7 1.063e+04 4.032e-09
 88.90462     67.6 1.098e+04 5.218e-09
 88.92468     65.6 1.160e+04 8.802e-09
 88.94475     63.9 1.249e+04 1.870e-08
 88.96212     63.7 1.347e+04 3.721e-08
 88.97215     64.2 1.342e+04 3.774e-08
 88.98488     63.8 1.371e+04 4.076e-08
 89.00494     63.0 1.356e+04 3.650e-08
 89.02500     62.1 1.301e+04 2.338e-08
 89.04492     60.1 1.224e+04 1.196e-08
 89.05495     59.3 1.189e+04 9.401e-09
 89.06513     56.6 1.109e+04 6.035e-09
 89.08520     54.9 1.040e+04 5.177e-09
 89.10526     54.1 1.014e+04 4.978e-09
 89.12533     53.6 1.005e+04 4.907e-09
 89.13776     53.0 1.002e+04 4.885e-09
 89.14779     53.4 1.001e+04 4.484e-09
 89.16545     52.7 1.004e+04 4.586e-09
 89.18552     51.9 1.017e+04 4.875e-09
 89.20558     50.8 1.041e+04 5.644e-09
 89.22056     49.4 1.081e+04 7.257e-09
 89.23060     49.6 1.106e+04 7.938e-09
 89.24571     48.1 1.169e+04 1.148e-08
 89.26578     46.8 1.225e+04 1.625e-08
 89.28584     45.6 1.253e+04 2.023e-08
 89.30337     44.3 1.249e+04 2.051e-08
 89.31340     44.8 1.249e+04 2.017e-08
 89.32597     43.5 1.227e+04 1.834e-08
 89.34603     42.5 1.189e+04 1.525e-08
 89.36610     41.6 1.156e+04 1.240e-08
 89.39629     40.8 1.115e+04 9.028e-09
 89.43652     40.4 1.063e+04 6.103e-09
 89.46917     40.1 1.024e+04 5.096e-09
 89.48924     42.2 1.016e+04 4.850e-09
 89.51677     42.4 1.019e+04 5.119e-09
 89.55690     42.9 1.042e+04 6.277e-09
 89.59703     43.1 1.085e+04 8.855e-09
 89.62703     42.6 1.137e+04 1.191e-08
 89.64462     42.5 1.185e+04 1.543e-08
 89.65465     42.5 1.312e+04 3.201e-08
 89.66706     42.9 1.299e+04 3.661e-08
 89.68713     43.6 1.283e+04 3.551e-08
 89.70719     44.4 1.246e+04 3.131e-08
 89.72725     45.2 1.201e+04 2.567e-08
 89.73746     45.8 1.161e+04 2.211e-08
 89.74749     46.2 1.157e+04 1.894e-08
 89.76738     46.5 1.106e+04 1.377e-08
 89.78745     46.9 1.064e+04 1.056e-08
 89.80751     47.1 1.027e+04 8.429e-09
 89.82026     47.3 9.834e+03 7.135e-09
 89.83030     45.1 8.477e+03 4.459e-09
 89.84764     45.5 8.436e+03 4.547e-09
 89.86770     45.9 8.422e+03 4.840e-09
 89.88777     46.4 8.463e+03 5.283e-09
 89.90307     46.9 8.544e+03 5.753e-09
 89.91310     46.8 8.570e+03 5.835e-09
 89.92790     47.2 8.693e+03 6.259e-09
 89.94796     47.4 8.779e+03 6.423e-09
 89.96803     47.5 8.804e+03 6.384e-09
 89.98587     47.5 8.818e+03 6.326e-09
 89.99591     48.0 8.801e+03 6.292e-09
 90.00815     48.2 8.789e+03 6.142e-09
 90.02822     48.3 8.831e+03 6.006e-09
 90.04828     48.2 8.901e+03 5.881e-09
 90.06835     48.2 8.942e+03 5.744e-09
 90.07871     48.2 8.915e+03 5.588e-09
 90.08874     49.3 8.927e+03 5.436e-09
 90.10847     49.4 8.832e+03 5.161e-09
 90.12854     49.6 8.701e+03 4.969e-09
 90.14860     49.8 8.584e+03 4.918e-09
 90.16152     50.2 8.556e+03 4.945e-09
 90.17155     50.7 8.551e+03 4.816e-09
 90.18873     51.2 8.549e+03 4.847e-09
 90.20880     51.7 8.584e+03 5.065e-09
 90.22886     52.4 8.680e+03 5.527e-09
 90.24432     53.2 8.869e+03 6.249e-09
 90.25435     53.6 8.706e+03 5.356e-09
 90.26899     54.4 8.830e+03 5.819e-09
 90.28905     55.3 9.072e+03 6.597e-09
 90.30912     56.1 9.455e+03 7.917e-09
 90.32713     56.8 9.944e+03 1.001e-08
 90.33716     57.6 9.386e+03 6.882e-09
 90.34925     58.4 9.866e+03 8.613e-09
 90.36931     59.1 1.039e+04 1.150e-08
 90.38937     59.8 1.121e+04 1.721e-08
 90.40944     60.7 1.242e+04 2.873e-08
 90.41996     61.2 1.326e+04 4.086e-08
 90.43000     61.2 1.239e+04 2.747e-08
 90.44957     61.7 1.332e+04 4.131e-08
 90.46132     62.0 1.405e+04 5.427e-08
 90.46628     62.0 1.393e+04 5.166e-08
 90.47455     62.3 1.425e+04 5.838e-08
 90.48965     63.4 1.555e+04 8.480e-08
 90.50277     64.3 1.608e+04 8.226e-08
 90.51280     64.3 1.592e+04 8.813e-08
 90.52982     64.8 1.608e+04 7.783e-08
 90.54989     64.8 1.613e+04 4.827e-08
 90.56995     63.8 1.533e+04 2.090e-08
 90.58557     61.5 1.320e+04 8.714e-09
 90.59561     62.7 1.464e+04 1.712e-08
 90.61008     60.4 1.237e+04 8.151e-09
 90.63015     60.2 1.144e+04 6.826e-09
 90.65021     60.5 1.122e+04 6.397e-09
 90.66838     61.2 1.117e+04 6.171e-09
 90.67841     60.7 1.197e+04 9.904e-09
 90.69034     61.3 1.182e+04 9.484e-09
 90.71040     61.7 1.164e+04 9.356e-09
 90.73047     62.0 1.158e+04 9.449e-09
 90.75053     62.2 1.150e+04 9.921e-09
 90.76122     62.4 1.149e+04 1.061e-08
 90.77125     62.0 1.183e+04 1.366e-08
 90.79066     62.3 1.177e+04 1.322e-08
 90.81072     62.5 1.170e+04 1.269e-08
 90.83079     62.7 1.163e+04 1.191e-08
 90.84103     62.6 1.155e+04 1.091e-08
 90.84424     62.5 1.180e+04 1.225e-08
 90.85405     61.9 1.138e+04 1.049e-08
 90.87092     61.7 1.128e+04 9.954e-09
 90.89098     61.5 1.128e+04 9.971e-09
 90.91105     61.3 1.133e+04 1.042e-08
 90.92683     61.1 1.135e+04 1.091e-08
 90.93686     61.0 1.138e+04 1.097e-08
 90.96130     61.0 1.156e+04 1.283e-08
 90.99980     61.1 1.137e+04 1.239e-08
 91.01986     61.0 1.097e+04 1.042e-08
 91.04166     61.3 1.043e+04 7.433e-09
 91.08179     61.4 9.807e+03 4.408e-09
 91.12192     61.7 9.509e+03 3.694e-09
 91.15191     62.1 9.465e+03 3.687e-09
 91.17188     62.6 9.475e+03 3.741e-09
 91.18527     63.2 9.518e+03 3.886e-09
 91.20544     63.3 9.387e+03 3.421e-09
 91.24230     64.5 9.395e+03 3.374e-09
 91.28243     66.0 9.319e+03 2.919e-09
 91.32256     67.6 9.170e+03 2.062e-09
 91.35108     69.0 9.054e+03 1.311e-09
 91.37114     68.8 8.988e+03 1.144e-09
 91.40281     70.1 8.919e+03 7.983e-10
 91.44294     71.7 8.851e+03 7.381e-10
 91.48307     73.6 8.856e+03 7.471e-10
 91.51669     75.6 8.914e+03 8.015e-10
 91.53675     75.3 9.074e+03 9.035e-10
 91.56333     77.2 9.219e+03 1.178e-09
 91.60346     79.1 9.394e+03 1.496e-09
 91.64359     80.8 9.541e+03 1.695e-09
 91.68230     82.3 9.646e+03 1.722e-09
 91.70236     82.2 9.792e+03 2.592e-09
 91.72384     83.5 9.823e+03 2.376e-09
 91.76397     84.7 9.826e+03 2.059e-09
 91.80410     85.8 9.814e+03 1.822e-09
 91.84423     87.1 9.815e+03 1.790e-09
 91.86798     88.5 9.841e+03 1.829e-09
 91.88804     88.7 9.992e+03 1.908e-09
 91.92449     90.5 1.003e+04 1.929e-09
 91.96461     92.3 1.021e+04 2.024e-09
 92.00474     94.3 1.051e+04 2.177e-09
 92.03359     95.8 1.070e+04 2.319e-09
 92.04352     94.9 1.073e+04 2.608e-09
 92.05471     95.6 1.076e+04 2.662e-09
 92.07477     96.5 1.083e+04 2.989e-09
 92.09484     97.6 1.094e+04 3.741e-09
 92.11490     98.6 1.113e+04 4.854e-09
 92.12623     99.6 1.137e+04 6.266e-09
 92.13626     99.4 1.153e+04 8.141e-09
 92.15503    100.4 1.177e+04 9.734e-09
 92.17509    101.3 1.200e+04 1.130e-08
 92.19516    102.2 1.220e+04 1.279e-08
 92.20903    103.2 1.242e+04 1.378e-08
 92.21906    102.5 1.220e+04 9.533e-09
 92.23529    103.0 1.224e+04 8.676e-09
 92.25535    103.3 1.228e+04 7.937e-09
 92.27541    103.4 1.233e+04 7.622e-09
 92.29184    103.6 1.235e+04 7.654e-09
 92.30187    103.2 1.196e+04 5.218e-09
 92.31554    103.6 1.210e+04 5.482e-09
 92.33561    104.0 1.224e+04 5.850e-09
 92.35567    104.5 1.238e+04 6.549e-09
 92.37464    105.0 1.248e+04 7.140e-09
 92.38477    104.9 1.191e+04 4.657e-09
 92.40603    106.2 1.209e+04 5.535e-09
 92.44616    107.3 1.213e+04 5.563e-09
 92.48628    108.3 1.216e+04 5.327e-09
 92.52641    109.6 1.216e+04 4.653e-09
 92.55048    111.1 1.210e+04 3.814e-09
 92.57054    110.9 1.193e+04 2.170e-09
 92.60667    112.6 1.185e+04 1.997e-09
 92.64680    114.6 1.183e+04 1.993e-09
 92.68693    116.7 1.184e+04 2.001e-09
 92.71609    118.8 1.183e+04 1.983e-09
 92.73616    119.2 1.181e+04 1.837e-09
 92.76718    121.4 1.183e+04 1.785e-09
 92.80731    123.5 1.180e+04 1.631e-09
 92.84744    125.8 1.171e+04 1.398e-09
 92.88170    128.1 1.162e+04 1.148e-09
 92.90177    128.5 1.151e+04 1.419e-09
 92.92770    131.1 1.145e+04 1.124e-09
 92.96783    133.7 1.140e+04 9.195e-10
 93.00796    136.5 1.130e+04 8.158e-10
 93.04731    139.3 1.118e+04 8.062e-10
 93.06738    140.0 1.109e+04 1.151e-09
 93.08821    142.8 1.104e+04 1.122e-09
 93.12834    145.5 1.099e+04 1.103e-09
 93.16847    148.2 1.091e+04 1.083e-09
 93.20860    150.8 1.084e+04 1.063e-09
 93.23299    153.5 1.076e+04 1.044e-09
 93.25305    154.1 1.082e+04 1.073e-09
 93.28886    156.7 1.070e+04 9.937e-10
 93.31555    159.5 1.059e+04 9.905e-10
 93.33561    159.5 1.050e+04 8.674e-10
 93.36911    162.3 1.043e+04 9.190e-10
 93.39860    165.2 1.042e+04 9.953e-10
 93.41866    165.5 1.041e+04 7.883e-10
 93.44937    168.4 1.038e+04 8.660e-10
 93.48950    171.3 1.036e+04 9.673e-10
 93.52963    174.3 1.034e+04 1.083e-09
 93.56421    177.2 1.032e+04 1.217e-09
 93.58427    177.6 1.028e+04 1.037e-09
 93.60988    180.6 1.031e+04 1.169e-09
 93.65001    183.4 1.038e+04 1.282e-09
 93.69014    186.2 1.045e+04 1.336e-09
 93.72982    188.8 1.047e+04 1.337e-09
 93.74988    189.6 1.052e+04 1.410e-09
 93.77040    192.2 1.054e+04 1.412e-09
 93.81053    194.9 1.055e+04 1.395e-09
 93.85065    197.5 1.055e+04 1.313e-09
 93.89078    200.1 1.051e+04 1.184e-09
 93.91549    202.8 1.045e+04 1.060e-09
 93.93556    203.7 1.044e+04 1.685e-09
 93.97104    206.3 1.039e+04 1.574e-09
 94.01117    209.0 1.036e+04 1.523e-09
 94.05130    211.6 1.035e+04 1.525e-09
 94.08110    214.2 1.035e+04 1.561e-09
 94.10117    215.1 1.058e+04 2.194e-09
 94.13155    217.4 1.061e+04 2.220e-09
 94.17168    219.4 1.066e+04 2.329e-09
 94.21181    221.4 1.071e+04 2.460e-09
 94.24671    223.4 1.079e+04 2.561e-09
 94.26678    223.6 1.102e+04 3.080e-09
 94.29207    225.9 1.105e+04 3.064e-09
 94.33220    228.3 1.114e+04 3.065e-09
 94.37233    230.8 1.130e+04 3.124e-09
 94.41232    232.8 1.137e+04 3.261e-09
 94.44232    235.2 1.116e+04 4.178e-09
 94.46242    236.6 1.120e+04 4.701e-09
 94.48248    237.9 1.128e+04 5.220e-09
 94.50255    239.0 1.134e+04 5.743e-09
 94.51500    240.2 1.137e+04 6.292e-09
 94.52503    240.5 1.127e+04 6.347e-09
 94.54268    241.7 1.131e+04 7.014e-09
 94.56274    242.9 1.136e+04 7.659e-09
 94.58280    244.0 1.143e+04 8.186e-09
 94.59780    245.1 1.152e+04 8.491e-09
 94.60783    245.6 1.117e+04 8.064e-09
 94.62293    246.6 1.123e+04 8.495e-09
 94.64300    247.7 1.129e+04 8.801e-09
 94.66306    248.8 1.134e+04 9.008e-09
 94.68061    249.9 1.139e+04 9.168e-09
 94.69064    250.3 1.112e+04 8.858e-09
 94.70319    251.3 1.120e+04 9.404e-09
 94.72325    252.4 1.129e+04 1.004e-08
 94.74332    253.6 1.141e+04 1.086e-08
 94.76338    254.8 1.158e+04 1.202e-08
 94.78345    256.6 1.151e+04 1.177e-08
 94.80351    257.9 1.175e+04 1.371e-08
 94.82358    259.1 1.207e+04 1.622e-08
 94.84364    260.2 1.245e+04 1.940e-08
 94.85625    261.2 1.283e+04 2.295e-08
 94.86628    261.9 1.207e+04 1.612e-08
 94.88377    262.8 1.237e+04 1.812e-08
 94.90383    263.6 1.261e+04 1.964e-08
 94.92390    264.3 1.270e+04 1.998e-08
 94.93905    265.0 1.271e+04 1.982e-08
 94.94909    265.9 1.232e+04 1.527e-08
 94.96403    266.8 1.242e+04 1.577e-08
 94.98409    267.5 1.249e+04 1.595e-08
 95.00415    268.2 1.254e+04 1.602e-08
 95.02186    268.9 1.255e+04 1.616e-08
 95.03189    270.0 1.263e+04 1.657e-08
 95.04428    270.8 1.276e+04 1.760e-08
 95.06435    271.6 1.279e+04 1.826e-08
 95.08441    272.3 1.278e+04 1.827e-08
 95.10448    273.0 1.270e+04 1.805e-08
 95.11470    273.8 1.254e+04 1.728e-08
 95.12473    275.1 1.289e+04 1.918e-08
 95.14460    276.0 1.266e+04 1.759e-08
 95.16467    276.9 1.237e+04 1.567e-08
 95.18473    277.8 1.209e+04 1.384e-08
 95.19750    278.7 1.185e+04 1.248e-08
 95.20753    279.9 1.207e+04 1.268e-08
 95.22486    280.6 1.174e+04 1.158e-08
 95.24493    281.4 1.159e+04 1.138e-08
 95.26499    282.1 1.159e+04 1.139e-08
 95.28031    282.7 1.159e+04 1.159e-08
 95.29034    283.4 1.179e+04 1.225e-08
 95.30512    283.5 1.181e+04 1.296e-08
 95.32518    283.4 1.193e+04 1.446e-08
 95.34525    283.0 1.214e+04 1.714e-08
 95.36311    281.5 1.296e+04 2.508e-08
 95.37314    281.6 1.356e+04 2.980e-08
 95.38537    279.1 1.482e+04 4.970e-08
 95.40544    274.9 1.640e+04 8.728e-08
 95.42550    268.8 1.808e+04 1.239e-07
 95.44557    260.1 1.910e+04 1.238e-07
 95.45595    249.3 1.943e+04 1.067e-07
 95.46598    248.6 1.915e+04 8.420e-08
 95.48570    237.9 1.846e+04 5.215e-08
 95.50576    227.7 1.622e+04 2.842e-08
 95.52582    218.8 1.288e+04 1.822e-08
 95.53875    212.6 1.180e+04 1.571e-08
 95.54879    213.9 1.172e+04 1.512e-08
 95.56595    210.0 1.172e+04 1.507e-08
 95.58602    207.0 1.184e+04 1.515e-08
 95.60608    204.3 1.204e+04 1.560e-08
 95.62156    201.7 1.205e+04 1.568e-08
 95.63159    202.1 1.231e+04 1.823e-08
 95.64621    199.8 1.225e+04 1.809e-08
 95.66627    198.2 1.200e+04 1.716e-08
 95.68634    197.7 1.156e+04 1.495e-08
 95.70436    197.6 1.107e+04 1.216e-08
 95.71440    197.9 1.129e+04 1.340e-08
 95.72647    197.9 1.075e+04 1.061e-08
 95.74653    198.0 1.028e+04 8.456e-09
 95.76660    198.4 9.955e+03 6.998e-09
 95.78666    199.0 9.759e+03 6.085e-09
 95.79720    199.8 9.647e+03 5.506e-09
 95.80022    200.3 9.899e+03 6.943e-09
 95.80974    198.5 9.748e+03 6.100e-09
 95.82679    199.6 9.741e+03 5.972e-09
 95.84685    200.7 9.755e+03 5.895e-09
 95.86692    201.6 9.769e+03 5.889e-09
 95.88001    202.5 9.820e+03 5.928e-09
 95.89004    202.6 1.087e+04 1.065e-08
 95.90705    203.6 1.116e+04 1.186e-08
 95.92711    204.6 1.156e+04 1.355e-08
 95.94717    205.3 1.197e+04 1.563e-08
 95.96281    205.5 1.239e+04 1.806e-08
 95.97280    205.9 1.386e+04 2.945e-08
 95.98219    206.0 1.415e+04 3.219e-08
 95.99222    206.0 1.436e+04 3.464e-08
 96.00225    205.9 1.461e+04 3.770e-08
 96.00913    205.7 1.479e+04 4.044e-08
 96.01415    205.7 1.695e+04 7.273e-08
 96.02232    205.3 1.712e+04 7.773e-08
 96.03235    204.6 1.732e+04 8.319e-08
 96.04238    203.8 1.756e+04 8.835e-08
 96.05054    202.8 1.779e+04 9.282e-08
 96.05555    202.3 1.927e+04 2.487e-07
 96.06245    200.9 1.928e+04 3.117e-07
 96.07248    199.2 1.932e+04 3.978e-07
 96.08251    197.2 1.917e+04 4.868e-07
 96.09194    194.8 1.903e+04 5.172e-07
 96.09695    193.8 1.844e+04 1.845e-06
 96.10257    191.5 1.843e+04 1.524e-06
 96.11261    191.2 1.844e+04 9.456e-07
 96.12264    191.2 1.835e+04 5.283e-07
 96.13267    191.2 1.813e+04 2.950e-07
 96.13841    191.4 1.777e+04 1.885e-07
 96.14849    190.3 1.763e+04 1.168e-07
 96.16788    188.7 1.668e+04 5.710e-08
 96.18795    187.1 1.559e+04 3.892e-08
 96.20801    186.2 1.475e+04 3.320e-08
 96.22126    185.7 1.416e+04 3.048e-08
 96.23129    184.4 1.302e+04 2.187e-08
 96.24814    184.5 1.286e+04 2.123e-08
 96.26820    184.8 1.266e+04 1.957e-08
 96.28827    185.2 1.239e+04 1.658e-08
 96.30406    185.6 1.204e+04 1.303e-08
 96.31410    184.4 1.157e+04 1.037e-08
 96.32839    184.4 1.129e+04 9.129e-09
 96.34846    184.3 1.128e+04 9.099e-09
 96.36852    184.1 1.132e+04 9.325e-09
 96.38687    183.7 1.148e+04 1.020e-08
 96.39690    182.9 1.163e+04 1.140e-08
 96.40865    182.6 1.179e+04 1.296e-08
 96.42872    182.2 1.197e+04 1.460e-08
 96.44878    181.6 1.221e+04 1.606e-08
 96.46884    180.7 1.251e+04 1.723e-08
 96.47971    179.4 1.283e+04 1.799e-08
 96.48974    177.9 1.268e+04 1.672e-08
 96.50897    175.7 1.277e+04 1.670e-08
 96.52904    173.4 1.281e+04 1.608e-08
 96.54910    171.2 1.278e+04 1.421e-08
 96.56251    168.3 1.268e+04 1.097e-08
 96.57254    168.0 1.263e+04 1.091e-08
 96.58923    166.2 1.245e+04 8.731e-09
 96.61942    163.2 1.220e+04 5.765e-09
 96.64551    159.2 1.169e+04 3.147e-09
 96.65545    158.2 1.143e+04 3.535e-09
 96.66949    156.5 1.116e+04 2.699e-09
 96.68955    154.6 1.076e+04 2.591e-09
 96.70962    153.6 1.075e+04 2.599e-09
 96.73981    152.3 1.069e+04 2.674e-09
 96.78004    151.4 1.060e+04 2.873e-09
 96.81112    150.9 1.056e+04 3.182e-09
 96.83109    149.5 1.017e+04 3.233e-09
 96.85007    149.3 1.018e+04 3.311e-09
 96.87013    149.1 1.020e+04 3.385e-09
 96.89019    149.0 1.022e+04 3.467e-09
 96.90376    149.0 1.024e+04 3.526e-09
 96.91380    148.7 1.023e+04 3.373e-09
 96.93032    148.6 1.026e+04 3.356e-09
 96.95039    148.6 1.029e+04 3.335e-09
 96.97045    148.6 1.031e+04 3.299e-09
 96.98657    148.7 1.033e+04 3.306e-09
 96.99660    147.4 1.013e+04 2.901e-09
 97.01058    147.7 1.024e+04 3.093e-09
 97.03064    147.7 1.045e+04 3.494e-09
 97.05071    147.4 1.071e+04 4.238e-09
 97.06938    147.0 1.105e+04 5.634e-09
 97.07941    145.9 1.111e+04 6.371e-09
 97.09084    145.5 1.158e+04 9.152e-09
 97.11090    145.2 1.216e+04 1.365e-08
 97.13097    144.9 1.276e+04 1.999e-08
 97.15103    144.5 1.331e+04 2.562e-08
 97.16221    143.7 1.375e+04 2.835e-08
 97.17224    141.9 1.337e+04 1.713e-08
 97.19116    138.0 1.485e+04 2.336e-08
 97.21122    132.4 1.666e+04 4.526e-08
 97.23129    126.6 1.780e+04 8.566e-08
 97.24502    121.3 1.805e+04 1.066e-07
 97.25505    118.0 1.793e+04 1.179e-07
 97.27142    113.8 1.753e+04 8.818e-08
 97.29148    109.4 1.649e+04 4.506e-08
 97.31154    104.3 1.474e+04 2.418e-08
 97.32782    100.6 1.370e+04 2.244e-08
 97.33785     99.9 1.300e+04 1.468e-08
 97.35167     99.2 1.296e+04 1.516e-08
 97.37174     98.9 1.302e+04 1.657e-08
 97.39180     98.6 1.314e+04 1.812e-08
 97.41063     98.1 1.327e+04 1.934e-08
 97.42066     98.2 1.295e+04 1.476e-08
 97.43193     97.5 1.329e+04 1.805e-08
 97.45199     96.7 1.362e+04 2.156e-08
 97.47206     96.1 1.388e+04 2.416e-08
 97.49212     95.6 1.392e+04 2.395e-08
 97.50347     95.1 1.381e+04 2.155e-08
 97.51350     95.0 1.430e+04 2.990e-08
 97.53225     94.6 1.416e+04 2.641e-08
 97.55231     94.1 1.387e+04 2.134e-08
 97.57238     93.6 1.349e+04 1.707e-08
 97.58627     93.2 1.311e+04 1.437e-08
 97.59630     92.8 1.351e+04 1.834e-08
 97.61251     92.4 1.314e+04 1.548e-08
 97.63257     92.0 1.284e+04 1.388e-08
 97.65264     91.7 1.266e+04 1.290e-08
 97.66908     91.5 1.253e+04 1.226e-08
 97.67911     90.8 1.250e+04 1.287e-08
 97.70289     91.2 1.221e+04 1.124e-08
 97.74312     90.7 1.191e+04 1.032e-08
 97.78325     90.5 1.166e+04 1.014e-08
 97.81325     90.0 1.155e+04 1.029e-08
 97.83321     89.9 1.147e+04 1.058e-08
 97.84472     90.2 1.145e+04 1.107e-08
 97.85475     90.1 1.109e+04 9.440e-09
 97.87334     90.7 1.110e+04 9.798e-09
 97.89341     91.1 1.123e+04 1.058e-08
 97.91347     91.5 1.143e+04 1.163e-08
 97.92752     91.8 1.163e+04 1.274e-08
 97.93756     92.0 1.116e+04 1.011e-08
 97.95360     92.3 1.132e+04 1.086e-08
 97.97366     92.4 1.147e+04 1.153e-08
 97.99373     92.4 1.162e+04 1.220e-08
 98.01033     92.5 1.178e+04 1.301e-08
 98.02036     92.9 1.136e+04 1.095e-08
 98.03386     92.9 1.152e+04 1.181e-08
 98.05392     92.9 1.169e+04 1.286e-08
 98.07399     92.9 1.186e+04 1.417e-08
 98.09313     92.9 1.204e+04 1.568e-08
 98.10317     93.5 1.167e+04 1.374e-08
 98.11411     93.5 1.193e+04 1.549e-08
 98.13418     93.5 1.221e+04 1.757e-08
 98.15424     93.4 1.247e+04 1.995e-08
 98.17431     93.0 1.267e+04 2.213e-08
 98.18597     92.6 1.284e+04 2.412e-08
 98.19600     92.8 1.303e+04 2.494e-08
 98.21444     91.8 1.329e+04 2.812e-08
 98.23450     90.5 1.356e+04 3.259e-08
 98.25456     89.1 1.389e+04 3.854e-08
 98.26878     87.7 1.437e+04 4.581e-08
 98.27821     87.2 1.437e+04 4.588e-08
 98.28406     84.9 1.375e+04 4.170e-08
 98.29469     83.2 1.370e+04 3.897e-08
 98.31476     81.0 1.351e+04 3.402e-08
 98.33482     78.2 1.318e+04 2.906e-08
 98.35158     75.0 1.275e+04 2.569e-08
 98.36161     73.5 1.249e+04 2.479e-08
 98.37495     70.9 1.233e+04 2.433e-08
 98.39501     68.5 1.227e+04 2.423e-08
 98.41508     66.2 1.217e+04 2.327e-08
 98.43439     64.1 1.190e+04 2.072e-08
 98.44442     63.4 1.197e+04 2.120e-08
 98.45521     61.7 1.139e+04 1.661e-08
 98.47527     60.3 1.063e+04 1.208e-08
 98.49533     59.3 9.874e+03 8.683e-09
 98.51540     58.8 9.332e+03 6.549e-09
 98.52722     58.6 9.002e+03 5.255e-09
 98.53726     58.3 8.987e+03 5.354e-09
 98.55553     58.2 8.802e+03 4.587e-09
 98.57559     58.2 8.697e+03 4.152e-09
 98.59566     58.2 8.652e+03 3.930e-09
 98.62585     58.5 8.618e+03 3.804e-09
 98.66608     58.7 8.679e+03 3.748e-09
 98.69303     58.7 8.701e+03 3.566e-09
 98.71309     58.3 8.961e+03 4.563e-09
 98.74633     58.2 8.911e+03 4.044e-09
 98.78646     58.0 8.932e+03 3.734e-09
 98.82659     57.6 9.092e+03 3.872e-09
 98.85864     57.2 9.412e+03 4.462e-09
 98.87870     54.9 1.018e+04 6.694e-09
 98.90685     54.1 1.059e+04 8.651e-09
 98.94698     53.3 1.100e+04 1.097e-08
 98.98710     52.4 1.114e+04 1.157e-08
 99.02425     51.5 1.109e+04 1.053e-08
 99.04431     48.5 1.073e+04 7.966e-09
 99.05723     49.0 1.063e+04 7.426e-09
 99.07720     49.1 1.057e+04 6.816e-09
 99.09726     48.8 1.050e+04 6.275e-09
 99.11689     48.5 1.050e+04 6.143e-09
 99.12692     47.2 1.041e+04 5.636e-09
 99.13739     47.3 1.040e+04 5.504e-09
 99.15746     47.4 1.041e+04 5.348e-09
 99.17752     47.6 1.040e+04 4.822e-09
 99.19758     47.6 1.036e+04 4.537e-09
 99.20973     48.2 1.032e+04 3.790e-09
 99.22989     47.6 1.016e+04 3.046e-09
 99.26800     48.4 1.009e+04 2.189e-09
 99.30813     49.3 1.015e+04 1.748e-09
 99.34826     50.5 1.018e+04 1.757e-09
 99.37553     51.7 1.031e+04 1.934e-09
 99.39560     50.5 1.044e+04 2.305e-09
 99.42852     51.8 1.076e+04 3.344e-09
 99.46865     53.0 1.111e+04 4.583e-09
 99.50878     54.0 1.134e+04 4.817e-09
 99.54114     54.7 1.133e+04 4.241e-09
 99.56121     53.8 1.109e+04 2.896e-09
 99.58903     55.1 1.100e+04 2.067e-09
 99.62916     56.4 1.089e+04 1.408e-09
 99.66929     57.8 1.075e+04 1.097e-09
 99.70675     59.7 1.072e+04 1.079e-09
 99.72682     59.2 1.073e+04 9.476e-10
 99.74955     61.2 1.074e+04 9.753e-10
 99.78967     63.2 1.080e+04 1.119e-09
 99.82980     65.4 1.110e+04 1.481e-09
 99.86993     67.2 1.143e+04 1.906e-09
 99.89233     67.7 1.154e+04 2.376e-09
 99.90227     67.3 1.160e+04 2.688e-09
 99.91990     67.6 1.176e+04 3.595e-09
 99.93996     68.0 1.201e+04 5.308e-09
 99.96003     68.3 1.228e+04 7.887e-09
 99.97504     68.5 1.249e+04 1.082e-08
 99.98507     67.7 1.243e+04 1.103e-08
100.00015     67.7 1.251e+04 1.252e-08
