# Columns:
#   distance along LOS (in CHIMPs)
#   peculiar velocity  (in km/s)
#   temperature (K)
#   HI number density
# pos=(102.602,117.508,223.466), angles=(2.98982,3.77125)
  0.00715    116.0 1.282e+04 1.353e-08
  0.01443    116.5 1.287e+04 1.419e-08
  0.02444    117.0 1.261e+04 1.212e-08
  0.04420    117.6 1.235e+04 1.038e-08
  0.06395    118.2 1.211e+04 9.060e-09
  0.08371    118.9 1.192e+04 8.114e-09
  0.10347    119.6 1.178e+04 7.425e-09
  0.12226    120.4 1.168e+04 6.967e-09
  0.13214    119.1 1.166e+04 6.846e-09
  0.14299    120.0 1.159e+04 6.723e-09
  0.16275    121.0 1.159e+04 6.736e-09
  0.18250    121.7 1.166e+04 6.990e-09
  0.20226    121.3 1.209e+04 8.241e-09
  0.22202    119.0 1.346e+04 1.457e-08
  0.23278    115.8 1.533e+04 3.736e-08
  0.24266    115.4 1.603e+04 5.353e-08
  0.26154    113.0 1.697e+04 9.683e-08
  0.28121    110.7 1.730e+04 1.050e-07
  0.30097    104.3 1.596e+04 4.257e-08
  0.32081     99.6 1.404e+04 1.639e-08
  0.34057     94.0 1.097e+04 7.177e-09
  0.36033     92.1 1.064e+04 5.916e-09
  0.38009     89.1 9.695e+03 4.198e-09
  0.40982     88.4 9.941e+03 3.887e-09
  0.43946     87.0 9.564e+03 3.288e-09
  0.45004     87.2 9.415e+03 3.193e-09
  0.45203     86.3 9.376e+03 3.317e-09
  0.46121     85.6 9.459e+03 3.309e-09
  0.48896     86.0 9.535e+03 3.748e-09
  0.52847     86.7 9.682e+03 4.417e-09
  0.56799     86.8 9.925e+03 5.445e-09
  0.60751     86.1 1.037e+04 7.176e-09
  0.64702     84.4 1.110e+04 9.847e-09
  0.66959     82.5 1.141e+04 1.122e-08
  0.67937     81.5 1.150e+04 1.133e-08
  0.69622     79.3 1.171e+04 1.296e-08
  0.71598     77.1 1.195e+04 1.495e-08
  0.73574     74.6 1.217e+04 1.703e-08
  0.75550     71.7 1.251e+04 1.896e-08
  0.76794     68.0 1.297e+04 2.130e-08
  0.77782     67.8 1.269e+04 1.944e-08
  0.79501     64.0 1.309e+04 2.234e-08
  0.81477     60.0 1.317e+04 2.387e-08
  0.83453     56.0 1.312e+04 2.351e-08
  0.85429     51.4 1.313e+04 2.283e-08
  0.87405     46.1 1.321e+04 2.342e-08
  0.88785     41.0 1.320e+04 2.391e-08
  0.89773     40.2 1.258e+04 2.045e-08
  0.91357     35.8 1.249e+04 1.712e-08
  0.92688     30.5 1.258e+04 1.322e-08
  0.93676     30.9 1.275e+04 1.404e-08
  0.95308     25.2 1.237e+04 1.452e-08
  0.97284     21.7 1.206e+04 1.434e-08
  1.00258     18.0 1.139e+04 1.042e-08
  1.04219     15.6 1.053e+04 4.884e-09
  1.07615     13.6 9.812e+03 2.701e-09
  1.09591     14.3 9.821e+03 2.611e-09
  1.12122     13.7 9.534e+03 1.784e-09
  1.16074     13.6 9.538e+03 1.468e-09
  1.20026     13.9 9.614e+03 1.412e-09
  1.23977     14.2 9.833e+03 1.621e-09
  1.27929     14.5 1.009e+04 1.908e-09
  1.31488     15.2 1.008e+04 2.087e-09
  1.33464     15.9 9.882e+03 1.431e-09
  1.35832     17.4 9.890e+03 1.840e-09
  1.39404     18.6 1.039e+04 1.657e-09
  1.41380     18.8 1.047e+04 1.106e-09
  1.43736     19.2 1.045e+04 1.322e-09
  1.47687     20.5 1.056e+04 1.930e-09
  1.51639     22.3 1.085e+04 2.536e-09
  1.55591     23.8 1.124e+04 2.850e-09
  1.59543     24.5 1.171e+04 3.475e-09
  1.63494     24.6 1.222e+04 5.259e-09
  1.67446     24.5 1.276e+04 8.774e-09
  1.71194     24.8 1.313e+04 1.336e-08
  1.73170     25.6 1.269e+04 9.373e-09
  1.75159     26.0 1.283e+04 9.180e-09
  1.77135     25.5 1.287e+04 9.141e-09
  1.79301     25.9 1.276e+04 6.127e-09
  1.83253     26.6 1.254e+04 3.841e-09
  1.87204     27.6 1.236e+04 2.345e-09
  1.91156     28.4 1.219e+04 1.950e-09
  1.95108     29.3 1.213e+04 2.159e-09
  1.99059     30.1 1.207e+04 2.998e-09
  2.02984     31.3 1.209e+04 3.842e-09
  2.04960     31.2 1.221e+04 4.290e-09
  2.06963     32.0 1.227e+04 4.237e-09
  2.10914     32.6 1.228e+04 4.572e-09
  2.14866     33.3 1.233e+04 5.338e-09
  2.18818     33.9 1.240e+04 5.884e-09
  2.22769     33.5 1.223e+04 4.964e-09
  2.26721     34.2 1.198e+04 3.737e-09
  2.30673     34.4 1.179e+04 2.974e-09
  2.34624     34.0 1.181e+04 3.267e-09
  2.36749     33.5 1.182e+04 5.288e-09
  2.38725     33.7 1.156e+04 3.938e-09
  2.42528     33.5 1.153e+04 5.244e-09
  2.46479     34.0 1.128e+04 4.394e-09
  2.50431     34.6 1.103e+04 2.539e-09
  2.54383     34.1 1.089e+04 1.682e-09
  2.58334     34.4 1.076e+04 1.742e-09
  2.62286     34.5 1.068e+04 2.421e-09
  2.64477     35.0 1.067e+04 3.432e-09
  2.66453     35.3 1.058e+04 2.647e-09
  2.68539     35.7 1.051e+04 2.922e-09
  2.70515     36.3 1.048e+04 2.729e-09
  2.74141     36.9 1.040e+04 2.610e-09
  2.78093     37.5 1.027e+04 2.124e-09
  2.82045     37.8 1.014e+04 1.801e-09
  2.85996     38.2 1.015e+04 1.893e-09
  2.89948     38.2 1.030e+04 2.504e-09
  2.93900     38.4 1.053e+04 3.604e-09
  2.97851     38.4 1.060e+04 3.976e-09
  3.00329     38.5 1.048e+04 3.330e-09
  3.02304     38.7 1.038e+04 2.532e-09
  3.05755     38.6 1.026e+04 1.803e-09
  3.08149     38.3 1.009e+04 1.375e-09
  3.10125     38.5 1.021e+04 1.550e-09
  3.13658     38.5 1.010e+04 1.522e-09
  3.17610     38.3 1.019e+04 1.739e-09
  3.21561     38.1 1.037e+04 2.298e-09
  3.25513     38.2 1.046e+04 2.745e-09
  3.28467     38.5 1.057e+04 3.224e-09
  3.29965     38.8 1.060e+04 3.325e-09
  3.30953     39.0 1.068e+04 3.757e-09
  3.32108     37.9 1.095e+04 4.921e-09
  3.34094     38.5 1.095e+04 4.916e-09
  3.37368     37.3 1.144e+04 7.051e-09
  3.40322     35.1 1.189e+04 9.700e-09
  3.42288     33.7 1.248e+04 1.501e-08
  3.44264     33.0 1.311e+04 2.470e-08
  3.46240     32.5 1.364e+04 2.978e-08
  3.47993     31.3 1.376e+04 2.922e-08
  3.48981     31.5 1.371e+04 2.818e-08
  3.50191     29.8 1.365e+04 2.534e-08
  3.51800     27.9 1.341e+04 2.344e-08
  3.52788     27.8 1.325e+04 2.210e-08
  3.54143     26.8 1.289e+04 1.976e-08
  3.56119     26.2 1.262e+04 1.751e-08
  3.58095     25.9 1.247e+04 1.554e-08
  3.60071     25.2 1.234e+04 1.407e-08
  3.62047     24.7 1.232e+04 1.410e-08
  3.63888     24.1 1.247e+04 1.575e-08
  3.64876     23.9 1.268e+04 1.722e-08
  3.65998     23.2 1.323e+04 2.260e-08
  3.67974     21.9 1.412e+04 3.328e-08
  3.69950     21.6 1.460e+04 4.922e-08
  3.71926     21.7 1.462e+04 5.628e-08
  3.73636     22.8 1.411e+04 3.807e-08
  3.74624     22.1 1.374e+04 3.345e-08
  3.75877     21.6 1.323e+04 2.077e-08
  3.77853     19.5 1.259e+04 1.362e-08
  3.79783     18.0 1.195e+04 1.132e-08
  3.80771     18.3 1.185e+04 1.054e-08
  3.81805     17.4 1.176e+04 9.797e-09
  3.83781     16.2 1.178e+04 9.624e-09
  3.85757     15.2 1.186e+04 1.049e-08
  3.87732     14.7 1.171e+04 1.320e-08
  3.89708     14.8 1.197e+04 1.473e-08
  3.91684     14.4 1.220e+04 1.549e-08
  3.93660     13.4 1.228e+04 1.512e-08
  3.95472     12.4 1.223e+04 1.505e-08
  3.96460     12.7 1.211e+04 1.329e-08
  3.96666     12.3 1.206e+04 1.173e-08
  3.97654     13.0 1.187e+04 1.086e-08
  4.00585     12.3 1.153e+04 6.974e-09
  4.04547     10.3 1.170e+04 6.410e-09
  4.07501      7.7 1.173e+04 8.908e-09
  4.09467      4.4 1.367e+04 1.493e-08
  4.11442     -1.1 1.575e+04 4.199e-08
  4.12561     -3.1 1.691e+04 1.323e-07
  4.13549     -2.1 1.663e+04 8.653e-08
  4.14895     -3.7 1.773e+04 1.917e-07
  4.15878     -5.0 1.819e+04 2.393e-07
  4.16866     -6.3 1.869e+04 2.845e-07
  4.17791     -9.7 1.914e+04 1.955e-07
  4.18285     -8.8 1.950e+04 2.185e-07
  4.18842    -14.7 1.885e+04 8.081e-08
  4.19830    -21.3 1.632e+04 3.545e-08
  4.20498    -25.9 1.466e+04 2.343e-08
  4.20992    -24.9 1.528e+04 2.606e-08
  4.21806    -28.2 1.426e+04 2.059e-08
  4.23293    -31.1 1.374e+04 1.791e-08
  4.25273    -35.1 1.328e+04 1.641e-08
  4.27249    -37.3 1.301e+04 1.563e-08
  4.28455    -39.2 1.291e+04 1.300e-08
  4.29443    -38.5 1.291e+04 1.373e-08
  4.31201    -40.7 1.279e+04 9.446e-09
  4.33177    -43.3 1.262e+04 6.834e-09
  4.35153    -45.5 1.246e+04 6.025e-09
  4.37128    -47.0 1.237e+04 5.820e-09
  4.39104    -48.1 1.235e+04 5.789e-09
  4.40131    -49.6 1.241e+04 5.847e-09
  4.41119    -50.4 1.240e+04 6.372e-09
  4.43056    -52.9 1.285e+04 7.097e-09
  4.44350    -56.1 1.344e+04 1.151e-08
  4.45338    -55.6 1.367e+04 1.244e-08
  4.47008    -58.3 1.405e+04 2.232e-08
  4.48983    -60.3 1.425e+04 3.022e-08
  4.50959    -62.4 1.421e+04 3.155e-08
  4.52935    -64.0 1.354e+04 2.426e-08
  4.54911    -65.6 1.258e+04 1.222e-08
  4.56887    -67.6 1.177e+04 5.946e-09
  4.58863    -69.5 1.141e+04 4.126e-09
  4.60245    -70.5 1.128e+04 3.766e-09
  4.61233    -70.5 1.134e+04 4.498e-09
  4.61966    -71.0 1.134e+04 4.496e-09
  4.62954    -71.2 1.132e+04 4.368e-09
  4.64790    -71.5 1.141e+04 4.615e-09
  4.66766    -72.0 1.162e+04 5.138e-09
  4.68742    -72.6 1.189e+04 5.920e-09
  4.70718    -73.2 1.219e+04 7.275e-09
  4.72694    -73.8 1.242e+04 9.642e-09
  4.74669    -74.2 1.276e+04 1.257e-08
  4.76140    -74.9 1.370e+04 1.732e-08
  4.77128    -75.1 1.361e+04 1.862e-08
  4.78621    -78.3 1.645e+04 3.044e-08
  4.80098    -82.4 2.074e+04 7.408e-08
  4.81081    -84.8 2.008e+04 2.622e-07
  4.82069    -86.0 1.869e+04 1.319e-06
  4.83057    -87.9 1.754e+04 5.693e-06
  4.83792    -93.0 1.680e+04 1.301e-05
  4.84286    -92.6 1.748e+04 6.564e-06
  4.84571    -99.9 1.734e+04 7.760e-06
  4.85065    -99.9 1.674e+04 1.435e-05
  4.86021   -107.6 1.700e+04 9.954e-06
  4.87009   -112.6 1.825e+04 2.882e-06
  4.87997   -115.1 1.967e+04 7.032e-07
  4.88984   -116.6 1.970e+04 2.770e-07
  4.89972   -117.5 1.873e+04 1.572e-07
  4.90960   -117.9 1.780e+04 1.035e-07
  4.91948   -118.5 1.712e+04 6.921e-08
  4.92519   -119.4 1.652e+04 4.946e-08
  4.93013   -120.3 1.727e+04 6.648e-08
  4.93924   -121.0 1.666e+04 5.178e-08
  4.94710   -121.6 1.611e+04 4.362e-08
  4.95204   -121.5 1.557e+04 3.639e-08
  4.95900   -121.9 1.535e+04 3.531e-08
  4.96888   -122.3 1.531e+04 3.528e-08
  4.97876   -122.8 1.527e+04 3.659e-08
  4.98864   -123.4 1.532e+04 3.848e-08
  4.99852   -124.2 1.531e+04 4.145e-08
  5.00466   -124.9 1.538e+04 4.358e-08
  5.00960   -125.4 1.547e+04 4.680e-08
  5.02326   -126.1 1.531e+04 4.571e-08
  5.04307   -127.3 1.493e+04 4.228e-08
  5.05638   -128.6 1.431e+04 3.247e-08
  5.06625   -127.8 1.428e+04 2.939e-08
  5.07930   -128.7 1.336e+04 1.881e-08
  5.08917   -129.9 1.330e+04 1.920e-08
  5.10234   -130.5 1.256e+04 1.279e-08
  5.12210   -130.8 1.202e+04 9.164e-09
  5.14186   -130.8 1.170e+04 7.027e-09
  5.16162   -130.6 1.150e+04 5.633e-09
  5.18138   -130.2 1.136e+04 4.666e-09
  5.20114   -129.8 1.124e+04 4.021e-09
  5.22090   -129.5 1.111e+04 3.617e-09
  5.23824   -129.2 1.096e+04 3.406e-09
  5.24812   -129.1 1.105e+04 3.961e-09
  5.26041   -128.9 1.091e+04 3.736e-09
  5.27473   -128.7 1.078e+04 3.620e-09
  5.28461   -128.1 1.080e+04 3.656e-09
  5.29993   -128.0 1.071e+04 3.581e-09
  5.31969   -127.9 1.065e+04 3.527e-09
  5.33945   -127.9 1.058e+04 3.469e-09
  5.35920   -127.8 1.048e+04 3.334e-09
  5.37896   -127.8 1.034e+04 3.088e-09
  5.39719   -127.7 1.020e+04 2.792e-09
  5.40707   -128.1 1.034e+04 3.235e-09
  5.41848   -128.0 1.019e+04 2.861e-09
  5.43824   -128.0 1.008e+04 2.572e-09
  5.45800   -128.0 1.003e+04 2.323e-09
  5.47775   -128.0 1.001e+04 2.210e-09
  5.49309   -127.9 1.001e+04 2.147e-09
  5.50297   -128.2 1.001e+04 2.406e-09
  5.51727   -128.0 1.001e+04 2.312e-09
  5.54636   -127.7 1.003e+04 2.197e-09
  5.56612   -128.1 1.007e+04 2.611e-09
  5.57655   -127.8 1.009e+04 2.617e-09
  5.59630   -127.6 1.011e+04 2.642e-09
  5.62604   -127.5 1.017e+04 2.806e-09
  5.66565   -127.1 1.022e+04 2.858e-09
  5.70176   -126.6 1.024e+04 2.886e-09
  5.72142   -126.6 1.027e+04 2.948e-09
  5.72497   -126.3 1.029e+04 2.967e-09
  5.73485   -126.6 1.028e+04 3.162e-09
  5.75437   -126.3 1.031e+04 3.236e-09
  5.77413   -126.1 1.035e+04 3.362e-09
  5.79389   -125.8 1.037e+04 3.460e-09
  5.81365   -125.4 1.037e+04 3.517e-09
  5.83341   -124.8 1.037e+04 3.533e-09
  5.85316   -124.2 1.036e+04 3.555e-09
  5.87292   -124.0 1.039e+04 3.603e-09
  5.88392   -126.2 1.118e+04 3.897e-09
  5.89379   -124.1 1.075e+04 4.199e-09
  5.91244   -130.5 1.372e+04 5.208e-09
  5.92980   -139.2 1.888e+04 5.497e-08
  5.93968   -139.5 1.911e+04 3.874e-08
  5.94697   -142.6 1.899e+04 2.830e-07
  5.95680   -143.7 1.911e+04 5.741e-07
  5.96329   -145.7 1.926e+04 7.563e-07
  5.96823   -144.6 1.910e+04 8.346e-07
  5.97656   -147.2 1.918e+04 9.010e-07
  5.98644   -151.2 1.953e+04 7.100e-07
  5.99631   -157.0 1.951e+04 2.722e-07
  6.00619   -164.1 1.769e+04 7.122e-08
  6.01607   -169.6 1.438e+04 2.969e-08
  6.02595   -171.4 1.298e+04 2.238e-08
  6.03583   -171.9 1.259e+04 2.030e-08
  6.04281   -172.6 1.231e+04 1.796e-08
  6.05274   -172.5 1.258e+04 1.965e-08
  6.07051   -173.5 1.200e+04 1.552e-08
  6.09026   -174.6 1.119e+04 1.173e-08
  6.11002   -175.2 1.068e+04 9.993e-09
  6.12978   -175.4 1.051e+04 9.383e-09
  6.14816   -175.5 1.043e+04 9.059e-09
  6.15804   -176.2 1.041e+04 9.102e-09
  6.16930   -176.3 1.029e+04 8.553e-09
  6.18906   -176.4 1.012e+04 7.771e-09
  6.20181   -176.5 9.891e+03 6.803e-09
  6.21169   -176.4 9.959e+03 6.840e-09
  6.22857   -176.6 9.658e+03 5.815e-09
  6.24833   -176.7 9.347e+03 4.947e-09
  6.26809   -176.8 9.070e+03 4.263e-09
  6.28785   -176.9 8.849e+03 3.675e-09
  6.30761   -176.7 8.618e+03 3.197e-09
  6.32737   -175.8 8.516e+03 2.865e-09
  6.34712   -174.8 8.538e+03 2.762e-09
  6.37686   -174.2 8.635e+03 2.795e-09
  6.41647   -173.3 8.714e+03 2.654e-09
  6.45599   -172.3 8.686e+03 2.377e-09
  6.49551   -170.9 8.645e+03 2.167e-09
  6.51990   -169.3 8.640e+03 2.111e-09
  6.53966   -168.5 8.944e+03 2.305e-09
  6.57454   -167.0 9.014e+03 2.300e-09
  6.59494   -166.0 9.264e+03 2.501e-09
  6.60472   -166.9 9.163e+03 2.731e-09
  6.62374   -166.7 9.230e+03 2.866e-09
  6.64350   -166.2 9.326e+03 3.128e-09
  6.66326   -166.1 9.368e+03 3.275e-09
  6.67866   -166.0 9.403e+03 3.553e-09
  6.68854   -166.2 9.397e+03 3.657e-09
  6.70277   -166.2 9.365e+03 3.808e-09
  6.72253   -166.1 9.345e+03 3.906e-09
  6.74229   -166.1 9.361e+03 3.965e-09
  6.76205   -166.1 9.397e+03 4.062e-09
  6.78181   -166.5 9.467e+03 4.286e-09
  6.80157   -167.2 9.653e+03 4.789e-09
  6.81310   -167.8 1.004e+04 5.974e-09
  6.82298   -167.1 9.734e+03 5.378e-09
  6.83760   -167.4 1.003e+04 6.504e-09
  6.84748   -168.3 1.047e+04 9.027e-09
  6.86084   -168.4 1.073e+04 1.090e-08
  6.88060   -168.3 1.091e+04 1.253e-08
  6.90036   -168.1 1.101e+04 1.341e-08
  6.92012   -167.9 1.103e+04 1.361e-08
  6.93988   -167.6 1.092e+04 1.262e-08
  6.95963   -167.2 1.064e+04 1.088e-08
  6.97939   -166.9 1.037e+04 9.125e-09
  6.99655   -166.5 1.010e+04 7.761e-09
  7.00643   -167.3 1.002e+04 7.454e-09
  7.01891   -166.6 9.792e+03 6.562e-09
  7.03146   -165.8 9.610e+03 5.894e-09
  7.04134   -164.6 9.719e+03 6.243e-09
  7.05843   -163.8 9.601e+03 5.794e-09
  7.07818   -163.0 9.481e+03 5.385e-09
  7.09794   -162.1 9.363e+03 5.018e-09
  7.11770   -161.1 9.260e+03 4.711e-09
  7.13746   -160.2 9.177e+03 4.472e-09
  7.15550   -159.2 9.118e+03 4.309e-09
  7.16538   -159.3 8.998e+03 4.019e-09
  7.17698   -158.2 8.991e+03 3.987e-09
  7.19673   -157.2 9.006e+03 3.990e-09
  7.21649   -156.4 9.127e+03 4.180e-09
  7.23625   -155.6 9.285e+03 4.609e-09
  7.24982   -154.9 9.459e+03 5.163e-09
  7.25970   -154.2 9.453e+03 5.233e-09
  7.27577   -153.5 9.633e+03 5.830e-09
  7.29553   -152.9 9.792e+03 6.402e-09
  7.31445   -152.3 9.905e+03 6.843e-09
  7.32433   -152.6 1.008e+04 7.635e-09
  7.33504   -152.0 1.012e+04 7.813e-09
  7.35480   -151.5 1.012e+04 7.838e-09
  7.37456   -150.8 1.006e+04 7.721e-09
  7.39432   -149.9 9.971e+03 7.319e-09
  7.41408   -149.1 9.868e+03 6.815e-09
  7.43384   -148.2 9.764e+03 6.297e-09
  7.45359   -147.3 9.669e+03 5.816e-09
  7.46817   -146.4 9.589e+03 5.393e-09
  7.47805   -145.8 9.697e+03 5.875e-09
  7.49311   -145.2 9.698e+03 5.674e-09
  7.51287   -144.3 9.670e+03 5.389e-09
  7.53263   -143.4 9.669e+03 5.188e-09
  7.55239   -142.4 9.700e+03 5.063e-09
  7.57214   -141.5 9.737e+03 5.008e-09
  7.59190   -140.6 9.769e+03 4.981e-09
  7.61166   -139.8 9.818e+03 4.948e-09
  7.63142   -138.9 9.868e+03 4.902e-09
  7.64222   -138.0 9.901e+03 4.841e-09
  7.65210   -138.3 9.946e+03 4.838e-09
  7.67094   -137.3 9.939e+03 4.671e-09
  7.68653   -136.4 9.947e+03 4.490e-09
  7.69641   -136.2 1.010e+04 5.106e-09
  7.71045   -135.3 1.011e+04 4.863e-09
  7.73021   -134.3 1.012e+04 4.657e-09
  7.74997   -133.5 1.015e+04 4.508e-09
  7.76973   -132.7 1.019e+04 4.418e-09
  7.78949   -132.0 1.021e+04 4.393e-09
  7.80117   -131.3 1.032e+04 4.369e-09
  7.81105   -131.0 1.024e+04 3.843e-09
  7.82900   -130.5 1.044e+04 4.042e-09
  7.84876   -130.0 1.061e+04 4.455e-09
  7.86852   -129.6 1.077e+04 4.919e-09
  7.88828   -129.2 1.091e+04 5.378e-09
  7.90488   -128.9 1.104e+04 5.791e-09
  7.91476   -129.2 1.113e+04 6.410e-09
  7.92779   -128.9 1.123e+04 6.711e-09
  7.94755   -128.7 1.131e+04 6.901e-09
  7.96012   -128.6 1.140e+04 7.026e-09
  7.97000   -128.4 1.172e+04 8.980e-09
  7.98707   -128.5 1.187e+04 9.378e-09
  8.00683   -129.0 1.208e+04 1.017e-08
  8.02659   -129.7 1.232e+04 1.168e-08
  8.04635   -130.6 1.265e+04 1.422e-08
  8.06610   -131.6 1.306e+04 1.741e-08
  8.08586   -133.3 1.356e+04 2.046e-08
  8.10562   -136.0 1.410e+04 2.293e-08
  8.11907   -139.9 1.450e+04 2.494e-08
  8.12681   -142.0 1.492e+04 3.074e-08
  8.13312   -143.7 1.529e+04 3.697e-08
  8.14015   -145.7 1.509e+04 3.578e-08
  8.14998   -146.9 1.524e+04 3.781e-08
  8.15986   -149.1 1.540e+04 4.173e-08
  8.16974   -150.9 1.578e+04 4.978e-08
  8.17962   -152.8 1.593e+04 5.833e-08
  8.18950   -154.0 1.603e+04 6.523e-08
  8.19845   -154.9 1.605e+04 6.962e-08
  8.20338   -155.9 1.629e+04 8.153e-08
  8.20925   -156.3 1.599e+04 7.697e-08
  8.21913   -156.6 1.581e+04 6.693e-08
  8.22901   -156.9 1.558e+04 5.691e-08
  8.23726   -157.2 1.532e+04 4.929e-08
  8.24220   -158.2 1.552e+04 5.304e-08
  8.24877   -158.3 1.517e+04 4.577e-08
  8.26364   -158.0 1.497e+04 4.215e-08
  8.27802   -157.9 1.455e+04 3.436e-08
  8.28790   -159.0 1.386e+04 1.966e-08
  8.30320   -159.0 1.337e+04 1.327e-08
  8.32296   -158.8 1.298e+04 9.790e-09
  8.34160   -158.5 1.272e+04 8.000e-09
  8.35148   -159.8 1.247e+04 8.304e-09
  8.36248   -159.2 1.239e+04 7.489e-09
  8.38224   -158.5 1.230e+04 7.128e-09
  8.40200   -157.8 1.226e+04 6.976e-09
  8.42175   -157.1 1.226e+04 6.908e-09
  8.43696   -156.5 1.228e+04 6.864e-09
  8.44684   -156.5 1.228e+04 6.523e-09
  8.46127   -155.9 1.233e+04 6.770e-09
  8.48103   -155.3 1.236e+04 6.837e-09
  8.50079   -154.9 1.237e+04 6.805e-09
  8.52055   -154.5 1.235e+04 6.549e-09
  8.54031   -154.0 1.226e+04 6.041e-09
  8.55995   -153.5 1.213e+04 5.421e-09
  8.56983   -154.0 1.221e+04 6.179e-09
  8.57982   -153.5 1.205e+04 5.407e-09
  8.59591   -153.0 1.191e+04 4.872e-09
  8.60579   -153.1 1.201e+04 5.246e-09
  8.61934   -152.7 1.200e+04 5.015e-09
  8.63910   -152.5 1.203e+04 4.979e-09
  8.65886   -152.6 1.226e+04 5.369e-09
  8.67861   -152.8 1.253e+04 6.337e-09
  8.69837   -153.1 1.274e+04 8.051e-09
  8.71813   -153.3 1.291e+04 1.038e-08
  8.73789   -153.4 1.306e+04 1.304e-08
  8.75486   -153.4 1.319e+04 1.551e-08
  8.76474   -154.4 1.389e+04 2.479e-08
  8.77741   -154.3 1.377e+04 2.486e-08
  8.78819   -154.2 1.371e+04 2.316e-08
  8.79807   -154.2 1.350e+04 1.803e-08
  8.81692   -154.1 1.340e+04 1.608e-08
  8.83668   -153.9 1.330e+04 1.462e-08
  8.85644   -153.7 1.316e+04 1.320e-08
  8.87620   -153.4 1.296e+04 1.160e-08
  8.89596   -152.8 1.269e+04 9.860e-09
  8.91381   -152.0 1.241e+04 8.283e-09
  8.92369   -152.4 1.259e+04 9.669e-09
  8.93547   -151.5 1.249e+04 8.738e-09
  8.95523   -150.9 1.252e+04 8.493e-09
  8.97499   -151.0 1.263e+04 8.526e-09
  8.99475   -152.6 1.365e+04 1.110e-08
  9.00654   -155.0 1.572e+04 3.070e-08
  9.01642   -156.1 1.685e+04 6.260e-08
  9.02928   -157.1 1.743e+04 9.898e-08
  9.03911   -157.7 1.785e+04 1.335e-07
  9.04899   -158.0 1.811e+04 1.574e-07
  9.05887   -159.4 1.842e+04 1.749e-07
  9.06874   -161.1 1.851e+04 1.808e-07
  9.07760   -162.4 1.848e+04 1.665e-07
  9.08254   -163.3 1.774e+04 9.572e-08
  9.08850   -164.8 1.727e+04 7.282e-08
  9.09838   -166.0 1.693e+04 5.858e-08
  9.10826   -167.9 1.617e+04 4.125e-08
  9.11562   -169.6 1.541e+04 3.173e-08
  9.12056   -170.8 1.487e+04 3.043e-08
  9.13301   -171.8 1.418e+04 2.336e-08
  9.15282   -172.9 1.335e+04 1.800e-08
  9.17257   -173.7 1.283e+04 1.444e-08
  9.19233   -174.2 1.276e+04 1.319e-08
  9.21209   -174.8 1.281e+04 1.302e-08
  9.22490   -175.7 1.301e+04 1.292e-08
  9.23464   -175.2 1.262e+04 1.174e-08
  9.24159   -176.1 1.304e+04 1.379e-08
  9.25161   -177.3 1.314e+04 1.432e-08
  9.27137   -178.6 1.314e+04 1.442e-08
  9.29112   -179.9 1.298e+04 1.398e-08
  9.31088   -181.2 1.276e+04 1.246e-08
  9.33064   -182.4 1.256e+04 1.086e-08
  9.35040   -183.6 1.244e+04 9.788e-09
  9.37016   -184.5 1.239e+04 9.466e-09
  9.38992   -185.1 1.238e+04 9.440e-09
  9.40053   -185.4 1.240e+04 9.523e-09
  9.41041   -186.0 1.246e+04 9.759e-09
  9.42943   -186.1 1.249e+04 9.846e-09
  9.44326   -186.3 1.250e+04 9.869e-09
  9.45314   -185.2 1.241e+04 9.575e-09
  9.46895   -185.7 1.243e+04 9.554e-09
  9.48871   -186.2 1.242e+04 9.345e-09
  9.50847   -186.8 1.242e+04 9.090e-09
  9.52822   -187.5 1.238e+04 8.790e-09
  9.54798   -188.2 1.239e+04 8.586e-09
  9.57772   -189.1 1.232e+04 8.251e-09
  9.61733   -189.4 1.230e+04 7.763e-09
  9.65193   -189.5 1.234e+04 7.200e-09
  9.67169   -187.2 1.238e+04 7.699e-09
  9.68639   -188.2 1.228e+04 6.570e-09
  9.70605   -188.5 1.225e+04 6.164e-09
  9.71843   -188.9 1.223e+04 5.564e-09
  9.72831   -189.9 1.235e+04 5.881e-09
  9.74557   -189.9 1.237e+04 5.390e-09
  9.76533   -189.9 1.235e+04 4.825e-09
  9.78508   -189.7 1.229e+04 4.254e-09
  9.80484   -189.5 1.220e+04 3.775e-09
  9.82460   -189.3 1.210e+04 3.477e-09
  9.84436   -189.0 1.207e+04 3.387e-09
  9.86412   -188.9 1.207e+04 3.381e-09
  9.87738   -188.9 1.216e+04 3.492e-09
  9.88335   -189.1 1.220e+04 3.243e-09
  9.88985   -188.5 1.187e+04 3.193e-09
  9.90363   -188.4 1.191e+04 3.588e-09
  9.92339   -188.4 1.211e+04 4.213e-09
  9.94315   -188.3 1.233e+04 4.956e-09
  9.96291   -188.5 1.254e+04 5.699e-09
  9.98267   -188.9 1.270e+04 6.315e-09
 10.00243   -189.5 1.279e+04 6.740e-09
 10.02218   -190.2 1.283e+04 7.039e-09
 10.03633   -191.0 1.285e+04 7.339e-09
 10.04621   -191.2 1.281e+04 6.945e-09
 10.06170   -191.9 1.279e+04 7.646e-09
 10.08146   -192.7 1.278e+04 8.486e-09
 10.09833   -193.5 1.281e+04 9.427e-09
 10.10820   -192.2 1.287e+04 9.306e-09
 10.12098   -193.1 1.294e+04 1.043e-08
 10.14074   -194.1 1.302e+04 1.149e-08
 10.16049   -195.1 1.303e+04 1.219e-08
 10.18025   -195.9 1.301e+04 1.235e-08
 10.19527   -196.5 1.284e+04 1.218e-08
 10.20515   -196.6 1.283e+04 1.180e-08
 10.21977   -196.7 1.261e+04 1.095e-08
 10.23953   -196.8 1.241e+04 9.892e-09
 10.25929   -196.7 1.224e+04 8.769e-09
 10.27904   -196.4 1.207e+04 7.679e-09
 10.29880   -196.1 1.189e+04 6.675e-09
 10.31668   -195.6 1.170e+04 5.748e-09
 10.32656   -195.6 1.195e+04 6.693e-09
 10.33832   -195.0 1.172e+04 5.793e-09
 10.35422   -194.2 1.154e+04 4.791e-09
 10.36410   -193.5 1.130e+04 3.570e-09
 10.37784   -192.7 1.128e+04 2.949e-09
 10.40757   -192.4 1.122e+04 2.573e-09
 10.44719   -191.2 1.108e+04 2.181e-09
 10.48670   -189.6 1.102e+04 1.918e-09
 10.52535   -188.1 1.104e+04 1.843e-09
 10.54511   -187.4 1.112e+04 1.800e-09
 10.56574   -186.2 1.116e+04 1.798e-09
 10.60525   -185.8 1.173e+04 2.332e-09
 10.63479   -185.5 1.218e+04 3.947e-09
 10.65445   -185.5 1.245e+04 5.184e-09
 10.67212   -185.6 1.282e+04 7.394e-09
 10.68200   -185.5 1.266e+04 7.385e-09
 10.69397   -186.0 1.312e+04 1.095e-08
 10.71373   -186.7 1.371e+04 1.640e-08
 10.73349   -187.5 1.436e+04 2.499e-08
 10.75325   -188.5 1.505e+04 3.777e-08
 10.76327   -189.5 1.572e+04 5.526e-08
 10.77315   -189.8 1.604e+04 6.562e-08
 10.79276   -191.0 1.659e+04 8.543e-08
 10.81252   -192.1 1.699e+04 1.032e-07
 10.83107   -193.5 1.719e+04 1.136e-07
 10.84095   -193.1 1.720e+04 1.119e-07
 10.85204   -194.9 1.732e+04 1.179e-07
 10.87180   -196.8 1.730e+04 1.186e-07
 10.89155   -198.2 1.703e+04 1.119e-07
 10.91131   -199.3 1.667e+04 9.793e-08
 10.93107   -200.3 1.628e+04 8.332e-08
 10.95083   -201.2 1.583e+04 6.950e-08
 10.97059   -201.6 1.532e+04 5.690e-08
 10.98163   -201.8 1.481e+04 4.593e-08
 10.99118   -202.0 1.457e+04 3.372e-08
 10.99989   -201.6 1.421e+04 2.808e-08
 11.01010   -201.6 1.389e+04 2.411e-08
 11.02986   -201.5 1.356e+04 2.050e-08
 11.04962   -201.1 1.321e+04 1.724e-08
 11.06938   -200.4 1.289e+04 1.462e-08
 11.08914   -199.7 1.265e+04 1.271e-08
 11.10890   -198.9 1.248e+04 1.146e-08
 11.12865   -198.1 1.238e+04 1.074e-08
 11.14841   -197.3 1.234e+04 1.043e-08
 11.15884   -196.6 1.232e+04 1.037e-08
 11.16872   -196.6 1.223e+04 9.928e-09
 11.18793   -195.9 1.220e+04 9.874e-09
 11.19999   -195.2 1.218e+04 1.004e-08
 11.20986   -195.8 1.254e+04 1.214e-08
 11.22745   -195.1 1.258e+04 1.281e-08
 11.24721   -194.5 1.263e+04 1.355e-08
 11.26696   -194.0 1.271e+04 1.415e-08
 11.28672   -193.6 1.285e+04 1.438e-08
 11.30648   -193.4 1.291e+04 1.439e-08
 11.31779   -193.3 1.296e+04 1.387e-08
 11.32767   -193.1 1.268e+04 1.128e-08
 11.34600   -193.1 1.270e+04 1.087e-08
 11.36576   -193.1 1.271e+04 1.074e-08
 11.38551   -193.2 1.273e+04 1.074e-08
 11.40527   -193.6 1.295e+04 1.132e-08
 11.41834   -194.3 1.346e+04 1.459e-08
 11.42822   -194.7 1.343e+04 1.405e-08
 11.44479   -195.4 1.397e+04 1.911e-08
 11.46455   -196.2 1.442e+04 2.446e-08
 11.47674   -197.4 1.466e+04 2.746e-08
 11.48662   -196.7 1.454e+04 2.566e-08
 11.50406   -198.3 1.459e+04 2.638e-08
 11.52382   -199.7 1.443e+04 2.570e-08
 11.54358   -200.5 1.407e+04 2.188e-08
 11.56334   -201.1 1.375e+04 1.819e-08
 11.58310   -201.3 1.351e+04 1.599e-08
 11.60286   -201.4 1.334e+04 1.490e-08
 11.62261   -201.4 1.329e+04 1.452e-08
 11.63569   -201.3 1.329e+04 1.447e-08
 11.63989   -200.8 1.329e+04 1.426e-08
 11.64658   -201.8 1.370e+04 1.695e-08
 11.66213   -202.0 1.382e+04 1.925e-08
 11.68189   -202.2 1.404e+04 2.320e-08
 11.70165   -202.3 1.434e+04 2.898e-08
 11.72141   -202.4 1.458e+04 3.511e-08
 11.74116   -202.9 1.467e+04 3.910e-08
 11.76092   -203.4 1.467e+04 4.004e-08
 11.78068   -203.8 1.446e+04 3.962e-08
 11.79463   -203.9 1.408e+04 3.606e-08
 11.80451   -204.1 1.420e+04 4.153e-08
 11.82020   -204.2 1.365e+04 3.270e-08
 11.83996   -204.3 1.308e+04 2.526e-08
 11.85505   -204.3 1.248e+04 1.966e-08
 11.86493   -204.8 1.213e+04 1.688e-08
 11.87947   -204.4 1.166e+04 1.419e-08
 11.89923   -203.8 1.119e+04 1.170e-08
 11.91899   -202.9 1.072e+04 9.393e-09
 11.93875   -201.8 1.024e+04 7.313e-09
 11.95358   -200.4 9.795e+03 5.542e-09
 11.96346   -200.1 9.638e+03 5.073e-09
 11.97827   -198.8 9.302e+03 3.929e-09
 11.99802   -197.8 9.109e+03 3.306e-09
 12.02776   -197.0 8.941e+03 2.892e-09
 12.06737   -194.6 8.500e+03 2.235e-09
 12.10689   -191.8 8.037e+03 1.741e-09
 12.14641   -189.0 7.735e+03 1.472e-09
 12.18592   -186.3 7.580e+03 1.368e-09
 12.22544   -183.8 7.530e+03 1.343e-09
 12.26180   -181.5 7.515e+03 1.362e-09
 12.28155   -180.4 7.476e+03 1.311e-09
 12.29196   -178.3 7.518e+03 1.445e-09
 12.31172   -179.7 8.147e+03 2.176e-09
 12.34399   -178.1 8.504e+03 3.109e-09
 12.38351   -176.6 8.821e+03 4.149e-09
 12.42302   -175.0 9.034e+03 4.898e-09
 12.46254   -173.4 9.092e+03 5.120e-09
 12.50206   -171.7 9.095e+03 4.949e-09
 12.54158   -169.9 8.812e+03 4.237e-09
 12.57969   -168.1 8.503e+03 3.416e-09
 12.59945   -167.6 8.503e+03 3.479e-09
 12.62061   -165.7 8.093e+03 2.617e-09
 12.66013   -163.6 7.669e+03 1.943e-09
 12.69964   -161.5 7.313e+03 1.496e-09
 12.72867   -159.4 7.122e+03 1.276e-09
 12.74843   -160.5 7.084e+03 1.029e-09
 12.77868   -158.3 7.067e+03 1.018e-09
 12.81819   -156.1 7.056e+03 1.035e-09
 12.85771   -153.9 7.128e+03 1.128e-09
 12.89723   -152.0 7.253e+03 1.243e-09
 12.91735   -150.1 7.353e+03 1.303e-09
 12.93710   -149.6 7.197e+03 1.079e-09
 12.97626   -147.9 7.240e+03 1.062e-09
 13.01578   -146.3 7.277e+03 9.863e-10
 13.05529   -144.6 7.304e+03 8.907e-10
 13.09481   -143.0 7.334e+03 8.263e-10
 13.13433   -141.6 7.352e+03 8.108e-10
 13.16539   -140.5 7.490e+03 8.170e-10
 13.18514   -140.9 7.742e+03 6.846e-10
 13.21336   -140.1 8.044e+03 9.813e-10
 13.23524   -139.3 8.314e+03 1.426e-09
 13.25500   -137.8 8.174e+03 1.015e-09
 13.29239   -137.2 8.453e+03 1.609e-09
 13.33191   -136.6 8.778e+03 2.303e-09
 13.37143   -136.1 9.102e+03 2.917e-09
 13.41094   -135.6 9.391e+03 3.211e-09
 13.45046   -135.2 9.493e+03 3.239e-09
 13.48998   -134.9 9.585e+03 3.119e-09
 13.52949   -134.2 9.738e+03 2.712e-09
 13.55314   -133.1 9.853e+03 2.273e-09
 13.57290   -132.5 9.836e+03 2.399e-09
 13.60210   -131.2 9.844e+03 1.832e-09
 13.62186   -129.9 9.891e+03 1.952e-09
 13.64805   -128.4 9.848e+03 1.635e-09
 13.68756   -127.1 9.813e+03 1.413e-09
 13.72708   -125.8 9.798e+03 1.243e-09
 13.76660   -124.5 9.796e+03 1.116e-09
 13.80611   -123.2 9.786e+03 1.045e-09
 13.84563   -122.1 9.784e+03 1.032e-09
 13.87104   -121.0 9.768e+03 1.144e-09
 13.89079   -120.5 9.490e+03 9.336e-10
 13.92466   -119.3 9.583e+03 1.085e-09
 13.96418   -118.3 9.668e+03 1.518e-09
 14.00370   -117.4 9.856e+03 2.389e-09
 14.03881   -116.6 1.017e+04 3.819e-09
 14.05857   -117.6 1.070e+04 6.702e-09
 14.08273   -117.0 1.108e+04 8.636e-09
 14.12225   -116.7 1.140e+04 1.036e-08
 14.16176   -116.4 1.156e+04 1.130e-08
 14.18893   -116.0 1.157e+04 1.125e-08
 14.20869   -114.4 1.184e+04 1.269e-08
 14.23082   -114.5 1.165e+04 1.214e-08
 14.25048   -114.3 1.155e+04 1.207e-08
 14.26685   -114.0 1.140e+04 1.183e-08
 14.27673   -114.5 1.164e+04 1.283e-08
 14.29000   -113.9 1.148e+04 1.210e-08
 14.30976   -113.4 1.139e+04 1.169e-08
 14.32951   -112.8 1.130e+04 1.127e-08
 14.34768   -112.2 1.122e+04 1.078e-08
 14.35756   -111.8 1.153e+04 1.310e-08
 14.36903   -111.2 1.141e+04 1.228e-08
 14.38879   -110.6 1.125e+04 1.126e-08
 14.40855   -109.9 1.107e+04 1.014e-08
 14.42831   -109.2 1.089e+04 8.976e-09
 14.44806   -108.3 1.071e+04 7.844e-09
 14.46782   -107.4 1.054e+04 6.838e-09
 14.48521   -106.4 1.040e+04 5.969e-09
 14.49518   -107.4 1.026e+04 5.002e-09
 14.50683   -105.2 1.009e+04 3.963e-09
 14.52659   -104.2 1.042e+04 5.708e-09
 14.55693   -101.9 1.036e+04 4.903e-09
 14.59645    -99.8 1.038e+04 4.642e-09
 14.62599    -98.1 1.035e+04 4.205e-09
 14.64565    -97.4 1.036e+04 4.181e-09
 14.66541    -95.9 1.044e+04 4.221e-09
 14.67546    -95.2 1.050e+04 4.453e-09
 14.68534    -94.9 1.066e+04 5.227e-09
 14.71490    -93.4 1.061e+04 4.820e-09
 14.75452    -90.7 1.067e+04 4.931e-09
 14.79403    -88.0 1.087e+04 5.595e-09
 14.82472    -85.2 1.107e+04 6.376e-09
 14.84448    -85.1 1.142e+04 8.146e-09
 14.87307    -82.1 1.163e+04 8.253e-09
 14.91223    -79.1 1.187e+04 8.666e-09
 14.93199    -80.5 1.143e+04 4.993e-09
 14.95210    -77.8 1.163e+04 4.766e-09
 14.98164    -75.7 1.181e+04 4.885e-09
 14.99336    -75.2 1.189e+04 4.861e-09
 15.00324    -75.1 1.222e+04 5.394e-09
 15.02106    -75.3 1.273e+04 6.680e-09
 15.04082    -76.3 1.367e+04 1.470e-08
 15.06058    -76.4 1.488e+04 3.986e-08
 15.08033    -75.7 1.604e+04 8.171e-08
 15.10009    -75.5 1.687e+04 1.161e-07
 15.11985    -76.4 1.706e+04 1.237e-07
 15.13961    -77.9 1.656e+04 9.354e-08
 15.15015    -79.1 1.539e+04 5.096e-08
 15.15297    -80.2 1.435e+04 2.998e-08
 15.16218    -81.4 1.482e+04 4.041e-08
 15.17913    -82.7 1.427e+04 3.288e-08
 15.19888    -83.2 1.415e+04 3.180e-08
 15.21864    -83.5 1.411e+04 3.296e-08
 15.23840    -83.7 1.420e+04 3.601e-08
 15.25816    -83.7 1.424e+04 3.762e-08
 15.27792    -83.5 1.424e+04 3.778e-08
 15.29768    -83.4 1.411e+04 3.605e-08
 15.31125    -83.2 1.389e+04 3.210e-08
 15.32113    -83.3 1.372e+04 2.745e-08
 15.33719    -82.9 1.344e+04 2.269e-08
 15.35695    -82.3 1.316e+04 1.823e-08
 15.36851    -81.5 1.287e+04 1.445e-08
 15.37839    -81.8 1.280e+04 1.480e-08
 15.39647    -81.4 1.240e+04 1.102e-08
 15.42620    -80.5 1.199e+04 8.492e-09
 15.46052    -77.5 1.137e+04 5.872e-09
 15.48028    -77.6 1.127e+04 6.052e-09
 15.50533    -74.9 1.098e+04 4.633e-09
 15.54485    -72.2 1.081e+04 3.821e-09
 15.58437    -69.5 1.075e+04 3.491e-09
 15.62388    -66.8 1.074e+04 3.412e-09
 15.66340    -64.4 1.077e+04 3.424e-09
 15.70292    -62.3 1.094e+04 3.776e-09
 15.74244    -60.6 1.117e+04 4.664e-09
 15.77841    -59.2 1.144e+04 6.321e-09
 15.79817    -60.5 1.151e+04 7.055e-09
 15.80542    -59.2 1.201e+04 1.092e-08
 15.81520    -59.8 1.161e+04 8.393e-09
 15.83115    -59.5 1.175e+04 9.595e-09
 15.85091    -58.6 1.207e+04 1.235e-08
 15.87067    -58.3 1.234e+04 1.413e-08
 15.89043    -57.8 1.258e+04 1.590e-08
 15.91019    -57.4 1.266e+04 1.642e-08
 15.92994    -57.0 1.267e+04 1.568e-08
 15.94705    -56.6 1.246e+04 1.337e-08
 15.95692    -57.2 1.240e+04 1.301e-08
 15.96946    -56.8 1.218e+04 1.079e-08
 15.98922    -56.2 1.204e+04 9.083e-09
 16.00898    -55.6 1.200e+04 8.033e-09
 16.02358    -54.7 1.201e+04 7.579e-09
 16.03346    -56.0 1.280e+04 8.558e-09
 16.04849    -55.2 1.271e+04 9.307e-09
 16.06825    -54.4 1.250e+04 1.090e-08
 16.08801    -53.5 1.242e+04 1.308e-08
 16.10599    -52.5 1.256e+04 1.570e-08
 16.11587    -53.3 1.283e+04 2.080e-08
 16.12753    -52.2 1.333e+04 2.511e-08
 16.14729    -51.3 1.390e+04 2.856e-08
 16.16705    -50.7 1.435e+04 3.081e-08
 16.18680    -50.3 1.454e+04 3.261e-08
 16.20656    -50.2 1.452e+04 3.420e-08
 16.22632    -50.2 1.439e+04 3.711e-08
 16.24193    -49.9 1.441e+04 4.258e-08
 16.25181    -50.8 1.361e+04 2.212e-08
 16.26494    -50.0 1.389e+04 2.459e-08
 16.27482    -50.9 1.376e+04 2.228e-08
 16.28560    -49.9 1.398e+04 2.388e-08
 16.30535    -48.8 1.414e+04 2.513e-08
 16.32511    -47.6 1.438e+04 2.627e-08
 16.34487    -46.7 1.489e+04 2.820e-08
 16.36463    -46.8 1.560e+04 3.231e-08
 16.38439    -47.9 1.629e+04 4.380e-08
 16.40415    -49.0 1.672e+04 7.181e-08
 16.42389    -49.6 1.693e+04 1.099e-07
 16.44365    -51.8 1.637e+04 8.738e-08
 16.46029    -53.6 1.603e+04 4.784e-08
 16.47017    -56.8 1.446e+04 2.093e-08
 16.48318    -60.1 1.317e+04 6.644e-09
 16.50294    -63.1 1.231e+04 3.467e-09
 16.52270    -63.8 1.193e+04 2.716e-09
 16.54245    -64.0 1.184e+04 2.306e-09
 16.56221    -64.0 1.177e+04 1.962e-09
 16.58197    -63.8 1.175e+04 1.776e-09
 16.61171    -63.4 1.161e+04 1.577e-09
 16.65132    -61.7 1.136e+04 1.409e-09
 16.67884    -59.8 1.127e+04 1.357e-09
 16.69860    -59.8 1.127e+04 1.337e-09
 16.73035    -58.0 1.124e+04 1.287e-09
 16.75186    -56.3 1.123e+04 1.244e-09
 16.77162    -55.9 1.130e+04 1.648e-09
 16.80939    -54.5 1.125e+04 1.666e-09
 16.84891    -53.2 1.119e+04 1.692e-09
 16.88842    -51.9 1.128e+04 1.809e-09
 16.91071    -50.9 1.134e+04 1.793e-09
 16.92049    -50.9 1.143e+04 2.011e-09
 16.93762    -50.7 1.149e+04 2.109e-09
 16.95738    -50.3 1.153e+04 2.307e-09
 16.97714    -50.1 1.151e+04 2.512e-09
 16.99690    -49.8 1.155e+04 2.768e-09
 17.01666    -49.5 1.150e+04 2.979e-09
 17.03641    -49.2 1.148e+04 3.201e-09
 17.05617    -48.9 1.152e+04 3.418e-09
 17.06956    -48.5 1.159e+04 3.742e-09
 17.07944    -49.3 1.174e+04 5.632e-09
 17.09569    -48.7 1.176e+04 6.372e-09
 17.11536    -47.9 1.175e+04 7.071e-09
 17.13512    -46.6 1.141e+04 5.890e-09
 17.16494    -45.5 1.128e+04 6.064e-09
 17.20456    -43.2 1.130e+04 6.240e-09
 17.24407    -41.0 1.138e+04 6.622e-09
 17.28359    -38.8 1.145e+04 6.974e-09
 17.32311    -36.6 1.159e+04 7.431e-09
 17.36262    -34.6 1.181e+04 8.268e-09
 17.38765    -32.6 1.203e+04 8.815e-09
 17.40741    -32.4 1.196e+04 9.631e-09
 17.44166    -30.5 1.209e+04 1.025e-08
 17.48117    -28.8 1.210e+04 9.974e-09
 17.52069    -26.9 1.194e+04 7.974e-09
 17.55227    -25.0 1.176e+04 5.371e-09
 17.57203    -25.2 1.214e+04 6.541e-09
 17.59972    -23.7 1.204e+04 4.779e-09
 17.63924    -22.3 1.211e+04 4.334e-09
 17.67876    -20.8 1.252e+04 4.823e-09
 17.70555    -19.1 1.257e+04 6.810e-09
 17.71533    -19.3 1.283e+04 7.369e-09
 17.72796    -19.4 1.295e+04 8.786e-09
 17.74772    -18.9 1.328e+04 1.301e-08
 17.76748    -18.8 1.351e+04 1.969e-08
 17.78031    -18.0 1.380e+04 2.992e-08
 17.79019    -18.8 1.424e+04 3.926e-08
 17.80699    -17.5 1.438e+04 4.633e-08
 17.82675    -16.5 1.416e+04 4.680e-08
 17.84651    -15.0 1.358e+04 3.529e-08
 17.86430    -14.0 1.302e+04 2.400e-08
 17.87418    -15.0 1.290e+04 2.173e-08
 17.88603    -14.5 1.223e+04 1.472e-08
 17.91576    -12.9 1.186e+04 1.147e-08
 17.95538     -9.7 1.086e+04 6.112e-09
 17.98898     -7.1 1.052e+04 3.444e-09
 18.00874     -8.1 1.051e+04 3.705e-09
 18.02345     -5.5 1.015e+04 2.126e-09
 18.04320     -6.3 9.908e+03 1.734e-09
 18.07393     -3.6 9.773e+03 1.490e-09
 18.11344     -0.6 9.660e+03 1.540e-09
 18.15296      2.3 9.576e+03 2.065e-09
 18.19248      5.8 9.425e+03 2.629e-09
 18.23199      9.5 9.271e+03 2.429e-09
 18.27151     13.2 9.082e+03 1.788e-09
 18.31103     16.3 8.974e+03 1.217e-09
 18.34134     19.2 8.876e+03 9.120e-10
 18.36110     19.2 8.897e+03 1.030e-09
 18.39006     22.3 8.726e+03 8.998e-10
 18.42569     25.5 8.650e+03 9.099e-10
 18.44545     24.8 8.538e+03 6.483e-10
 18.46909     28.1 8.486e+03 7.305e-10
 18.50861     31.4 8.454e+03 8.789e-10
 18.54813     34.7 8.450e+03 1.091e-09
 18.58764     38.0 8.493e+03 1.379e-09
 18.62716     41.1 8.576e+03 1.755e-09
 18.65924     44.1 8.694e+03 2.171e-09
 18.67900     44.1 8.755e+03 2.295e-09
 18.70619     46.9 8.892e+03 2.699e-09
 18.74571     49.4 9.014e+03 3.016e-09
 18.78523     51.5 9.068e+03 3.246e-09
 18.81477     52.4 9.035e+03 3.354e-09
 18.82787     53.4 9.067e+03 3.475e-09
 18.83775     54.0 9.090e+03 3.724e-09
 18.85419     55.2 9.240e+03 3.995e-09
 18.87209     55.4 9.410e+03 4.332e-09
 18.88197     54.9 9.786e+03 5.130e-09
 18.89370     54.5 1.038e+04 6.728e-09
 18.91346     53.8 1.116e+04 1.007e-08
 18.93322     53.3 1.188e+04 1.573e-08
 18.95298     53.3 1.233e+04 2.170e-08
 18.97274     53.2 1.225e+04 2.228e-08
 18.98682     52.7 1.236e+04 2.162e-08
 18.99670     55.0 1.223e+04 2.213e-08
 19.01225     53.3 1.301e+04 2.139e-08
 19.03201     43.8 1.928e+04 2.777e-08
 19.04678     32.6 2.272e+04 8.996e-08
 19.05661     28.3 2.044e+04 2.452e-07
 19.06620     27.2 1.880e+04 4.404e-07
 19.07114     28.9 1.948e+04 3.128e-07
 19.07637     28.1 1.850e+04 4.647e-07
 19.08625     28.6 1.809e+04 4.806e-07
 19.09529     29.4 1.821e+04 3.669e-07
 19.10023     29.4 1.852e+04 2.492e-07
 19.10601     27.4 1.932e+04 1.184e-07
 19.11589     22.5 1.857e+04 4.695e-08
 19.12577     16.6 1.426e+04 1.792e-08
 19.13565     13.1 1.136e+04 1.291e-08
 19.14572     11.8 1.045e+04 9.397e-09
 19.15565     14.1 1.168e+04 1.116e-08
 19.17032     11.7 9.806e+03 6.849e-09
 19.19008     11.2 9.598e+03 6.023e-09
 19.20984     11.1 9.579e+03 5.811e-09
 19.22960     10.5 9.741e+03 6.152e-09
 19.24935      9.2 1.014e+04 7.432e-09
 19.26911      7.5 1.076e+04 9.854e-09
 19.28887      6.1 1.121e+04 1.381e-08
 19.30472      5.8 1.173e+04 1.798e-08
 19.31459      6.3 1.158e+04 1.630e-08
 19.31868      5.8 1.179e+04 1.733e-08
 19.32856      5.8 1.178e+04 1.746e-08
 19.34815      4.8 1.215e+04 1.793e-08
 19.36791      3.2 1.240e+04 1.955e-08
 19.38766      2.0 1.264e+04 2.338e-08
 19.40742      1.7 1.303e+04 2.794e-08
 19.42718      2.1 1.337e+04 3.370e-08
 19.44694      3.0 1.357e+04 3.634e-08
 19.46366      3.7 1.370e+04 3.767e-08
 19.47354      3.6 1.314e+04 2.960e-08
 19.48646      4.4 1.325e+04 2.779e-08
 19.50621      5.0 1.342e+04 3.041e-08
 19.52597      6.1 1.344e+04 3.117e-08
 19.53703      7.2 1.363e+04 3.269e-08
 19.54691      7.1 1.385e+04 3.627e-08
 19.56549      8.0 1.412e+04 4.054e-08
 19.58525      9.1 1.426e+04 4.381e-08
 19.60501     10.3 1.444e+04 4.697e-08
 19.62261     11.4 1.449e+04 4.745e-08
 19.63249     12.1 1.326e+04 2.635e-08
 19.64452     13.5 1.327e+04 2.541e-08
 19.66428     14.7 1.346e+04 2.398e-08
 19.68404     14.5 1.420e+04 2.406e-08
 19.70380     13.4 1.501e+04 2.846e-08
 19.72356     11.4 1.576e+04 4.057e-08
 19.73833      9.1 1.627e+04 5.643e-08
 19.74816      8.3 1.654e+04 6.214e-08
 19.75529      5.1 1.758e+04 9.309e-08
 19.76023      5.0 1.776e+04 1.164e-07
 19.76791      2.0 1.843e+04 1.543e-07
 19.77779     -1.0 1.880e+04 2.029e-07
 19.78640     -4.6 1.958e+04 3.234e-07
 19.79134    -10.3 2.124e+04 4.611e-07
 19.79755    -18.3 2.007e+04 1.574e-06
 19.80743    -25.8 1.831e+04 4.318e-06
 19.81731    -32.2 1.773e+04 5.560e-06
 19.82719    -36.1 1.860e+04 2.226e-06
 19.83707    -38.4 2.010e+04 6.203e-07
 19.84695    -40.8 2.073e+04 1.883e-07
 19.86182    -44.0 1.855e+04 5.686e-08
 19.88162    -45.6 1.479e+04 1.847e-08
 19.90138    -48.1 1.067e+04 7.659e-09
 19.92114    -48.4 9.351e+03 5.781e-09
 19.94051    -46.2 9.082e+03 5.135e-09
 19.95039    -46.8 9.111e+03 5.167e-09
 19.96066    -44.6 9.012e+03 4.859e-09
 19.97375    -42.6 8.980e+03 4.694e-09
 19.98363    -43.1 8.895e+03 4.340e-09
 20.01015    -40.9 8.859e+03 4.267e-09
 20.04976    -36.9 8.384e+03 3.369e-09
 20.08928    -33.0 8.254e+03 2.971e-09
 20.12880    -29.3 8.275e+03 2.913e-09
 20.16832    -26.0 8.563e+03 3.225e-09
 20.19230    -23.3 8.922e+03 4.127e-09
 20.21206    -23.5 9.072e+03 4.186e-09
 20.23737    -21.3 9.740e+03 5.837e-09
 20.25703    -21.5 9.839e+03 7.086e-09
 20.26828    -20.4 1.095e+04 1.170e-08
 20.27816    -20.4 1.146e+04 1.519e-08
 20.29655    -20.2 1.213e+04 2.191e-08
 20.31631    -19.1 1.280e+04 2.939e-08
 20.33607    -18.4 1.325e+04 3.263e-08
 20.35582    -18.7 1.344e+04 3.098e-08
 20.37558    -21.0 1.395e+04 3.033e-08
 20.39534    -24.5 1.442e+04 3.516e-08
 20.41046    -26.7 1.459e+04 4.642e-08
 20.42034    -27.3 1.576e+04 9.330e-08
 20.42723    -27.8 1.543e+04 8.999e-08
 20.43711    -27.8 1.601e+04 1.251e-07
 20.45462    -27.7 1.493e+04 8.055e-08
 20.47438    -27.7 1.339e+04 4.347e-08
 20.49413    -29.3 1.173e+04 2.236e-08
 20.51389    -30.6 1.042e+04 1.380e-08
 20.53365    -31.1 9.626e+03 1.004e-08
 20.55341    -30.9 9.156e+03 8.191e-09
 20.57317    -30.2 8.857e+03 7.194e-09
 20.58618    -29.5 8.712e+03 6.696e-09
 20.59606    -29.6 8.561e+03 6.312e-09
 20.61268    -28.8 8.545e+03 6.238e-09
 20.62882    -27.9 8.560e+03 6.350e-09
 20.63869    -28.7 8.308e+03 5.602e-09
 20.65220    -27.9 8.408e+03 6.156e-09
 20.67196    -26.9 8.478e+03 6.729e-09
 20.69172    -25.6 8.610e+03 7.382e-09
 20.71148    -24.5 8.750e+03 7.978e-09
 20.73123    -23.5 8.817e+03 8.302e-09
 20.74513    -22.7 8.860e+03 8.477e-09
 20.75501    -22.6 8.387e+03 6.428e-09
 20.77075    -21.8 8.402e+03 6.363e-09
 20.79051    -21.1 8.435e+03 6.387e-09
 20.81027    -20.6 8.436e+03 6.432e-09
 20.83003    -19.9 8.423e+03 6.434e-09
 20.84717    -19.3 8.446e+03 6.259e-09
 20.85705    -20.0 7.992e+03 4.790e-09
 20.86954    -19.7 7.974e+03 4.620e-09
 20.88930    -19.5 7.945e+03 4.580e-09
 20.90408    -19.5 8.135e+03 4.889e-09
 20.91396    -19.3 7.772e+03 4.401e-09
 20.92882    -19.0 7.985e+03 4.763e-09
 20.94858    -18.4 8.071e+03 5.140e-09
 20.96833    -17.4 8.261e+03 5.621e-09
 20.98809    -16.7 8.528e+03 6.138e-09
 21.00785    -16.0 8.810e+03 6.580e-09
 21.02761    -15.7 9.193e+03 7.556e-09
 21.04737    -15.7 9.259e+03 8.490e-09
 21.06302    -15.3 9.648e+03 1.065e-08
 21.07130    -15.4 9.464e+03 9.859e-09
 21.07541    -14.8 8.620e+03 6.645e-09
 21.08689    -13.8 9.032e+03 8.402e-09
 21.10664    -12.6 9.569e+03 1.042e-08
 21.12640    -11.6 1.005e+04 1.275e-08
 21.14616    -10.3 1.060e+04 1.597e-08
 21.16592     -9.3 1.097e+04 1.780e-08
 21.18568     -7.9 1.122e+04 2.122e-08
 21.20544     -6.3 1.150e+04 2.279e-08
 21.22197     -5.0 1.179e+04 2.327e-08
 21.23185     -5.7 1.121e+04 1.875e-08
 21.24495     -4.2 1.135e+04 1.979e-08
 21.26471     -2.5 1.119e+04 1.826e-08
 21.28388     -1.0 1.101e+04 1.653e-08
 21.29376     -1.4 1.067e+04 1.451e-08
 21.30423     -0.2 1.068e+04 1.378e-08
 21.32399      1.0 1.065e+04 1.319e-08
 21.34374      2.3 1.066e+04 1.249e-08
 21.36350      3.4 1.086e+04 1.253e-08
 21.38092      4.6 1.109e+04 1.243e-08
 21.39080      2.9 9.727e+03 6.620e-09
 21.40302      2.9 9.896e+03 7.111e-09
 21.42278      2.8 1.010e+04 8.622e-09
 21.44254      2.9 1.034e+04 1.096e-08
 21.46229      3.4 1.059e+04 1.313e-08
 21.48205      4.5 1.059e+04 1.402e-08
 21.50181      5.3 1.060e+04 1.359e-08
 21.51212      6.1 1.057e+04 1.235e-08
 21.52200      5.1 1.016e+04 8.437e-09
 21.53987      4.8 1.047e+04 8.337e-09
 21.54975      3.0 1.007e+04 8.024e-09
 21.56109      1.1 1.087e+04 1.003e-08
 21.58085     -1.5 1.217e+04 1.635e-08
 21.60060     -2.5 1.270e+04 2.828e-08
 21.62036     -1.6 1.310e+04 4.071e-08
 21.64012     -0.7 1.354e+04 4.216e-08
 21.65988     -0.7 1.387e+04 3.446e-08
 21.67964     -1.6 1.379e+04 2.215e-08
 21.69882     -4.2 1.266e+04 1.149e-08
 21.70870     -8.3 9.919e+03 5.792e-09
 21.71915    -10.1 9.517e+03 4.887e-09
 21.73048    -11.3 9.542e+03 4.877e-09
 21.74035    -10.3 9.483e+03 4.555e-09
 21.75867    -12.0 9.740e+03 4.944e-09
 21.77843    -14.0 9.993e+03 7.305e-09
 21.79819    -15.4 1.044e+04 1.067e-08
 21.81795    -15.6 1.098e+04 1.597e-08
 21.83770    -15.6 1.153e+04 1.848e-08
 21.85746    -17.2 1.193e+04 1.837e-08
 21.86764    -19.3 1.177e+04 1.696e-08
 21.87752    -18.3 1.206e+04 1.865e-08
 21.89698    -19.5 1.180e+04 1.752e-08
 21.91674    -20.0 1.158e+04 1.566e-08
 21.93650    -20.5 1.142e+04 1.283e-08
 21.94883    -21.2 1.117e+04 1.077e-08
 21.95871    -20.6 1.111e+04 1.058e-08
 21.97601    -21.1 1.100e+04 9.291e-09
 21.99577    -21.4 1.102e+04 8.223e-09
 22.01553    -21.8 1.088e+04 7.241e-09
 22.02659    -21.5 1.091e+04 6.817e-09
 22.03647    -21.1 1.088e+04 6.788e-09
 22.05505    -21.2 1.076e+04 6.220e-09
 22.07480    -21.0 1.070e+04 6.122e-09
 22.10454    -20.7 1.019e+04 4.825e-09
 22.14415    -19.3 9.614e+03 2.871e-09
 22.17586    -17.9 9.217e+03 1.562e-09
 22.19562    -16.1 9.481e+03 2.506e-09
 22.22319    -15.3 9.239e+03 1.780e-09
 22.26271    -13.6 9.228e+03 1.749e-09
 22.30222    -12.0 9.350e+03 2.085e-09
 22.34174    -10.1 9.557e+03 2.452e-09
 22.37586     -8.3 9.709e+03 2.834e-09
 22.39562     -7.7 9.696e+03 2.812e-09
 22.42077     -5.9 9.805e+03 2.983e-09
 22.46029     -4.3 9.907e+03 3.400e-09
 22.49375     -2.6 1.006e+04 3.742e-09
 22.51351     -2.2 1.012e+04 3.033e-09
 22.53932     -0.1 1.005e+04 3.176e-09
 22.57884      2.5 9.995e+03 2.646e-09
 22.61836      4.6 1.012e+04 2.129e-09
 22.65787      6.5 1.021e+04 2.121e-09
 22.69739      8.3 1.032e+04 2.694e-09
 22.73691     10.6 1.044e+04 3.483e-09
 22.77642     13.1 1.049e+04 3.239e-09
 22.81165     15.7 1.046e+04 2.181e-09
 22.82804     15.8 1.049e+04 1.875e-09
 22.83233     16.4 1.074e+04 3.649e-09
 22.85546     18.3 1.073e+04 2.172e-09
 22.89497     19.8 1.069e+04 1.570e-09
 22.93449     21.7 1.061e+04 1.546e-09
 22.97401     23.8 1.061e+04 1.656e-09
 23.01352     26.1 1.066e+04 1.792e-09
 23.05304     28.5 1.074e+04 1.840e-09
 23.09256     30.7 1.084e+04 1.781e-09
 23.12955     33.0 1.093e+04 1.727e-09
 23.14930     33.3 1.092e+04 1.118e-09
 23.17159     35.5 1.099e+04 1.201e-09
 23.21111     37.8 1.106e+04 1.514e-09
 23.24928     40.1 1.115e+04 2.187e-09
 23.26904     39.5 1.120e+04 2.281e-09
 23.29014     41.8 1.136e+04 3.301e-09
 23.32966     43.8 1.152e+04 4.300e-09
 23.36918     45.4 1.153e+04 4.368e-09
 23.40869     46.7 1.147e+04 3.909e-09
 23.44744     47.8 1.137e+04 3.036e-09
 23.46720     48.0 1.133e+04 2.304e-09
 23.48773     48.9 1.130e+04 1.528e-09
 23.52724     49.9 1.109e+04 1.266e-09
 23.56676     51.3 1.099e+04 1.286e-09
 23.60628     52.8 1.083e+04 1.445e-09
 23.64579     54.4 1.080e+04 1.750e-09
 23.68531     56.0 1.089e+04 2.091e-09
 23.70576     57.4 1.094e+04 2.438e-09
 23.72551     55.7 1.077e+04 2.291e-09
 23.76434     57.0 1.067e+04 2.584e-09
 23.78510     58.3 1.060e+04 2.781e-09
 23.80486     59.1 1.050e+04 2.302e-09
 23.84338     60.3 1.042e+04 2.267e-09
 23.88289     61.5 1.029e+04 2.102e-09
 23.92241     62.7 1.026e+04 1.947e-09
 23.96193     64.0 1.030e+04 1.997e-09
 24.00144     65.4 1.034e+04 2.131e-09
 24.04096     66.9 1.038e+04 2.343e-09
 24.08048     68.5 1.048e+04 2.657e-09
 24.10299     69.9 1.067e+04 3.176e-09
 24.12275     71.2 1.067e+04 3.122e-09
 24.14247     72.6 1.090e+04 3.812e-09
 24.16223     72.0 1.117e+04 5.261e-09
 24.19903     73.0 1.134e+04 6.125e-09
 24.23854     74.0 1.146e+04 6.897e-09
 24.27806     75.1 1.163e+04 8.098e-09
 24.31758     76.4 1.166e+04 8.507e-09
 24.35709     77.6 1.160e+04 7.915e-09
 24.39661     78.8 1.147e+04 6.725e-09
 24.42089     80.1 1.130e+04 5.494e-09
 24.44065     81.4 1.186e+04 9.207e-09
 24.47565     82.7 1.162e+04 7.184e-09
 24.51516     84.4 1.139e+04 5.625e-09
 24.55468     86.3 1.145e+04 5.063e-09
 24.57908     87.2 1.149e+04 5.172e-09
 24.58439     87.3 1.138e+04 5.289e-09
 24.58952     87.6 1.139e+04 5.204e-09
 24.60388     88.6 1.144e+04 5.158e-09
 24.62364     89.6 1.147e+04 5.186e-09
 24.64340     90.6 1.149e+04 5.182e-09
 24.66315     91.5 1.149e+04 5.098e-09
 24.68291     92.5 1.145e+04 4.947e-09
 24.70267     93.4 1.138e+04 4.757e-09
 24.72243     94.5 1.136e+04 4.592e-09
 24.73859     95.5 1.136e+04 4.492e-09
 24.74847     95.5 1.121e+04 3.434e-09
 24.76195     96.5 1.119e+04 3.346e-09
 24.78170     97.6 1.121e+04 3.306e-09
 24.79734     98.8 1.126e+04 3.334e-09
 24.80722     99.5 1.126e+04 3.678e-09
 24.82122    100.6 1.148e+04 3.945e-09
 24.84098    101.5 1.170e+04 4.170e-09
 24.86074    102.3 1.197e+04 4.414e-09
 24.88050    102.9 1.226e+04 4.941e-09
 24.89754    103.4 1.277e+04 6.797e-09
 24.90742    103.4 1.205e+04 3.742e-09
 24.92001    103.8 1.230e+04 4.112e-09
 24.93977    104.2 1.235e+04 4.296e-09
 24.95953    104.5 1.239e+04 4.544e-09
 24.97929    105.0 1.245e+04 4.944e-09
 24.99905    105.4 1.244e+04 5.337e-09
 25.01570    105.9 1.238e+04 5.862e-09
 25.02558    106.4 1.240e+04 5.879e-09
 25.03856    106.8 1.219e+04 5.804e-09
 25.05649    107.2 1.203e+04 5.795e-09
 25.07634    107.6 1.189e+04 6.041e-09
 25.10791    108.3 1.161e+04 5.324e-09
 25.14743    109.1 1.128e+04 4.451e-09
 25.18695    110.0 1.103e+04 3.615e-09
 25.22646    111.0 1.096e+04 2.989e-09
 25.26598    112.3 1.099e+04 2.984e-09
 25.30550    113.9 1.117e+04 3.186e-09
 25.34501    115.7 1.163e+04 3.950e-09
 25.37448    116.2 1.179e+04 4.232e-09
 25.39424    116.1 1.165e+04 4.339e-09
 25.41407    116.9 1.189e+04 5.199e-09
 25.43373    117.6 1.209e+04 6.205e-09
 25.45241    118.3 1.234e+04 7.783e-09
 25.46229    118.8 1.226e+04 8.335e-09
 25.47325    119.4 1.262e+04 1.095e-08
 25.49301    119.7 1.308e+04 1.537e-08
 25.51277    119.8 1.371e+04 2.241e-08
 25.53252    119.8 1.433e+04 3.232e-08
 25.54321    119.7 1.488e+04 4.042e-08
 25.55309    119.0 1.422e+04 2.641e-08
 25.57204    118.4 1.426e+04 2.582e-08
 25.59180    117.6 1.420e+04 2.307e-08
 25.61156    116.9 1.404e+04 1.988e-08
 25.63132    116.5 1.403e+04 1.941e-08
 25.65107    115.9 1.418e+04 2.036e-08
 25.67077    115.0 1.475e+04 2.601e-08
 25.69052    112.9 1.553e+04 4.092e-08
 25.70216    111.5 1.633e+04 6.642e-08
 25.71204    111.5 1.547e+04 3.981e-08
 25.73011    109.9 1.590e+04 5.102e-08
 25.74987    107.9 1.589e+04 5.042e-08
 25.76962    106.4 1.554e+04 4.331e-08
 25.78938    105.5 1.485e+04 3.004e-08
 25.80914    104.9 1.415e+04 1.851e-08
 25.82890    104.4 1.360e+04 1.164e-08
 25.84866    104.1 1.308e+04 8.692e-09
 25.86111    104.2 1.234e+04 8.435e-09
 25.87099    104.3 1.224e+04 8.484e-09
 25.88817    105.1 1.219e+04 8.437e-09
 25.89900    106.2 1.218e+04 8.505e-09
 25.90888    106.7 1.207e+04 7.111e-09
 25.92769    107.9 1.205e+04 7.350e-09
 25.94745    109.1 1.207e+04 7.826e-09
 25.96721    110.2 1.214e+04 8.586e-09
 25.98697    111.3 1.224e+04 9.573e-09
 26.00673    112.3 1.232e+04 1.042e-08
 26.02006    113.2 1.238e+04 1.064e-08
 26.02993    113.3 1.236e+04 1.080e-08
 26.04624    114.1 1.244e+04 1.094e-08
 26.06600    114.7 1.252e+04 1.103e-08
 26.08576    114.9 1.260e+04 1.121e-08
 26.10552    114.9 1.266e+04 1.156e-08
 26.11736    114.6 1.275e+04 1.235e-08
 26.12724    115.1 1.305e+04 1.354e-08
 26.14503    114.2 1.328e+04 1.547e-08
 26.16479    112.9 1.351e+04 1.700e-08
 26.17900    111.2 1.362e+04 1.718e-08
 26.18888    110.9 1.399e+04 2.140e-08
 26.20431    109.0 1.389e+04 1.886e-08
 26.22407    107.4 1.377e+04 1.406e-08
 26.24383    105.8 1.376e+04 9.524e-09
 26.26358    104.0 1.389e+04 7.765e-09
 26.28334    101.3 1.422e+04 7.924e-09
 26.30310     97.6 1.546e+04 1.151e-08
 26.31787     94.6 1.633e+04 1.808e-08
 26.32770     92.5 1.678e+04 3.018e-08
 26.33562     90.9 1.717e+04 5.069e-08
 26.34055     89.2 1.776e+04 8.198e-08
 26.34279     87.8 1.833e+04 1.489e-07
 26.34773     87.6 1.811e+04 1.677e-07
 26.35734     86.6 1.846e+04 2.739e-07
 26.36722     85.7 1.860e+04 4.056e-07
 26.37710     84.7 1.863e+04 4.989e-07
 26.38698     83.7 1.860e+04 4.937e-07
 26.39686     82.7 1.847e+04 4.399e-07
 26.40674     81.9 1.830e+04 3.477e-07
 26.41661     80.9 1.809e+04 2.525e-07
 26.42227     79.8 1.790e+04 1.902e-07
 26.42721     80.2 1.737e+04 1.079e-07
 26.44136     78.0 1.733e+04 9.914e-08
 26.46117     75.9 1.664e+04 6.954e-08
 26.48093     74.4 1.614e+04 5.434e-08
 26.49690     73.4 1.594e+04 5.006e-08
 26.50678     74.3 1.431e+04 1.947e-08
 26.52044     73.9 1.437e+04 2.356e-08
 26.54020     74.0 1.447e+04 2.809e-08
 26.55407     74.3 1.429e+04 2.961e-08
 26.56395     74.2 1.511e+04 4.401e-08
 26.57972     74.8 1.471e+04 3.679e-08
 26.59948     75.5 1.416e+04 2.760e-08
 26.61924     76.2 1.356e+04 1.985e-08
 26.63899     76.7 1.294e+04 1.502e-08
 26.65585     77.5 1.250e+04 1.225e-08
 26.66573     78.7 1.254e+04 1.306e-08
 26.67851     79.5 1.220e+04 1.118e-08
 26.69827     80.4 1.202e+04 1.016e-08
 26.71803     81.3 1.182e+04 9.471e-09
 26.73779     82.2 1.155e+04 9.447e-09
 26.75754     82.8 1.174e+04 9.687e-09
 26.77242     82.7 1.270e+04 1.172e-08
 26.78230     81.3 1.436e+04 1.799e-08
 26.79706     80.9 1.579e+04 3.591e-08
 26.81480     80.8 1.713e+04 7.796e-08
 26.82468     82.2 1.545e+04 2.720e-08
 26.83658     81.7 1.687e+04 5.817e-08
 26.85135     81.1 1.757e+04 9.131e-08
 26.86118     80.5 1.828e+04 1.476e-07
 26.87106     80.1 1.877e+04 2.465e-07
 26.88094     79.5 1.901e+04 4.616e-07
 26.88644     78.7 1.902e+04 7.795e-07
 26.89138     77.6 1.893e+04 9.594e-07
 26.89911     76.6 1.890e+04 1.147e-06
 26.90405     77.6 1.895e+04 7.822e-07
 26.91057     77.0 1.889e+04 9.250e-07
 26.92045     76.6 1.884e+04 8.579e-07
 26.93033     76.6 1.874e+04 6.782e-07
 26.94021     76.8 1.867e+04 4.324e-07
 26.95009     76.6 1.866e+04 2.545e-07
 26.95997     75.8 1.851e+04 1.539e-07
 26.96985     74.4 1.814e+04 1.020e-07
 26.97859     73.0 1.761e+04 7.434e-08
 26.98353     74.5 1.841e+04 8.861e-08
 26.98961     72.6 1.767e+04 6.149e-08
 26.99562     70.9 1.682e+04 4.735e-08
 27.00056     68.6 1.513e+04 2.701e-08
 27.00937     67.4 1.474e+04 2.657e-08
 27.01925     66.7 1.446e+04 2.667e-08
 27.02912     66.0 1.444e+04 2.866e-08
 27.03900     65.6 1.444e+04 3.021e-08
 27.05387     65.5 1.460e+04 3.129e-08
 27.07368     65.2 1.421e+04 2.729e-08
 27.09344     65.0 1.349e+04 2.030e-08
 27.11320     65.0 1.298e+04 1.448e-08
 27.13269     65.1 1.273e+04 1.081e-08
 27.14257     66.5 1.297e+04 1.385e-08
 27.15271     66.6 1.281e+04 1.135e-08
 27.17247     66.5 1.261e+04 9.830e-09
 27.19223     66.5 1.249e+04 9.645e-09
 27.20914     66.4 1.245e+04 9.967e-09
 27.21902     65.7 1.245e+04 1.049e-08
 27.23175     65.7 1.243e+04 1.126e-08
 27.25150     65.5 1.256e+04 1.310e-08
 27.27126     65.1 1.278e+04 1.630e-08
 27.29102     64.3 1.314e+04 2.126e-08
 27.30152     63.2 1.362e+04 2.897e-08
 27.31140     64.0 1.353e+04 2.454e-08
 27.33054     62.3 1.408e+04 3.444e-08
 27.35030     60.4 1.456e+04 4.102e-08
 27.37005     58.0 1.463e+04 3.965e-08
 27.38981     55.6 1.446e+04 3.176e-08
 27.40957     52.9 1.388e+04 2.172e-08
 27.42749     50.2 1.310e+04 1.367e-08
 27.43737     52.1 1.328e+04 1.448e-08
 27.44909     49.3 1.242e+04 9.568e-09
 27.46047     46.8 1.202e+04 8.784e-09
 27.47035     46.8 1.202e+04 8.782e-09
 27.48860     44.4 1.211e+04 9.368e-09
 27.50836     41.5 1.252e+04 1.314e-08
 27.52812     39.0 1.312e+04 2.155e-08
 27.54788     36.6 1.391e+04 3.176e-08
 27.56764     33.4 1.473e+04 3.946e-08
 27.58740     29.3 1.495e+04 3.957e-08
 27.60716     25.9 1.444e+04 3.321e-08
 27.61942     23.0 1.369e+04 2.131e-08
 27.62930     22.3 1.335e+04 2.024e-08
 27.64585     18.5 1.273e+04 1.065e-08
 27.65573     19.2 1.335e+04 1.607e-08
 27.66643     14.5 1.278e+04 9.764e-09
 27.68619     10.8 1.176e+04 8.601e-09
 27.70595      9.0 1.141e+04 8.814e-09
 27.72571      8.3 1.137e+04 8.504e-09
 27.74546      6.3 1.207e+04 9.050e-09
 27.76522      0.9 1.374e+04 1.236e-08
 27.77836     -1.1 1.337e+04 2.996e-08
 27.78824     -0.6 1.301e+04 1.951e-08
 27.80474     -1.8 1.340e+04 2.948e-08
 27.82450     -4.4 1.391e+04 2.802e-08
 27.84426     -7.2 1.321e+04 2.678e-08
 27.86401     -8.2 1.237e+04 2.282e-08
 27.87408     -8.2 1.198e+04 1.559e-08
 27.88396     -7.5 1.204e+04 1.703e-08
 27.90353     -8.4 1.174e+04 1.084e-08
 27.92329     -9.8 1.105e+04 7.513e-09
 27.93731    -10.3 1.054e+04 5.982e-09
 27.94719    -10.1 1.057e+04 6.217e-09
 27.96281    -10.1 1.037e+04 5.513e-09
 27.98256     -9.7 1.017e+04 4.864e-09
 28.00232     -9.2 9.977e+03 4.306e-09
 28.03206     -8.6 9.735e+03 3.411e-09
 28.07167     -7.7 9.536e+03 2.676e-09
 28.09264     -6.6 9.377e+03 2.309e-09
 28.11239     -5.3 9.524e+03 2.493e-09
 28.15071     -4.7 9.724e+03 2.782e-09
 28.18025     -4.9 9.653e+03 4.304e-09
 28.19991     -4.6 1.012e+04 5.377e-09
 28.21967     -4.3 1.045e+04 7.598e-09
 28.23942     -4.3 1.090e+04 9.267e-09
 28.25531     -4.1 1.114e+04 1.148e-08
 28.27516     -3.4 1.157e+04 1.421e-08
 28.30877     -3.9 1.157e+04 1.461e-08
 28.34829     -4.5 1.122e+04 1.156e-08
 28.38781     -5.0 1.067e+04 8.887e-09
 28.42732     -5.0 1.031e+04 6.940e-09
 28.46684     -4.5 1.008e+04 5.913e-09
 28.50636     -3.3 9.820e+03 4.607e-09
 28.52925     -2.2 9.745e+03 3.533e-09
 28.53903     -2.3 9.741e+03 3.412e-09
 28.55556     -1.9 9.560e+03 3.198e-09
 28.57320     -0.8 9.603e+03 2.469e-09
 28.59306     -0.5 9.563e+03 2.622e-09
 28.62491      1.3 9.460e+03 2.223e-09
 28.66442      2.9 9.486e+03 2.049e-09
 28.70394      4.3 9.521e+03 2.195e-09
 28.74346      5.8 9.612e+03 2.428e-09
 28.78297      7.1 9.778e+03 2.891e-09
 28.82249      8.5 9.857e+03 3.486e-09
 28.86201     10.1 9.740e+03 3.140e-09
 28.89120     11.3 9.907e+03 2.504e-09
 28.91096     11.1 1.003e+04 3.078e-09
 28.94104     11.8 1.023e+04 2.697e-09
 28.96606     12.3 1.036e+04 2.776e-09
 28.98582     12.4 1.033e+04 2.723e-09
 29.02008     13.4 1.045e+04 2.857e-09
 29.05959     14.7 1.048e+04 2.699e-09
 29.09911     16.6 1.038e+04 2.191e-09
 29.13863     18.2 1.037e+04 1.828e-09
 29.17814     19.9 1.030e+04 1.763e-09
 29.20909     21.6 1.030e+04 1.844e-09
 29.22885     20.9 1.023e+04 1.818e-09
 29.25718     22.8 1.020e+04 1.735e-09
 29.29669     24.8 1.019e+04 1.601e-09
 29.33621     26.8 1.016e+04 1.391e-09
 29.37573     28.7 1.011e+04 1.266e-09
 29.40277     30.6 1.008e+04 1.314e-09
 29.42253     30.7 1.010e+04 1.627e-09
 29.45476     32.5 1.004e+04 1.804e-09
 29.49428     34.6 9.970e+03 2.001e-09
 29.52699     36.8 9.904e+03 2.069e-09
 29.54675     36.8 9.788e+03 1.542e-09
 29.57331     39.0 9.720e+03 1.539e-09
 29.61283     41.3 9.645e+03 1.431e-09
 29.65234     43.4 9.563e+03 1.282e-09
 29.69186     45.6 9.451e+03 1.191e-09
 29.73138     47.8 9.374e+03 1.188e-09
 29.77089     50.2 9.341e+03 1.212e-09
 29.81041     52.5 9.315e+03 1.281e-09
 29.83949     54.7 9.317e+03 1.369e-09
 29.85420     54.8 9.223e+03 1.173e-09
 29.86464     55.3 9.171e+03 1.276e-09
 29.88945     57.5 9.205e+03 1.407e-09
 29.92896     59.4 9.299e+03 1.596e-09
 29.96848     61.3 9.432e+03 1.861e-09
 30.00800     63.0 9.661e+03 2.299e-09
 30.04751     63.6 9.932e+03 2.970e-09
 30.08703     63.5 1.029e+04 4.196e-09
 30.12655     62.7 1.076e+04 6.500e-09
 30.16278     61.5 1.104e+04 8.614e-09
 30.18254     61.0 1.163e+04 1.148e-08
 30.20558     59.1 1.143e+04 1.035e-08
 30.24510     57.2 1.095e+04 7.445e-09
 30.27620     55.7 1.047e+04 5.317e-09
 30.29596     56.6 1.053e+04 4.846e-09
 30.32413     55.4 1.022e+04 4.119e-09
 30.36365     55.0 1.014e+04 3.901e-09
 30.40316     54.3 1.022e+04 3.990e-09
 30.44268     53.5 1.028e+04 4.182e-09
 30.48068     52.3 1.047e+04 4.880e-09
 30.50044     51.8 1.073e+04 5.635e-09
 30.52171     50.3 1.099e+04 6.766e-09
 30.56123     48.9 1.109e+04 7.158e-09
 30.60075     48.3 1.099e+04 6.642e-09
 30.64026     48.5 1.082e+04 5.362e-09
 30.67978     49.1 1.066e+04 3.910e-09
 30.71291     49.9 1.060e+04 2.845e-09
 30.73267     50.7 1.033e+04 2.195e-09
 30.75881     52.1 1.035e+04 2.041e-09
 30.79833     53.7 1.038e+04 2.062e-09
 30.81833     55.3 1.045e+04 2.181e-09
 30.83809     55.1 1.060e+04 3.101e-09
 30.87736     56.7 1.057e+04 3.381e-09
 30.91688     58.4 1.049e+04 3.622e-09
 30.95640     60.2 1.041e+04 3.737e-09
 30.99592     61.9 1.036e+04 3.796e-09
 31.03543     63.7 1.036e+04 3.809e-09
 31.07495     65.4 1.035e+04 3.722e-09
 31.11447     67.1 1.026e+04 3.329e-09
 31.13623     68.8 1.007e+04 2.765e-09
 31.15163     68.7 1.001e+04 2.721e-09
 31.16938     69.8 1.005e+04 2.781e-09
 31.19350     71.6 9.873e+03 2.308e-09
 31.23302     73.5 9.660e+03 1.688e-09
 31.27253     75.3 9.486e+03 1.135e-09
 31.31205     77.1 9.298e+03 7.915e-10
 31.35157     78.9 9.061e+03 6.940e-10
 31.39108     81.0 9.034e+03 6.951e-10
 31.43060     83.2 9.046e+03 7.056e-10
 31.45413     85.3 9.122e+03 7.485e-10
 31.47388     85.4 8.988e+03 8.560e-10
 31.50963     87.5 9.085e+03 9.384e-10
 31.54915     89.4 9.210e+03 1.086e-09
 31.58633     91.3 9.359e+03 1.311e-09
 31.60609     91.4 9.526e+03 1.526e-09
 31.62818     93.2 9.732e+03 1.826e-09
 31.66770     94.8 9.975e+03 2.202e-09
 31.70722     96.1 1.015e+04 2.593e-09
 31.73676     96.5 1.020e+04 2.929e-09
 31.75642     97.1 1.030e+04 3.502e-09
 31.77183     97.7 1.054e+04 4.545e-09
 31.78171     97.6 1.086e+04 6.194e-09
 31.79593     97.9 1.114e+04 7.681e-09
 31.81437     97.8 1.138e+04 9.236e-09
 31.82425     97.7 1.142e+04 9.648e-09
 31.83545     97.7 1.155e+04 1.082e-08
 31.85521     97.4 1.165e+04 1.162e-08
 31.87497     97.2 1.164e+04 1.174e-08
 31.90470     96.7 1.156e+04 1.148e-08
 31.94432     96.3 1.131e+04 1.029e-08
 31.97386     96.3 1.087e+04 7.920e-09
 31.99352     96.3 1.064e+04 6.861e-09
 32.01328     96.5 1.039e+04 5.688e-09
 32.03273     96.7 1.014e+04 4.525e-09
 32.04261     97.0 1.010e+04 4.195e-09
 32.06277     97.4 1.001e+04 3.299e-09
 32.08992     98.2 9.746e+03 2.372e-09
 32.10968     98.3 9.444e+03 2.126e-09
 32.14190     99.2 9.417e+03 1.905e-09
 32.18142    100.2 9.422e+03 1.904e-09
 32.22094    101.3 9.478e+03 1.933e-09
 32.26045    102.6 9.563e+03 1.985e-09
 32.29997    104.1 9.647e+03 2.022e-09
 32.33949    105.6 9.726e+03 2.054e-09
 32.37900    107.1 9.790e+03 2.098e-09
 32.40781    108.6 9.830e+03 2.216e-09
 32.42757    108.5 9.854e+03 2.637e-09
 32.45804    109.9 9.919e+03 3.051e-09
 32.47952    111.0 1.001e+04 3.709e-09
 32.49928    112.5 9.851e+03 2.754e-09
 32.53707    113.8 9.907e+03 3.252e-09
 32.57659    114.9 9.981e+03 3.777e-09
 32.61610    115.8 1.006e+04 4.234e-09
 32.65562    116.6 1.013e+04 4.559e-09
 32.69514    117.4 1.018e+04 4.703e-09
 32.72571    118.2 1.017e+04 4.567e-09
 32.74547    116.8 9.858e+03 3.355e-09
 32.77417    117.9 9.667e+03 2.287e-09
 32.81369    119.0 9.510e+03 1.320e-09
 32.85320    119.9 9.275e+03 6.731e-10
 32.89272    120.8 8.695e+03 4.683e-10
 32.91623    122.0 8.380e+03 4.485e-10
 32.93599    125.0 8.951e+03 5.689e-10
 32.97175    126.2 8.533e+03 5.171e-10
 33.01127    127.8 8.440e+03 5.200e-10
 33.04361    130.0 8.420e+03 5.556e-10
 33.06337    130.5 8.353e+03 5.534e-10
 33.09030    133.2 8.430e+03 6.150e-10
 33.12982    136.0 8.519e+03 6.896e-10
 33.16934    138.8 8.615e+03 7.634e-10
 33.20886    141.5 8.714e+03 8.221e-10
 33.24837    144.2 8.810e+03 8.562e-10
 33.28789    146.8 8.911e+03 8.642e-10
 33.32741    149.4 8.988e+03 8.643e-10
 33.35294    151.9 9.039e+03 8.682e-10
 33.36728    153.1 9.089e+03 8.794e-10
 33.38126    153.2 9.056e+03 8.742e-10
 33.40644    155.7 9.088e+03 8.755e-10
 33.44596    158.1 9.134e+03 8.993e-10
 33.48547    160.6 9.179e+03 9.798e-10
 33.52499    163.0 9.256e+03 1.104e-09
 33.56451    165.3 9.338e+03 1.278e-09
 33.60402    167.6 9.454e+03 1.508e-09
 33.64354    169.6 9.606e+03 1.800e-09
 33.67940    171.5 9.774e+03 2.131e-09
 33.69916    171.5 9.883e+03 2.701e-09
 33.72257    173.1 1.013e+04 3.118e-09
 33.76209    174.5 1.047e+04 3.201e-09
 33.78965    175.9 1.054e+04 3.183e-09
 33.80941    176.3 1.051e+04 3.090e-09
 33.84112    177.9 1.059e+04 2.999e-09
 33.88064    179.6 1.072e+04 2.802e-09
 33.92016    181.6 1.082e+04 2.532e-09
 33.95967    183.6 1.088e+04 2.272e-09
 33.99730    185.7 1.092e+04 2.053e-09
 34.01705    185.2 1.095e+04 1.968e-09
 34.03871    187.2 1.098e+04 1.781e-09
 34.07822    189.3 1.101e+04 1.637e-09
 34.11774    191.4 1.110e+04 1.545e-09
 34.15726    193.5 1.116e+04 1.515e-09
 34.19677    195.6 1.119e+04 1.509e-09
 34.22637    197.7 1.128e+04 1.506e-09
 34.24612    198.5 1.137e+04 1.476e-09
 34.27581    200.5 1.141e+04 1.474e-09
 34.31519    202.4 1.155e+04 1.508e-09
 34.35471    204.3 1.172e+04 1.682e-09
 34.39436    206.3 1.195e+04 1.935e-09
 34.43388    207.8 1.217e+04 2.244e-09
 34.45450    208.2 1.224e+04 2.419e-09
 34.46429    208.3 1.222e+04 2.392e-09
 34.48308    209.0 1.224e+04 2.533e-09
 34.49370    210.2 1.234e+04 2.980e-09
 34.50358    210.5 1.233e+04 2.865e-09
 34.52259    211.6 1.247e+04 3.381e-09
 34.54235    212.4 1.261e+04 4.028e-09
 34.56211    213.0 1.268e+04 4.782e-09
 34.58187    213.4 1.268e+04 5.643e-09
 34.60163    213.9 1.268e+04 6.657e-09
 34.63136    214.3 1.262e+04 7.867e-09
 34.65285    214.5 1.251e+04 9.169e-09
 34.66263    214.4 1.274e+04 1.023e-08
 34.67276    214.3 1.267e+04 1.064e-08
 34.68264    215.1 1.276e+04 1.142e-08
 34.70042    214.7 1.275e+04 1.141e-08
 34.72018    214.3 1.270e+04 1.128e-08
 34.73994    214.0 1.253e+04 1.084e-08
 34.75969    213.8 1.234e+04 1.028e-08
 34.78943    213.6 1.222e+04 9.769e-09
 34.82904    213.5 1.179e+04 7.225e-09
 34.86856    213.8 1.137e+04 4.990e-09
 34.90808    214.2 1.101e+04 3.496e-09
 34.94759    214.8 1.074e+04 2.600e-09
 34.97074    215.6 1.050e+04 2.027e-09
 34.99050    213.9 1.052e+04 2.482e-09
 35.02663    214.8 1.028e+04 1.818e-09
 35.06614    216.0 1.010e+04 1.319e-09
 35.09979    217.2 9.937e+03 9.974e-10
 35.11955    218.4 9.875e+03 1.226e-09
 35.14518    219.8 9.712e+03 1.011e-09
 35.18469    221.3 9.474e+03 9.302e-10
 35.22421    222.9 9.387e+03 9.298e-10
 35.26373    224.7 9.377e+03 9.336e-10
 35.28864    226.5 9.338e+03 9.573e-10
 35.30840    225.5 9.309e+03 1.148e-09
 35.34276    227.3 9.230e+03 1.161e-09
 35.38228    229.3 9.186e+03 1.178e-09
 35.42180    231.3 9.131e+03 1.220e-09
 35.46131    233.5 9.087e+03 1.312e-09
 35.50083    235.6 9.073e+03 1.476e-09
 35.53650    237.8 9.119e+03 1.729e-09
 35.55626    238.7 9.090e+03 1.562e-09
 35.57986    240.9 9.186e+03 1.854e-09
 35.60654    243.1 9.313e+03 2.206e-09
 35.62630    242.2 9.132e+03 2.084e-09
 35.65890    244.3 9.147e+03 2.230e-09
 35.69841    246.2 9.147e+03 2.257e-09
 35.73793    248.1 9.142e+03 2.249e-09
 35.77745    249.9 9.142e+03 2.239e-09
 35.81696    251.6 9.162e+03 2.231e-09
 35.85648    253.3 9.175e+03 2.221e-09
 35.89600    254.8 9.187e+03 2.193e-09
 35.92443    256.4 9.177e+03 2.129e-09
 35.94419    256.4 8.977e+03 1.913e-09
 35.97322    258.1 8.968e+03 1.884e-09
 35.99297    258.8 8.847e+03 1.749e-09
 36.01455    260.6 8.828e+03 1.742e-09
 36.05406    262.6 8.830e+03 1.753e-09
 36.09358    264.7 8.857e+03 1.769e-09
 36.13310    266.9 8.889e+03 1.779e-09
 36.17261    269.1 8.918e+03 1.784e-09
 36.21213    271.3 8.947e+03 1.789e-09
 36.24233    273.4 8.991e+03 1.800e-09
 36.26209    272.8 9.034e+03 1.954e-09
 36.29116    274.7 9.151e+03 2.043e-09
 36.33068    276.5 9.327e+03 2.198e-09
 36.37020    278.1 9.535e+03 2.410e-09
 36.40971    279.2 9.688e+03 2.585e-09
 36.42959    280.5 9.875e+03 3.014e-09
 36.43937    280.6 9.700e+03 2.669e-09
 36.45892    281.6 9.848e+03 3.022e-09
 36.47867    282.6 1.001e+04 3.534e-09
 36.49843    283.5 1.013e+04 4.018e-09
 36.51819    284.2 1.021e+04 4.395e-09
 36.53795    284.8 1.027e+04 4.676e-09
 36.55771    285.4 1.033e+04 4.911e-09
 36.56991    285.9 1.041e+04 5.167e-09
 36.57979    285.0 1.092e+04 8.305e-09
 36.59722    285.5 1.099e+04 8.681e-09
 36.61698    286.0 1.110e+04 9.235e-09
 36.63674    286.5 1.125e+04 1.003e-08
 36.64785    287.0 1.149e+04 1.110e-08
 36.65773    287.3 1.098e+04 9.688e-09
 36.67626    287.7 1.130e+04 1.098e-08
 36.69602    288.1 1.172e+04 1.291e-08
 36.71577    288.1 1.223e+04 1.574e-08
 36.72886    287.8 1.286e+04 1.966e-08
 36.73874    286.0 1.282e+04 1.779e-08
 36.75529    285.0 1.350e+04 2.434e-08
 36.77505    284.0 1.391e+04 2.982e-08
 36.78982    283.6 1.450e+04 3.632e-08
 36.79965    282.9 1.508e+04 4.532e-08
 36.80823    281.8 1.574e+04 5.981e-08
 36.81317    280.9 1.600e+04 7.119e-08
 36.81941    279.8 1.669e+04 1.005e-07
 36.82929    278.6 1.732e+04 1.407e-07
 36.83917    277.5 1.789e+04 1.906e-07
 36.84905    276.4 1.838e+04 2.388e-07
 36.85893    275.1 1.886e+04 2.544e-07
 36.86611    273.7 1.896e+04 2.490e-07
 36.87105    274.2 1.876e+04 2.157e-07
 36.87868    272.6 1.887e+04 2.063e-07
 36.88771    271.1 1.911e+04 1.713e-07
 36.89764    267.8 1.883e+04 6.893e-08
 36.91336    263.9 1.796e+04 3.015e-08
 36.93312    259.1 1.536e+04 1.432e-08
 36.95288    255.4 1.308e+04 1.198e-08
 36.97263    253.8 1.292e+04 1.165e-08
 36.99239    253.2 1.295e+04 1.155e-08
 37.01215    252.7 1.300e+04 1.136e-08
 37.03191    252.0 1.301e+04 1.085e-08
 37.04675    251.3 1.289e+04 1.010e-08
 37.05663    250.8 1.249e+04 8.959e-09
 37.07143    250.1 1.242e+04 8.466e-09
 37.08456    249.4 1.235e+04 8.205e-09
 37.09444    249.7 1.258e+04 9.839e-09
 37.11094    249.0 1.258e+04 9.834e-09
 37.13070    248.2 1.260e+04 9.903e-09
 37.15046    247.1 1.268e+04 1.026e-08
 37.17022    245.7 1.289e+04 1.137e-08
 37.18998    243.9 1.315e+04 1.327e-08
 37.20570    241.7 1.334e+04 1.516e-08
 37.21558    240.4 1.335e+04 1.627e-08
 37.22949    238.0 1.331e+04 1.614e-08
 37.24925    235.7 1.309e+04 1.495e-08
 37.26901    233.8 1.268e+04 1.215e-08
 37.28877    232.2 1.221e+04 8.942e-09
 37.30292    230.7 1.180e+04 6.359e-09
 37.31279    230.6 1.182e+04 6.206e-09
 37.32828    229.2 1.157e+04 4.766e-09
 37.34804    227.9 1.136e+04 3.911e-09
 37.36465    226.8 1.117e+04 3.466e-09
 37.37453    226.3 1.081e+04 3.113e-09
 37.38756    225.8 1.081e+04 3.116e-09
 37.40732    225.4 1.081e+04 3.152e-09
 37.42708    225.0 1.085e+04 3.276e-09
 37.44684    224.6 1.093e+04 3.487e-09
 37.46659    224.1 1.104e+04 3.762e-09
 37.48635    223.5 1.118e+04 4.080e-09
 37.50611    222.8 1.133e+04 4.325e-09
 37.52127    222.0 1.140e+04 4.355e-09
 37.52888    221.6 1.144e+04 4.624e-09
 37.53358    222.5 1.142e+04 4.643e-09
 37.55570    220.7 1.144e+04 4.254e-09
 37.59522    219.1 1.127e+04 3.139e-09
 37.63474    217.7 1.101e+04 2.283e-09
 37.67425    216.5 1.087e+04 2.152e-09
 37.70379    215.9 1.087e+04 2.185e-09
 37.72345    215.8 1.089e+04 2.303e-09
 37.73963    215.5 1.100e+04 2.640e-09
 37.74951    215.3 1.114e+04 2.990e-09
 37.76297    214.8 1.129e+04 3.596e-09
 37.78273    214.2 1.137e+04 4.172e-09
 37.80249    213.5 1.140e+04 4.593e-09
 37.82224    212.8 1.139e+04 4.848e-09
 37.84149    212.1 1.136e+04 5.026e-09
 37.85137    211.9 1.157e+04 5.907e-09
 37.86176    211.3 1.157e+04 6.334e-09
 37.88152    210.8 1.163e+04 6.940e-09
 37.90128    210.2 1.178e+04 7.889e-09
 37.92104    209.6 1.207e+04 9.334e-09
 37.94080    208.8 1.245e+04 1.123e-08
 37.95798    207.7 1.279e+04 1.313e-08
 37.96786    207.9 1.294e+04 1.537e-08
 37.98031    206.6 1.314e+04 1.589e-08
 38.00007    205.1 1.313e+04 1.580e-08
 38.01032    203.6 1.306e+04 1.522e-08
 38.02020    202.7 1.308e+04 1.525e-08
 38.03959    201.5 1.293e+04 1.477e-08
 38.05935    200.2 1.283e+04 1.423e-08
 38.07910    199.2 1.273e+04 1.383e-08
 38.10884    197.6 1.253e+04 1.321e-08
 38.14845    195.2 1.222e+04 1.284e-08
 38.16947    193.3 1.193e+04 1.239e-08
 38.17779    192.8 1.147e+04 7.934e-09
 38.19629    192.1 1.104e+04 7.040e-09
 38.22749    191.9 1.098e+04 7.041e-09
 38.26700    192.0 1.102e+04 7.431e-09
 38.30652    192.3 1.123e+04 8.577e-09
 38.34604    192.7 1.146e+04 9.799e-09
 38.38555    193.0 1.152e+04 1.002e-08
 38.42507    193.2 1.148e+04 9.785e-09
 38.46459    193.6 1.131e+04 8.764e-09
 38.48736    194.1 1.108e+04 7.356e-09
 38.50712    193.6 1.093e+04 6.386e-09
 38.54362    194.6 1.074e+04 5.719e-09
 38.57316    194.8 1.065e+04 5.470e-09
 38.59282    195.3 1.058e+04 5.260e-09
 38.61258    195.8 1.049e+04 5.033e-09
 38.62293    196.5 1.038e+04 4.814e-09
 38.63291    197.3 1.053e+04 5.232e-09
 38.64621    197.8 1.043e+04 5.009e-09
 38.65599    197.8 1.045e+04 4.811e-09
 38.67186    198.4 1.039e+04 4.466e-09
 38.69161    199.2 1.033e+04 4.080e-09
 38.71137    199.9 1.025e+04 3.741e-09
 38.73113    200.8 1.015e+04 3.471e-09
 38.75089    201.5 1.002e+04 3.198e-09
 38.78062    203.2 1.002e+04 3.433e-09
 38.80526    205.0 9.945e+03 3.171e-09
 38.82502    204.3 9.842e+03 2.652e-09
 38.85976    205.5 9.868e+03 2.852e-09
 38.88930    206.2 9.840e+03 2.983e-09
 38.90896    207.5 9.805e+03 3.235e-09
 38.92871    208.8 9.911e+03 3.761e-09
 38.94847    209.7 1.012e+04 4.471e-09
 38.96401    210.3 1.033e+04 5.287e-09
 38.97389    209.9 1.060e+04 6.103e-09
 38.98799    210.2 1.084e+04 7.168e-09
 39.00775    210.3 1.108e+04 8.370e-09
 39.02751    210.4 1.136e+04 9.709e-09
 39.04727    210.5 1.163e+04 1.103e-08
 39.05964    210.5 1.188e+04 1.223e-08
 39.06952    210.9 1.174e+04 1.147e-08
 39.08678    210.9 1.203e+04 1.228e-08
 39.10654    210.9 1.209e+04 1.219e-08
 39.12296    210.9 1.211e+04 1.160e-08
 39.13284    209.5 1.179e+04 8.713e-09
 39.14606    209.5 1.152e+04 7.030e-09
 39.16582    209.5 1.120e+04 5.587e-09
 39.18557    209.5 1.086e+04 4.558e-09
 39.20533    209.6 1.056e+04 3.911e-09
 39.22509    210.0 1.033e+04 3.535e-09
 39.24485    210.6 1.024e+04 3.361e-09
 39.26461    211.6 1.025e+04 3.347e-09
 39.27800    212.7 1.028e+04 3.372e-09
 39.28542    213.1 1.056e+04 4.136e-09
 39.29179    212.4 1.036e+04 3.003e-09
 39.30412    213.4 1.050e+04 3.344e-09
 39.32388    214.4 1.066e+04 3.901e-09
 39.34364    215.4 1.085e+04 4.690e-09
 39.36340    216.5 1.108e+04 5.742e-09
 39.38316    217.6 1.135e+04 7.075e-09
 39.40292    218.6 1.164e+04 8.626e-09
 39.42267    219.5 1.193e+04 1.019e-08
 39.44086    220.3 1.218e+04 1.150e-08
 39.45073    219.2 1.186e+04 1.031e-08
 39.46219    219.8 1.206e+04 1.116e-08
 39.48195    220.3 1.219e+04 1.160e-08
 39.49636    220.7 1.224e+04 1.170e-08
 39.50624    220.4 1.227e+04 1.151e-08
 39.52147    220.7 1.216e+04 1.106e-08
 39.54123    220.8 1.204e+04 1.085e-08
 39.56098    221.0 1.202e+04 1.089e-08
 39.58074    221.2 1.202e+04 1.113e-08
 39.59980    221.3 1.206e+04 1.195e-08
 39.60968    220.9 1.171e+04 9.691e-09
 39.62026    220.9 1.180e+04 1.072e-08
 39.64002    221.0 1.195e+04 1.234e-08
 39.65978    221.1 1.214e+04 1.446e-08
 39.67953    221.3 1.234e+04 1.680e-08
 39.69929    221.5 1.252e+04 1.913e-08
 39.71471    221.6 1.265e+04 2.053e-08
 39.72459    221.8 1.259e+04 2.076e-08
 39.73881    221.9 1.263e+04 2.106e-08
 39.75857    222.0 1.262e+04 2.090e-08
 39.76863    222.1 1.254e+04 2.023e-08
 39.77851    221.7 1.184e+04 1.434e-08
 39.79808    221.7 1.173e+04 1.398e-08
 39.81784    221.7 1.167e+04 1.389e-08
 39.83760    221.7 1.167e+04 1.393e-08
 39.85736    221.6 1.168e+04 1.407e-08
 39.87712    221.6 1.170e+04 1.429e-08
 39.89688    221.6 1.169e+04 1.430e-08
 39.91663    221.7 1.167e+04 1.420e-08
 39.92758    221.7 1.159e+04 1.382e-08
 39.93413    221.9 1.116e+04 1.178e-08
 39.94295    222.3 1.096e+04 1.067e-08
 39.95615    222.5 1.094e+04 1.066e-08
 39.97591    222.7 1.089e+04 1.057e-08
 39.99567    223.0 1.084e+04 1.043e-08
 40.01543    223.4 1.081e+04 1.026e-08
 40.03518    223.8 1.078e+04 1.028e-08
 40.05494    224.3 1.080e+04 1.041e-08
 40.07470    224.9 1.085e+04 1.078e-08
 40.08653    225.5 1.093e+04 1.129e-08
 40.09641    225.8 1.140e+04 1.417e-08
 40.11422    226.5 1.157e+04 1.543e-08
 40.13398    227.2 1.171e+04 1.666e-08
 40.15142    228.0 1.185e+04 1.777e-08
 40.16130    227.9 1.187e+04 1.781e-08
 40.17349    228.7 1.200e+04 1.883e-08
 40.19325    229.5 1.213e+04 1.984e-08
 40.21301    230.3 1.229e+04 2.100e-08
 40.23277    231.0 1.250e+04 2.254e-08
 40.24548    231.6 1.281e+04 2.499e-08
 40.25535    231.7 1.305e+04 2.666e-08
 40.27229    232.0 1.342e+04 2.992e-08
 40.29204    231.9 1.393e+04 3.507e-08
 40.31180    231.8 1.448e+04 4.148e-08
 40.33156    231.5 1.501e+04 4.670e-08
 40.35132    230.9 1.528e+04 4.720e-08
 40.36978    229.6 1.528e+04 4.669e-08
 40.37966    229.0 1.511e+04 4.661e-08
 40.39084    227.5 1.502e+04 4.369e-08
 40.40442    225.8 1.462e+04 3.688e-08
 40.41430    224.5 1.389e+04 2.932e-08
 40.43035    223.2 1.339e+04 2.491e-08
 40.45011    222.1 1.288e+04 2.092e-08
 40.46987    221.1 1.248e+04 1.782e-08
 40.48963    220.2 1.222e+04 1.564e-08
 40.50939    219.5 1.205e+04 1.411e-08
 40.52914    218.9 1.191e+04 1.296e-08
 40.54890    218.5 1.174e+04 1.199e-08
 40.56337    218.3 1.153e+04 1.106e-08
 40.57325    218.4 1.112e+04 8.977e-09
 40.58814    218.4 1.089e+04 8.096e-09
 40.59802    218.6 1.089e+04 7.844e-09
 40.60818    218.6 1.071e+04 7.181e-09
 40.62794    218.6 1.053e+04 6.554e-09
 40.64770    218.7 1.037e+04 5.968e-09
 40.66745    218.9 1.021e+04 5.440e-09
 40.68721    219.3 1.004e+04 4.901e-09
 40.71254    219.9 9.884e+03 4.578e-09
 40.73230    220.5 9.665e+03 3.747e-09
 40.74649    221.0 9.585e+03 3.558e-09
 40.76625    221.8 9.519e+03 3.416e-09
 40.79598    223.0 9.413e+03 3.137e-09
 40.81657    224.5 9.398e+03 3.112e-09
 40.83633    225.0 9.520e+03 3.292e-09
 40.87511    226.8 9.549e+03 3.312e-09
 40.91463    227.9 9.600e+03 3.388e-09
 40.94417    228.5 9.636e+03 3.455e-09
 40.96383    229.6 9.678e+03 3.526e-09
 40.98359    230.6 9.728e+03 3.603e-09
 41.00335    231.4 9.788e+03 3.674e-09
 41.02310    232.2 9.857e+03 3.741e-09
 41.03473    233.0 9.931e+03 3.812e-09
 41.04196    233.4 1.006e+04 4.246e-09
 41.05010    233.7 1.027e+04 4.805e-09
 41.06262    234.5 1.036e+04 5.042e-09
 41.08238    235.4 1.046e+04 5.296e-09
 41.10214    236.2 1.057e+04 5.580e-09
 41.12190    237.0 1.071e+04 5.877e-09
 41.14165    237.8 1.088e+04 6.105e-09
 41.16141    238.6 1.107e+04 6.184e-09
 41.18117    239.2 1.113e+04 6.146e-09
 41.19916    239.6 1.117e+04 6.015e-09
 41.20904    239.3 1.128e+04 6.022e-09
 41.22069    239.6 1.126e+04 5.451e-09
 41.24045    239.9 1.115e+04 4.802e-09
 41.25308    240.1 1.100e+04 4.198e-09
 41.26296    241.0 1.148e+04 5.776e-09
 41.27996    241.2 1.126e+04 4.758e-09
 41.29972    241.5 1.105e+04 3.997e-09
 41.31948    241.9 1.081e+04 3.677e-09
 41.33924    242.5 1.068e+04 3.650e-09
 41.35811    243.3 1.066e+04 3.658e-09
 41.36799    242.6 1.079e+04 4.282e-09
 41.37876    243.2 1.076e+04 4.780e-09
 41.39851    243.5 1.104e+04 5.961e-09
 41.41827    243.2 1.168e+04 8.391e-09
 41.43803    242.9 1.256e+04 1.294e-08
 41.45779    242.4 1.356e+04 2.072e-08
 41.47144    242.0 1.448e+04 3.141e-08
 41.48132    241.9 1.460e+04 3.281e-08
 41.49731    241.4 1.537e+04 4.617e-08
 41.51706    240.5 1.586e+04 5.105e-08
 41.53682    235.9 1.466e+04 3.160e-08
 41.55658    234.3 1.386e+04 2.370e-08
 41.57634    232.8 1.282e+04 1.770e-08
 41.59610    231.5 1.187e+04 1.432e-08
 41.61586    231.1 1.155e+04 1.355e-08
 41.63561    231.0 1.158e+04 1.364e-08
 41.65537    231.1 1.168e+04 1.411e-08
 41.67513    231.3 1.186e+04 1.512e-08
 41.68589    231.4 1.206e+04 1.649e-08
 41.69067    230.8 1.170e+04 1.437e-08
 41.69968    230.9 1.183e+04 1.513e-08
 41.71465    231.3 1.203e+04 1.671e-08
 41.73441    231.7 1.217e+04 1.792e-08
 41.75417    232.3 1.226e+04 1.869e-08
 41.77392    233.0 1.232e+04 1.918e-08
 41.79368    233.9 1.240e+04 1.965e-08
 41.81344    234.9 1.253e+04 2.044e-08
 41.83320    235.9 1.276e+04 2.182e-08
 41.84484    237.1 1.307e+04 2.391e-08
 41.85472    237.0 1.245e+04 1.839e-08
 41.87272    237.9 1.282e+04 2.045e-08
 41.89247    237.9 1.339e+04 2.410e-08
 41.90815    237.7 1.420e+04 3.060e-08
 41.91803    238.0 1.514e+04 4.118e-08
 41.93199    237.7 1.591e+04 5.035e-08
 41.94676    237.0 1.640e+04 5.659e-08
 41.95659    236.6 1.674e+04 6.096e-08
 41.96647    236.0 1.709e+04 6.651e-08
 41.97635    235.4 1.736e+04 7.114e-08
 41.98623    234.6 1.760e+04 7.466e-08
 41.99611    233.4 1.807e+04 7.933e-08
 42.00369    231.9 1.854e+04 8.598e-08
 42.00863    230.2 1.960e+04 1.182e-07
 42.01587    228.5 1.992e+04 1.241e-07
 42.02217    227.0 2.004e+04 1.237e-07
 42.02711    225.8 2.021e+04 1.251e-07
 42.03562    224.3 2.028e+04 1.232e-07
 42.04550    223.1 2.037e+04 1.178e-07
 42.05538    222.5 2.033e+04 1.113e-07
 42.06526    222.4 2.021e+04 1.078e-07
 42.07514    222.6 2.011e+04 1.058e-07
 42.08316    223.2 2.026e+04 1.057e-07
 42.08810    222.1 2.259e+04 1.324e-07
 42.09490    222.9 2.392e+04 1.488e-07
 42.10478    224.2 2.687e+04 1.886e-07
 42.11466    229.0 2.994e+04 3.098e-07
 42.12454    233.4 2.899e+04 7.679e-07
 42.13133    235.2 2.796e+04 1.141e-06
 42.13627    225.5 2.774e+04 1.686e-06
 42.14180    216.5 2.433e+04 6.490e-06
 42.14672    192.9 1.407e+04 5.857e-04
 42.15041    173.7 1.116e+04 8.181e-03
 42.15287    150.3 9.848e+03 4.048e-02
 42.15534    129.0 9.650e+03 6.433e-02
 42.15781    114.3 9.861e+03 5.768e-02
 42.15981    115.4 9.750e+03 2.916e-02
 42.16104    120.6 9.849e+03 2.060e-02
 42.16275    116.4 1.075e+04 1.041e-02
 42.16504    110.6 1.402e+04 6.106e-04
 42.16753    112.1 1.281e+04 1.404e-03
 42.17391    109.3 3.362e+04 1.766e-06
 42.18381    107.6 3.783e+04 3.418e-07
 42.19369    108.2 3.127e+04 2.966e-07
 42.20357    110.1 2.803e+04 2.117e-07
 42.21345    112.9 2.696e+04 1.351e-07
 42.22333    115.0 2.520e+04 1.017e-07
 42.23321    116.4 2.287e+04 9.210e-08
 42.24053    116.6 2.200e+04 8.057e-08
 42.24449    116.4 2.030e+04 7.011e-08
 42.24705    115.1 2.249e+04 7.390e-08
 42.25297    115.3 2.180e+04 6.762e-08
 42.26783    117.0 2.182e+04 6.094e-08
 42.28764    116.9 2.116e+04 5.976e-08
 42.30740    116.3 2.050e+04 6.321e-08
 42.32168    115.7 1.985e+04 7.301e-08
 42.33156    111.1 1.994e+04 1.039e-07
 42.34486    110.9 1.891e+04 9.645e-08
 42.35474    113.4 1.963e+04 1.147e-07
 42.36668    113.1 1.903e+04 1.024e-07
 42.38145    113.5 1.883e+04 9.027e-08
 42.39128    113.8 1.860e+04 8.013e-08
 42.40106    113.7 1.800e+04 6.655e-08
 42.40600    112.4 1.747e+04 5.834e-08
 42.41103    112.3 1.681e+04 4.498e-08
 42.42091    112.1 1.628e+04 3.469e-08
 42.43079    111.9 1.603e+04 3.124e-08
 42.44566    112.4 1.603e+04 2.743e-08
 42.46547    110.8 1.577e+04 2.287e-08
 42.48063    108.0 1.562e+04 2.263e-08
 42.49051    104.3 1.354e+04 1.731e-08
 42.50498    102.0 1.363e+04 1.853e-08
 42.52474     99.4 1.400e+04 2.120e-08
 42.54450     96.1 1.443e+04 2.251e-08
 42.56322     91.7 1.452e+04 2.106e-08
 42.57310     92.3 1.474e+04 2.150e-08
 42.57903     88.5 1.474e+04 1.819e-08
 42.58886     86.7 1.477e+04 1.755e-08
 42.59874     82.6 1.570e+04 1.814e-08
 42.60862     72.9 2.032e+04 2.666e-08
 42.61850     59.3 2.441e+04 8.741e-08
 42.62838     47.8 2.371e+04 2.709e-07
 42.63826     40.3 2.248e+04 4.313e-07
 42.64442     35.3 2.223e+04 4.224e-07
 42.64936     40.2 2.227e+04 4.356e-07
 42.65801     36.0 2.212e+04 4.117e-07
 42.66789     32.7 2.274e+04 2.642e-07
 42.67724     28.7 2.614e+04 1.017e-07
 42.68218     26.3 2.690e+04 7.630e-08
 42.68765     15.9 2.952e+04 3.342e-08
 42.70252      3.3 2.542e+04 3.879e-08
 42.72233    -16.0 1.961e+04 6.798e-08
 42.73710    -24.8 2.042e+04 1.302e-07
 42.74693    -30.3 2.157e+04 1.990e-07
 42.75681    -37.6 2.191e+04 2.913e-07
 42.76669    -46.1 2.185e+04 3.086e-07
 42.77656    -54.3 2.123e+04 2.591e-07
 42.78642    -61.0 2.005e+04 1.798e-07
 42.79630    -67.1 1.889e+04 1.338e-07
 42.80337    -70.2 1.774e+04 9.178e-08
 42.80831    -69.4 1.784e+04 8.707e-08
 42.81608    -72.0 1.668e+04 5.967e-08
 42.82596    -73.6 1.602e+04 4.448e-08
 42.83584    -76.3 1.486e+04 3.074e-08
 42.84572    -77.9 1.422e+04 2.491e-08
 42.86059    -80.6 1.306e+04 1.863e-08
 42.88039    -82.2 1.189e+04 1.385e-08
 42.90015    -82.4 1.154e+04 1.260e-08
 42.91991    -82.0 1.129e+04 1.167e-08
 42.93967    -80.9 1.104e+04 1.077e-08
 42.95747    -80.0 1.085e+04 9.892e-09
 42.96735    -80.2 1.088e+04 1.006e-08
 42.97919    -79.4 1.066e+04 9.143e-09
 42.99894    -78.7 1.056e+04 8.699e-09
 43.00981    -78.0 1.055e+04 8.592e-09
 43.01969    -76.6 1.072e+04 9.515e-09
 43.03846    -75.6 1.118e+04 1.054e-08
 43.05822    -75.0 1.155e+04 1.147e-08
 43.08795    -76.4 1.152e+04 1.107e-08
 43.12757    -76.7 1.110e+04 9.282e-09
 43.16709    -76.4 1.017e+04 6.343e-09
 43.20660    -74.6 9.335e+03 4.286e-09
 43.24612    -72.0 8.889e+03 3.164e-09
 43.27557    -69.5 8.738e+03 2.704e-09
 43.29532    -70.1 8.663e+03 2.628e-09
 43.32515    -67.5 8.666e+03 2.570e-09
 43.36467    -64.8 8.725e+03 2.596e-09
 43.40419    -62.2 8.775e+03 2.618e-09
 43.43684    -59.9 8.806e+03 2.611e-09
 43.45660    -57.9 8.771e+03 2.354e-09
 43.48322    -55.9 9.046e+03 2.585e-09
 43.52274    -54.1 9.400e+03 3.103e-09
 43.56225    -52.4 9.674e+03 3.881e-09
 43.59346    -50.6 9.938e+03 4.759e-09
 43.61322    -50.7 9.828e+03 4.574e-09
 43.63131    -50.1 9.877e+03 4.831e-09
 43.65097    -47.0 9.965e+03 4.880e-09
 43.66488    -46.1 9.886e+03 4.521e-09
 43.67476    -45.1 9.946e+03 4.828e-09
 43.69049    -43.7 9.975e+03 4.716e-09
 43.71025    -42.7 1.005e+04 4.595e-09
 43.73000    -42.2 1.020e+04 4.609e-09
 43.74976    -42.3 1.054e+04 4.957e-09
 43.76209    -43.0 1.096e+04 6.481e-09
 43.77197    -43.4 1.094e+04 6.955e-09
 43.78928    -43.5 1.163e+04 1.085e-08
 43.80904    -43.2 1.251e+04 1.623e-08
 43.82880    -43.1 1.330e+04 2.166e-08
 43.84855    -43.5 1.369e+04 2.419e-08
 43.86831    -44.6 1.373e+04 2.367e-08
 43.88324    -45.8 1.310e+04 1.754e-08
 43.89312    -45.9 1.322e+04 1.788e-08
 43.90783    -47.5 1.236e+04 1.280e-08
 43.92104    -48.5 1.168e+04 9.386e-09
 43.93092    -49.9 1.168e+04 9.311e-09
 43.94735    -50.3 1.113e+04 6.811e-09
 43.96711    -50.3 1.079e+04 5.270e-09
 43.98686    -50.0 1.050e+04 4.235e-09
 44.00662    -49.6 1.025e+04 3.583e-09
 44.02638    -49.1 1.006e+04 3.188e-09
 44.04614    -48.5 9.961e+03 2.994e-09
 44.06590    -47.9 9.922e+03 2.943e-09
 44.07999    -47.6 9.962e+03 3.000e-09
 44.08987    -48.2 9.870e+03 2.700e-09
 44.10159    -48.0 9.964e+03 2.991e-09
 44.11147    -48.1 9.864e+03 2.400e-09
 44.12517    -47.9 9.913e+03 2.968e-09
 44.14493    -46.9 1.008e+04 3.938e-09
 44.16469    -45.7 1.031e+04 4.799e-09
 44.18445    -44.6 1.052e+04 5.333e-09
 44.20421    -43.8 1.057e+04 5.560e-09
 44.22396    -43.2 1.054e+04 5.558e-09
 44.23894    -42.6 1.053e+04 5.532e-09
 44.24882    -43.0 1.044e+04 5.464e-09
 44.26348    -42.2 1.050e+04 5.636e-09
 44.28324    -41.4 1.050e+04 5.776e-09
 44.30300    -40.5 1.050e+04 5.898e-09
 44.31995    -39.4 1.053e+04 6.004e-09
 44.32983    -39.3 1.063e+04 6.461e-09
 44.34251    -38.3 1.056e+04 6.315e-09
 44.36227    -37.4 1.051e+04 6.156e-09
 44.38203    -36.4 1.052e+04 6.120e-09
 44.39789    -35.6 1.057e+04 6.211e-09
 44.40777    -36.2 1.059e+04 6.202e-09
 44.42155    -35.4 1.079e+04 6.831e-09
 44.44131    -34.7 1.106e+04 7.864e-09
 44.46107    -33.9 1.141e+04 9.243e-09
 44.48082    -32.8 1.190e+04 1.097e-08
 44.50058    -31.8 1.233e+04 1.287e-08
 44.52034    -30.5 1.262e+04 1.479e-08
 44.53831    -28.9 1.280e+04 1.593e-08
 44.54818    -29.7 1.302e+04 1.744e-08
 44.55683    -28.3 1.304e+04 1.683e-08
 44.56671    -28.6 1.237e+04 1.358e-08
 44.57962    -27.3 1.237e+04 1.260e-08
 44.59937    -26.0 1.245e+04 1.216e-08
 44.61913    -24.9 1.249e+04 1.197e-08
 44.63889    -23.6 1.262e+04 1.219e-08
 44.65865    -22.2 1.286e+04 1.272e-08
 44.67841    -20.7 1.308e+04 1.303e-08
 44.69817    -19.4 1.310e+04 1.263e-08
 44.71578    -18.0 1.322e+04 1.293e-08
 44.72566    -19.5 1.266e+04 1.061e-08
 44.73768    -18.3 1.280e+04 1.108e-08
 44.75666    -16.8 1.281e+04 1.136e-08
 44.76654    -16.4 1.295e+04 1.240e-08
 44.77720    -14.3 1.312e+04 1.294e-08
 44.79696    -11.8 1.339e+04 1.349e-08
 44.81672     -9.5 1.381e+04 1.402e-08
 44.83647     -7.9 1.437e+04 1.628e-08
 44.85623     -8.0 1.764e+04 2.269e-08
 44.87073    -12.5 1.899e+04 2.862e-08
 44.87562    -11.7 1.909e+04 2.816e-08
 44.87957    -11.8 1.889e+04 2.811e-08
 44.88456    -15.5 1.714e+04 2.305e-08
 44.89076    -28.6 3.826e+04 2.116e-08
 44.90059    -72.9 7.543e+04 1.522e-08
 44.91047   -101.7 2.198e+04 7.064e-06
 44.91786   -115.9 1.360e+04 3.101e-04
 44.92173   -125.6 1.174e+04 1.643e-03
 44.92420   -126.7 1.215e+04 1.394e-03
 44.92769   -135.5 1.176e+04 1.649e-03
 44.93263   -133.2 1.461e+04 1.053e-04
 44.93759   -133.9 1.531e+04 6.731e-05
 44.94253   -137.5 1.569e+04 4.806e-05
 44.94747   -143.7 1.650e+04 3.339e-05
 44.95241   -150.4 1.952e+04 1.215e-05
 44.95902   -159.1 2.721e+04 1.482e-06
 44.96396   -156.3 2.050e+04 6.509e-06
 44.96972   -160.8 2.382e+04 2.988e-06
 44.97963   -173.6 2.918e+04 5.263e-07
 44.98480   -180.0 2.238e+04 3.409e-07
 44.98974   -180.1 2.343e+04 4.005e-07
 44.99938   -181.2 2.146e+04 3.981e-07
 45.00926   -181.3 2.141e+04 4.185e-07
 45.01914   -181.3 2.152e+04 4.247e-07
 45.02902   -180.5 2.163e+04 4.222e-07
 45.03852   -179.4 2.176e+04 4.180e-07
 45.04346   -181.3 2.177e+04 4.512e-07
 45.04878   -180.4 2.192e+04 4.410e-07
 45.05866   -179.8 2.225e+04 4.345e-07
 45.06854   -180.0 2.304e+04 4.417e-07
 45.07842   -183.9 2.625e+04 5.011e-07
 45.08830   -190.0 2.056e+04 3.570e-06
 45.09395   -192.8 1.899e+04 5.366e-06
 45.09640   -196.1 2.016e+04 2.884e-06
 45.10060   -198.5 1.985e+04 3.752e-06
 45.10554   -202.2 1.958e+04 4.510e-06
 45.11048   -205.3 1.956e+04 4.812e-06
 45.11542   -210.7 1.959e+04 4.778e-06
 45.12036   -216.2 2.095e+04 2.760e-06
 45.12289   -220.4 2.289e+04 1.480e-06
 45.12785   -216.8 2.360e+04 9.244e-07
 45.13769   -222.3 2.323e+04 7.596e-07
 45.14757   -227.2 2.363e+04 4.509e-07
 45.15745   -230.7 2.345e+04 2.467e-07
 45.16733   -232.8 2.183e+04 1.411e-07
 45.17721   -233.5 1.994e+04 9.264e-08
 45.18709   -233.3 1.866e+04 6.643e-08
 45.19697   -232.9 1.783e+04 4.889e-08
 45.20241   -232.1 1.714e+04 3.759e-08
 45.20366   -230.3 1.748e+04 5.826e-08
 45.20809   -229.2 1.686e+04 5.184e-08
 45.21673   -228.4 1.633e+04 4.344e-08
 45.22661   -227.5 1.593e+04 3.847e-08
 45.23648   -226.4 1.574e+04 3.609e-08
 45.25135   -225.5 1.565e+04 3.439e-08
 45.27116   -224.6 1.524e+04 2.904e-08
 45.29092   -224.3 1.525e+04 2.758e-08
 45.31068   -227.9 1.674e+04 2.941e-08
 45.33043   -234.6 1.981e+04 6.218e-08
 45.34520   -240.5 2.063e+04 1.254e-07
 45.35503   -244.7 2.086e+04 1.743e-07
 45.36136   -249.4 2.095e+04 2.263e-07
 45.36630   -248.1 2.099e+04 2.594e-07
 45.37479   -253.3 2.104e+04 2.821e-07
 45.38467   -259.2 2.102e+04 2.833e-07
 45.39455   -264.9 2.081e+04 2.658e-07
 45.40443   -270.3 2.058e+04 2.296e-07
 45.41431   -275.0 2.039e+04 1.987e-07
 45.42151   -278.9 2.025e+04 1.757e-07
 45.42645   -277.2 2.010e+04 1.658e-07
 45.43407   -280.3 1.999e+04 1.554e-07
 45.44083   -282.8 1.985e+04 1.437e-07
 45.44577   -282.0 2.005e+04 1.479e-07
 45.45383   -284.2 1.997e+04 1.358e-07
 45.46371   -286.1 1.982e+04 1.219e-07
 45.47359   -287.5 1.964e+04 1.080e-07
 45.48845   -289.5 1.931e+04 9.041e-08
 45.50826   -292.4 1.814e+04 6.019e-08
 45.52040   -293.9 1.688e+04 4.023e-08
 45.53028   -290.5 1.832e+04 6.368e-08
 45.54778   -291.6 1.754e+04 4.560e-08
 45.56754   -292.5 1.630e+04 3.237e-08
 45.58729   -292.8 1.494e+04 2.485e-08
 45.60705   -292.5 1.385e+04 2.089e-08
 45.62681   -292.1 1.312e+04 1.831e-08
 45.63997   -291.2 1.265e+04 1.587e-08
 45.64984   -291.0 1.288e+04 1.640e-08
 45.66633   -289.9 1.228e+04 1.288e-08
 45.67935   -288.8 1.188e+04 1.005e-08
 45.68923   -287.9 1.191e+04 1.064e-08
 45.70584   -286.6 1.142e+04 8.321e-09
 45.72560   -285.2 1.115e+04 6.579e-09
 45.74536   -283.9 1.091e+04 5.304e-09
 45.76512   -282.6 1.076e+04 4.430e-09
 45.78488   -281.3 1.065e+04 3.899e-09
 45.80464   -280.0 1.058e+04 3.636e-09
 45.82439   -278.6 1.054e+04 3.558e-09
 45.83830   -277.2 1.053e+04 3.558e-09
 45.84818   -275.9 1.064e+04 3.191e-09
 45.85832   -274.6 1.065e+04 3.174e-09
 45.86820   -274.0 1.051e+04 2.388e-09
 45.88367   -272.6 1.051e+04 2.379e-09
 45.90343   -271.3 1.048e+04 2.495e-09
 45.92319   -270.1 1.041e+04 2.774e-09
 45.94294   -269.0 1.035e+04 3.099e-09
 45.96270   -268.0 1.031e+04 3.411e-09
 45.98246   -266.9 1.028e+04 3.657e-09
 45.99725   -265.6 1.025e+04 3.803e-09
 46.00713   -264.5 1.066e+04 2.636e-09
 46.02198   -263.5 1.056e+04 2.822e-09
 46.04174   -263.1 1.039e+04 3.271e-09
 46.06150   -262.9 1.049e+04 4.380e-09
 46.07668   -262.9 1.104e+04 6.754e-09
 46.08656   -262.5 1.060e+04 5.212e-09
 46.10101   -262.6 1.156e+04 9.742e-09
 46.12077   -262.5 1.273e+04 1.701e-08
 46.14053   -262.3 1.381e+04 2.682e-08
 46.15620   -262.6 1.460e+04 3.577e-08
 46.16607   -262.5 1.449e+04 3.659e-08
 46.18005   -263.9 1.498e+04 4.446e-08
 46.19980   -265.6 1.505e+04 4.615e-08
 46.21956   -267.0 1.492e+04 4.515e-08
 46.23932   -268.2 1.439e+04 3.774e-08
 46.25908   -269.1 1.380e+04 2.921e-08
 46.27884   -270.1 1.327e+04 2.303e-08
 46.29503   -271.0 1.283e+04 1.913e-08
 46.30491   -272.0 1.274e+04 1.888e-08
 46.31514   -272.9 1.241e+04 1.654e-08
 46.32502   -271.8 1.265e+04 1.966e-08
 46.33811   -272.6 1.228e+04 1.672e-08
 46.35787   -273.1 1.201e+04 1.495e-08
 46.37763   -273.4 1.181e+04 1.373e-08
 46.39739   -273.4 1.161e+04 1.263e-08
 46.41715   -273.3 1.138e+04 1.144e-08
 46.43690   -273.2 1.110e+04 1.009e-08
 46.45666   -272.7 1.078e+04 8.699e-09
 46.47409   -272.0 1.046e+04 7.385e-09
 46.48397   -270.7 1.067e+04 8.320e-09
 46.49618   -270.0 1.036e+04 7.008e-09
 46.51339   -269.1 1.006e+04 5.826e-09
 46.52327   -269.2 9.781e+03 4.948e-09
 46.53570   -268.0 9.580e+03 4.063e-09
 46.55545   -266.6 9.454e+03 3.345e-09
 46.57521   -265.0 9.414e+03 2.840e-09
 46.60495   -262.9 9.458e+03 2.505e-09
 46.64456   -262.1 9.510e+03 2.310e-09
 46.68408   -260.5 9.449e+03 2.053e-09
 46.72360   -258.7 9.382e+03 1.840e-09
 46.76311   -256.8 9.337e+03 1.681e-09
 46.79218   -254.9 9.315e+03 1.598e-09
 46.81194   -253.3 9.478e+03 1.814e-09
 46.84215   -251.5 9.476e+03 1.779e-09
 46.88166   -249.8 9.507e+03 1.787e-09
 46.92118   -248.3 9.779e+03 2.115e-09
 46.95030   -246.8 1.004e+04 2.886e-09
 46.97006   -246.7 9.784e+03 2.391e-09
 47.00021   -245.2 9.936e+03 3.040e-09
 47.03973   -243.9 9.947e+03 3.563e-09
 47.07925   -242.6 9.907e+03 3.731e-09
 47.11008   -241.0 9.820e+03 3.756e-09
 47.12984   -240.1 9.479e+03 3.292e-09
 47.15828   -237.9 9.219e+03 3.065e-09
 47.19780   -235.7 9.038e+03 2.883e-09
 47.23731   -233.5 8.902e+03 2.772e-09
 47.27683   -231.3 8.779e+03 2.688e-09
 47.31635   -229.1 8.646e+03 2.571e-09
 47.35587   -226.8 8.480e+03 2.385e-09
 47.38701   -224.4 8.290e+03 2.168e-09
 47.40677   -224.3 8.278e+03 2.083e-09
 47.42798   -221.8 8.119e+03 1.846e-09
 47.44773   -220.6 8.137e+03 1.962e-09
 47.47442   -218.1 8.065e+03 1.866e-09
 47.51393   -215.5 8.022e+03 1.780e-09
 47.55345   -213.1 8.001e+03 1.726e-09
 47.59297   -210.8 7.997e+03 1.713e-09
 47.63248   -208.7 8.016e+03 1.729e-09
 47.67200   -206.8 8.130e+03 1.884e-09
 47.71152   -205.2 8.347e+03 2.208e-09
 47.74587   -204.0 8.703e+03 2.874e-09
 47.76563   -203.2 9.357e+03 4.992e-09
 47.79055   -202.3 9.744e+03 6.221e-09
 47.82372   -201.5 1.008e+04 7.308e-09
 47.84348   -201.6 9.917e+03 5.883e-09
 47.86958   -201.1 1.014e+04 6.630e-09
 47.90910   -200.6 1.020e+04 6.829e-09
 47.94862   -200.1 1.020e+04 6.815e-09
 47.98813   -199.5 1.007e+04 5.914e-09
 48.02765   -199.1 9.843e+03 4.623e-09
 48.06377   -199.0 9.623e+03 3.586e-09
 48.08353   -198.0 9.686e+03 3.957e-09
 48.10668   -198.0 9.647e+03 3.519e-09
 48.14620   -198.8 9.667e+03 3.454e-09
 48.18572   -200.5 1.007e+04 3.789e-09
 48.22523   -203.0 1.083e+04 5.772e-09
 48.26043   -206.0 1.130e+04 8.809e-09
 48.28019   -205.0 1.077e+04 6.050e-09
 48.30427   -208.3 1.084e+04 7.444e-09
 48.34378   -211.7 1.081e+04 7.719e-09
 48.38167   -214.8 1.065e+04 7.678e-09
 48.40142   -214.4 1.058e+04 7.690e-09
 48.42282   -216.8 1.024e+04 6.802e-09
 48.45236   -218.4 1.032e+04 7.063e-09
 48.47202   -219.4 1.041e+04 7.180e-09
 48.48847   -220.8 1.055e+04 7.675e-09
 48.49835   -220.7 1.056e+04 7.418e-09
 48.51154   -221.7 1.061e+04 8.008e-09
 48.53129   -223.1 1.070e+04 9.044e-09
 48.55030   -224.6 1.094e+04 1.074e-08
 48.56018   -223.8 1.034e+04 8.104e-09
 48.57081   -225.2 1.070e+04 9.579e-09
 48.59057   -226.6 1.121e+04 1.192e-08
 48.61033   -228.0 1.173e+04 1.497e-08
 48.63009   -229.3 1.212e+04 1.786e-08
 48.64984   -230.5 1.227e+04 1.932e-08
 48.66960   -231.7 1.229e+04 1.958e-08
 48.68936   -232.6 1.216e+04 1.907e-08
 48.70683   -233.0 1.173e+04 1.641e-08
 48.71671   -232.8 1.169e+04 1.574e-08
 48.71912   -233.1 1.116e+04 1.255e-08
 48.72900   -232.8 1.024e+04 7.858e-09
 48.74864   -232.9 9.989e+03 6.918e-09
 48.76840   -232.9 9.869e+03 6.482e-09
 48.78815   -232.8 9.841e+03 6.378e-09
 48.80791   -232.4 9.837e+03 6.371e-09
 48.82767   -232.0 9.901e+03 6.532e-09
 48.84743   -231.7 1.013e+04 7.205e-09
 48.86719   -231.4 1.042e+04 8.174e-09
 48.87807   -231.1 1.075e+04 9.406e-09
 48.88795   -231.5 1.014e+04 6.062e-09
 48.90670   -231.6 1.052e+04 7.377e-09
 48.92519   -232.0 1.098e+04 9.427e-09
 48.93507   -232.2 1.084e+04 8.826e-09
 48.94622   -232.6 1.132e+04 1.124e-08
 48.96598   -233.1 1.178e+04 1.403e-08
 48.98574   -233.8 1.214e+04 1.652e-08
 49.00550   -234.8 1.233e+04 1.773e-08
 49.02525   -236.0 1.236e+04 1.792e-08
 49.03702   -237.4 1.225e+04 1.708e-08
 49.04690   -238.4 1.174e+04 1.423e-08
 49.06477   -239.6 1.149e+04 1.296e-08
 49.08453   -240.5 1.127e+04 1.194e-08
 49.10429   -241.1 1.122e+04 1.160e-08
 49.12405   -242.0 1.122e+04 1.158e-08
 49.14354   -243.4 1.136e+04 1.179e-08
 49.15342   -244.7 1.121e+04 1.007e-08
 49.16356   -247.1 1.206e+04 1.185e-08
 49.18332   -249.8 1.312e+04 1.704e-08
 49.19597   -252.8 1.394e+04 2.504e-08
 49.20585   -253.8 1.488e+04 3.577e-08
 49.22284   -257.4 1.515e+04 4.407e-08
 49.24260   -260.8 1.516e+04 4.596e-08
 49.26235   -263.5 1.485e+04 4.478e-08
 49.28211   -265.2 1.410e+04 3.554e-08
 49.30187   -266.2 1.329e+04 2.515e-08
 49.32163   -266.7 1.260e+04 1.809e-08
 49.34139   -266.9 1.215e+04 1.434e-08
 49.35492   -266.9 1.188e+04 1.248e-08
 49.36480   -267.5 1.162e+04 1.062e-08
 49.37178   -267.0 1.145e+04 9.932e-09
 49.38166   -266.7 1.151e+04 1.042e-08
 49.40066   -265.9 1.143e+04 1.023e-08
 49.42042   -265.2 1.141e+04 1.018e-08
 49.44018   -264.5 1.140e+04 1.015e-08
 49.45994   -263.9 1.140e+04 1.010e-08
 49.47970   -263.4 1.140e+04 9.968e-09
 49.49946   -262.9 1.137e+04 9.718e-09
 49.51387   -262.5 1.132e+04 9.281e-09
 49.52374   -262.6 1.090e+04 7.324e-09
 49.53897   -262.0 1.079e+04 6.730e-09
 49.55873   -261.4 1.065e+04 6.064e-09
 49.57849   -260.8 1.050e+04 5.342e-09
 49.59013   -260.0 1.034e+04 4.604e-09
 49.60001   -260.0 1.040e+04 4.518e-09
 49.61801   -259.1 1.026e+04 3.692e-09
 49.63776   -258.3 1.018e+04 3.089e-09
 49.65752   -257.5 1.015e+04 2.780e-09
 49.67291   -257.0 1.011e+04 2.594e-09
 49.69277   -256.7 9.709e+03 1.926e-09
 49.72687   -254.7 9.536e+03 1.548e-09
 49.76639   -252.5 9.402e+03 1.241e-09
 49.80591   -250.0 9.356e+03 1.057e-09
 49.84542   -247.5 9.382e+03 9.988e-10
 49.88494   -244.9 9.394e+03 9.895e-10
 49.92446   -242.3 9.403e+03 9.907e-10
 49.96397   -239.9 9.472e+03 1.001e-09
 49.99091   -237.8 9.903e+03 1.120e-09
 50.01066   -238.0 9.865e+03 1.144e-09
 50.02704   -236.4 1.012e+04 1.749e-09
 50.04680   -236.9 1.011e+04 1.823e-09
 50.08252   -235.6 1.042e+04 2.914e-09
 50.12204   -234.5 1.077e+04 4.214e-09
 50.16156   -233.6 1.110e+04 5.227e-09
 50.20107   -232.7 1.129e+04 5.552e-09
 50.24059   -231.8 1.133e+04 5.580e-09
 50.28011   -230.8 1.140e+04 5.410e-09
 50.30880   -229.6 1.152e+04 5.148e-09
 50.32856   -229.7 1.122e+04 3.690e-09
 50.35914   -228.6 1.147e+04 4.153e-09
 50.39866   -227.9 1.167e+04 4.679e-09
 50.43817   -227.5 1.175e+04 4.876e-09
 50.46375   -227.2 1.175e+04 4.860e-09
 50.48351   -228.3 1.150e+04 4.121e-09
 50.51721   -227.4 1.134e+04 3.457e-09
 50.55672   -226.2 1.110e+04 2.726e-09
 50.59624   -224.8 1.088e+04 2.191e-09
 50.62670   -223.5 1.069e+04 1.822e-09
 50.64646   -223.7 1.066e+04 1.512e-09
 50.67528   -222.4 1.053e+04 1.431e-09
 50.71479   -221.1 1.044e+04 1.395e-09
 50.75431   -220.0 1.042e+04 1.379e-09
 50.79383   -219.4 1.039e+04 1.448e-09
 50.83334   -219.3 1.047e+04 2.256e-09
 50.87286   -219.6 1.084e+04 4.267e-09
 50.90047   -219.9 1.123e+04 7.231e-09
 50.92022   -220.9 1.104e+04 6.691e-09
 50.94459   -222.6 1.118e+04 7.866e-09
 50.96435   -227.3 1.123e+04 8.610e-09
 50.99141   -229.5 1.066e+04 7.536e-09
 51.03093   -231.1 9.770e+03 4.949e-09
 51.07044   -231.8 8.950e+03 3.141e-09
 51.10996   -232.1 8.518e+03 2.369e-09
 51.14948   -231.4 8.377e+03 2.188e-09
 51.18899   -230.5 8.356e+03 2.175e-09
 51.22851   -230.2 8.347e+03 2.303e-09
 51.26249   -230.3 8.536e+03 2.947e-09
 51.28225   -231.2 8.566e+03 3.445e-09
 51.30754   -231.2 8.724e+03 3.939e-09
 51.33718   -231.5 9.013e+03 4.778e-09
 51.35694   -231.4 9.008e+03 4.258e-09
 51.38658   -232.3 9.590e+03 5.966e-09
 51.42609   -233.6 1.017e+04 8.242e-09
 51.46561   -235.1 1.057e+04 1.028e-08
 51.50513   -236.6 1.070e+04 1.100e-08
 51.54464   -238.2 1.068e+04 1.100e-08
 51.58039   -239.6 1.037e+04 9.837e-09
 51.60015   -239.4 1.010e+04 8.726e-09
 51.62368   -240.8 9.713e+03 7.881e-09
 51.66320   -242.3 9.457e+03 7.332e-09
 51.69273   -243.3 9.435e+03 7.108e-09
 51.71240   -243.7 9.427e+03 7.065e-09
 51.73215   -244.4 9.412e+03 7.022e-09
 51.74902   -246.1 9.653e+03 7.391e-09
 51.75890   -249.1 1.049e+04 8.572e-09
 51.77167   -253.6 1.448e+04 2.015e-08
 51.78357   -256.8 1.731e+04 5.649e-08
 51.79345   -257.7 1.623e+04 6.021e-08
 51.81119   -259.3 1.708e+04 1.008e-07
 51.83095   -261.1 1.731e+04 1.199e-07
 51.85070   -262.9 1.725e+04 1.220e-07
 51.87046   -264.0 1.647e+04 1.027e-07
 51.89022   -264.9 1.522e+04 6.452e-08
 51.90797   -265.8 1.370e+04 3.709e-08
 51.91785   -268.5 1.199e+04 2.054e-08
 51.92974   -269.2 1.089e+04 1.488e-08
 51.94950   -269.3 1.039e+04 1.270e-08
 51.96925   -268.7 1.018e+04 1.175e-08
 51.98901   -267.7 1.002e+04 1.100e-08
 52.00193   -266.7 9.846e+03 1.003e-08
 52.01181   -266.5 9.240e+03 7.555e-09
 52.02853   -265.6 9.077e+03 6.787e-09
 52.04829   -264.8 8.880e+03 5.898e-09
 52.06692   -263.8 8.698e+03 5.073e-09
 52.07679   -264.4 8.653e+03 4.864e-09
 52.08781   -263.6 8.614e+03 4.439e-09
 52.10756   -262.9 8.625e+03 4.304e-09
 52.12732   -262.4 8.633e+03 4.290e-09
 52.14708   -262.3 8.842e+03 4.579e-09
 52.16684   -262.2 9.507e+03 6.105e-09
 52.18660   -261.8 1.026e+04 8.804e-09
 52.20636   -261.1 1.089e+04 1.206e-08
 52.22029   -260.5 1.133e+04 1.469e-08
 52.22992   -260.2 1.074e+04 1.085e-08
 52.23574   -261.4 1.036e+04 9.441e-09
 52.24587   -261.0 1.037e+04 9.214e-09
 52.26563   -260.7 1.027e+04 7.984e-09
 52.28539   -260.4 1.005e+04 6.415e-09
 52.30515   -259.9 9.782e+03 5.049e-09
 52.32491   -259.3 9.543e+03 4.032e-09
 52.34466   -258.5 9.380e+03 3.327e-09
 52.36442   -257.1 9.353e+03 2.864e-09
 52.38418   -255.1 9.469e+03 2.615e-09
 52.41392   -253.3 9.574e+03 2.521e-09
 52.45353   -251.6 9.743e+03 2.480e-09
 52.49305   -249.3 9.876e+03 2.400e-09
 52.53256   -247.0 1.006e+04 2.269e-09
 52.55383   -244.7 1.021e+04 2.091e-09
 52.57359   -244.5 1.008e+04 1.728e-09
 52.61160   -242.4 1.018e+04 1.674e-09
 52.64732   -240.5 1.021e+04 1.654e-09
 52.66707   -240.9 1.033e+04 1.485e-09
 52.69063   -239.3 1.037e+04 1.662e-09
 52.73015   -238.0 1.037e+04 2.086e-09
 52.76967   -236.7 1.045e+04 2.757e-09
 52.80918   -235.6 1.060e+04 3.566e-09
 52.84870   -234.8 1.072e+04 4.261e-09
 52.87173   -234.3 1.076e+04 4.589e-09
 52.89149   -235.2 1.080e+04 4.658e-09
 52.92773   -234.9 1.079e+04 4.676e-09
 52.96725   -234.4 1.066e+04 4.387e-09
 53.00677   -233.4 1.052e+04 3.696e-09
 53.04628   -232.1 1.040e+04 3.037e-09
 53.08403   -230.6 1.033e+04 2.546e-09
 53.10379   -230.9 1.041e+04 2.367e-09
 53.12532   -229.3 1.032e+04 2.083e-09
 53.16483   -227.6 1.021e+04 1.868e-09
 53.18963   -225.6 1.011e+04 1.698e-09
 53.20939   -226.0 1.009e+04 1.545e-09
 53.24387   -223.9 1.005e+04 1.463e-09
 53.28338   -221.6 1.005e+04 1.419e-09
 53.32290   -219.4 1.006e+04 1.392e-09
 53.36242   -217.1 1.007e+04 1.371e-09
 53.40193   -214.9 1.008e+04 1.360e-09
 53.44145   -212.6 1.008e+04 1.358e-09
 53.48097   -210.3 1.013e+04 1.363e-09
 53.50752   -208.0 1.020e+04 1.415e-09
 53.52728   -208.2 1.014e+04 1.284e-09
 53.54050   -206.0 1.028e+04 1.342e-09
 53.56026   -205.9 1.036e+04 1.255e-09
 53.59952   -203.8 1.048e+04 1.421e-09
 53.63903   -201.9 1.063e+04 1.659e-09
 53.67855   -200.4 1.082e+04 2.069e-09
 53.71807   -199.2 1.109e+04 2.916e-09
 53.75758   -198.6 1.153e+04 4.760e-09
 53.79710   -198.2 1.222e+04 8.580e-09
 53.82532   -197.7 1.268e+04 1.255e-08
 53.83510   -197.5 1.265e+04 1.272e-08
 53.84630   -197.5 1.309e+04 1.674e-08
 53.86606   -197.7 1.358e+04 2.158e-08
 53.88582   -198.3 1.400e+04 2.539e-08
 53.90558   -198.9 1.427e+04 2.727e-08
 53.92534   -199.5 1.438e+04 2.777e-08
 53.94509   -200.2 1.441e+04 2.783e-08
 53.96485   -200.9 1.448e+04 2.736e-08
 53.97702   -201.5 1.453e+04 2.650e-08
 53.98646   -202.1 1.508e+04 4.311e-08
 53.99405   -201.4 1.483e+04 3.712e-08
 54.00437   -201.8 1.464e+04 2.932e-08
 54.02413   -202.2 1.448e+04 2.408e-08
 54.04389   -202.6 1.444e+04 2.236e-08
 54.06364   -202.9 1.444e+04 2.220e-08
 54.08340   -203.3 1.473e+04 2.363e-08
 54.10316   -203.6 1.517e+04 3.117e-08
 54.12292   -203.8 1.561e+04 4.372e-08
 54.14268   -203.8 1.597e+04 5.775e-08
 54.15300   -203.9 1.610e+04 6.627e-08
 54.16288   -203.7 1.589e+04 5.360e-08
 54.18219   -203.7 1.588e+04 5.555e-08
 54.19537   -203.7 1.570e+04 5.500e-08
 54.20525   -203.0 1.518e+04 4.186e-08
 54.22171   -202.9 1.484e+04 3.761e-08
 54.24147   -202.6 1.437e+04 2.900e-08
 54.26123   -202.0 1.386e+04 2.126e-08
 54.28099   -201.2 1.342e+04 1.585e-08
 54.30075   -200.3 1.308e+04 1.251e-08
 54.31195   -199.2 1.287e+04 1.064e-08
 54.32183   -198.9 1.294e+04 1.021e-08
 54.34026   -197.8 1.282e+04 9.133e-09
 54.36002   -196.7 1.278e+04 8.495e-09
 54.37978   -195.5 1.275e+04 8.175e-09
 54.39954   -194.3 1.273e+04 8.127e-09
 54.41373   -193.2 1.274e+04 8.153e-09
 54.42361   -193.5 1.257e+04 6.938e-09
 54.43905   -192.5 1.256e+04 6.928e-09
 54.45881   -191.6 1.255e+04 6.702e-09
 54.47090   -190.7 1.256e+04 6.163e-09
 54.48078   -190.4 1.272e+04 6.287e-09
 54.49833   -189.6 1.270e+04 5.817e-09
 54.51809   -188.8 1.271e+04 5.251e-09
 54.53785   -188.1 1.276e+04 4.700e-09
 54.55760   -187.5 1.286e+04 4.254e-09
 54.57736   -187.0 1.298e+04 3.951e-09
 54.59712   -186.6 1.309e+04 3.806e-09
 54.61688   -186.2 1.313e+04 3.767e-09
 54.62984   -186.0 1.329e+04 3.728e-09
 54.63517   -185.6 1.349e+04 4.288e-09
 54.64196   -185.6 1.340e+04 2.564e-09
 54.65640   -185.3 1.354e+04 2.570e-09
 54.67615   -185.0 1.354e+04 2.636e-09
 54.69591   -184.7 1.350e+04 2.685e-09
 54.71567   -184.4 1.348e+04 2.693e-09
 54.73543   -184.0 1.338e+04 2.701e-09
 54.75519   -183.5 1.324e+04 2.654e-09
 54.77495   -182.9 1.312e+04 2.563e-09
 54.78879   -182.3 1.304e+04 2.449e-09
 54.79867   -181.9 1.300e+04 2.654e-09
 54.81446   -181.2 1.293e+04 2.454e-09
 54.83422   -180.5 1.283e+04 2.358e-09
 54.85054   -179.3 1.269e+04 2.488e-09
 54.87039   -179.5 1.271e+04 1.652e-09
 54.90357   -177.9 1.255e+04 1.536e-09
 54.94309   -176.2 1.244e+04 1.463e-09
 54.98261   -174.5 1.236e+04 1.426e-09
 55.02212   -172.7 1.231e+04 1.420e-09
 55.06164   -171.0 1.227e+04 1.439e-09
 55.09700   -169.4 1.218e+04 1.511e-09
 55.11676   -168.5 1.231e+04 1.627e-09
 55.14067   -167.0 1.231e+04 1.852e-09
 55.18019   -165.7 1.233e+04 2.193e-09
 55.21971   -164.5 1.234e+04 2.691e-09
 55.25922   -163.4 1.228e+04 3.311e-09
 55.28735   -162.3 1.218e+04 3.866e-09
 55.30711   -162.0 1.196e+04 3.160e-09
 55.33826   -160.9 1.189e+04 3.267e-09
 55.37777   -159.6 1.173e+04 3.274e-09
 55.41490   -158.1 1.146e+04 3.161e-09
 55.43456   -157.5 1.136e+04 3.981e-09
 55.44673   -156.5 1.125e+04 3.745e-09
 55.46649   -155.4 1.119e+04 3.479e-09
 55.49623   -154.7 1.115e+04 3.239e-09
 55.53584   -153.4 1.096e+04 2.961e-09
 55.57536   -151.7 1.068e+04 2.506e-09
 55.61487   -149.8 1.045e+04 1.999e-09
 55.65439   -147.7 1.028e+04 1.571e-09
 55.69391   -145.4 1.021e+04 1.295e-09
 55.72406   -143.1 1.020e+04 1.187e-09
 55.74319   -142.6 1.027e+04 1.063e-09
 55.75256   -141.8 1.032e+04 1.017e-09
 55.77294   -139.4 1.027e+04 9.639e-10
 55.81246   -136.9 1.026e+04 9.554e-10
 55.85197   -134.5 1.029e+04 9.980e-10
 55.89149   -132.2 1.031e+04 1.193e-09
 55.93101   -129.8 1.030e+04 1.464e-09
 55.97052   -127.3 1.027e+04 1.695e-09
 56.01004   -124.8 1.025e+04 1.791e-09
 56.04956   -122.3 1.023e+04 1.803e-09
 56.07045   -119.7 1.013e+04 1.689e-09
 56.09021   -118.4 1.025e+04 1.676e-09
 56.12859   -115.8 1.021e+04 1.480e-09
 56.16077   -113.3 1.018e+04 1.267e-09
 56.18053   -112.3 1.009e+04 1.476e-09
 56.20763   -109.7 1.005e+04 1.263e-09
 56.24714   -107.3 9.998e+03 1.046e-09
 56.28666   -104.9 9.933e+03 8.560e-10
 56.32618   -102.5 9.810e+03 7.286e-10
 56.36569   -100.0 9.655e+03 6.390e-10
 56.38835    -97.4 9.557e+03 5.919e-10
 56.40811    -96.3 9.666e+03 6.891e-10
 56.44473    -93.8 9.651e+03 6.757e-10
 56.48424    -91.9 9.922e+03 7.345e-10
 56.52376    -90.8 1.038e+04 1.543e-09
 56.56328    -89.5 1.066e+04 3.756e-09
 56.59748    -88.3 1.100e+04 6.658e-09
 56.61724    -86.1 1.039e+04 2.873e-09
 56.64231    -84.9 1.072e+04 5.281e-09
 56.68183    -84.2 1.087e+04 6.434e-09
 56.70625    -83.9 1.081e+04 6.395e-09
 56.72600    -83.0 1.155e+04 1.030e-08
 56.76086    -82.7 1.097e+04 6.670e-09
 56.80038    -82.3 1.042e+04 4.127e-09
 56.83989    -81.0 1.005e+04 3.067e-09
 56.87941    -79.4 9.891e+03 2.705e-09
 56.91893    -77.7 9.736e+03 2.532e-09
 56.95844    -75.6 9.571e+03 2.419e-09
 56.99796    -73.6 9.529e+03 2.402e-09
 57.02414    -71.7 9.508e+03 2.440e-09
 57.04062    -71.2 9.825e+03 2.764e-09
 57.05395    -69.9 9.859e+03 3.107e-09
 57.07699    -68.0 9.817e+03 3.139e-09
 57.11651    -66.2 9.792e+03 3.164e-09
 57.15603    -64.5 9.758e+03 3.184e-09
 57.19555    -63.1 9.732e+03 3.103e-09
 57.23506    -61.8 9.704e+03 2.958e-09
 57.27458    -60.9 9.656e+03 2.778e-09
 57.31410    -60.1 9.578e+03 2.608e-09
 57.34204    -59.2 9.524e+03 2.518e-09
 57.36180    -58.1 9.950e+03 3.867e-09
 57.39313    -57.6 9.834e+03 3.726e-09
 57.43265    -57.0 9.638e+03 3.064e-09
 57.47091    -56.3 9.467e+03 2.299e-09
 57.49067    -55.8 9.655e+03 2.546e-09
 57.51168    -55.2 9.567e+03 2.082e-09
 57.55120    -54.6 9.563e+03 2.014e-09
 57.59071    -53.9 9.675e+03 2.443e-09
 57.62025    -53.2 9.732e+03 3.024e-09
 57.63991    -52.9 9.768e+03 3.294e-09
 57.65967    -52.3 9.827e+03 3.755e-09
 57.67943    -51.5 1.020e+04 4.992e-09
 57.69895    -51.2 1.028e+04 5.316e-09
 57.70883    -51.3 1.036e+04 5.510e-09
 57.71895    -51.0 1.046e+04 5.898e-09
 57.73871    -50.8 1.056e+04 6.398e-09
 57.75846    -50.6 1.066e+04 7.098e-09
 57.77822    -50.3 1.077e+04 8.070e-09
 57.79798    -50.0 1.091e+04 9.295e-09
 57.81774    -49.7 1.110e+04 1.066e-08
 57.82857    -49.4 1.131e+04 1.181e-08
 57.83845    -49.4 1.144e+04 1.177e-08
 57.85726    -49.3 1.147e+04 1.199e-08
 57.87701    -49.0 1.148e+04 1.192e-08
 57.89677    -48.5 1.135e+04 1.088e-08
 57.91653    -47.7 1.110e+04 8.971e-09
 57.92718    -46.9 1.079e+04 6.859e-09
 57.93706    -47.3 1.073e+04 6.383e-09
 57.95605    -46.4 1.047e+04 4.497e-09
 57.97581    -45.5 1.034e+04 3.250e-09
 57.98751    -45.0 1.024e+04 2.553e-09
 57.99739    -44.7 1.032e+04 2.614e-09
 58.02530    -43.8 1.026e+04 2.266e-09
 58.06491    -41.6 1.002e+04 1.905e-09
 58.10443    -39.3 9.808e+03 1.599e-09
 58.14395    -37.2 9.605e+03 1.375e-09
 58.18346    -35.0 9.477e+03 1.282e-09
 58.22298    -33.1 9.453e+03 1.255e-09
 58.26250    -32.4 9.687e+03 1.371e-09
 58.29573    -33.0 1.009e+04 2.815e-09
 58.31549    -32.1 1.006e+04 3.049e-09
 58.34153    -32.5 1.068e+04 7.279e-09
 58.36409    -32.5 1.142e+04 1.324e-08
 58.38385    -33.9 1.094e+04 1.017e-08
 58.41059    -35.2 1.093e+04 1.010e-08
 58.43025    -35.3 1.068e+04 8.806e-09
 58.45001    -36.7 1.016e+04 6.210e-09
 58.46436    -38.0 9.870e+03 4.851e-09
 58.47424    -37.5 1.000e+04 5.549e-09
 58.48952    -38.7 9.667e+03 4.569e-09
 58.50928    -39.8 9.422e+03 4.017e-09
 58.52904    -40.9 9.217e+03 3.739e-09
 58.54880    -41.9 9.175e+03 3.692e-09
 58.56856    -42.9 9.195e+03 3.860e-09
 58.58225    -43.8 9.276e+03 4.292e-09
 58.59213    -44.0 9.258e+03 4.281e-09
 58.61353    -44.8 9.309e+03 4.753e-09
 58.63328    -44.9 9.390e+03 5.226e-09
 58.65757    -45.8 9.444e+03 5.779e-09
 58.68721    -46.6 9.201e+03 5.247e-09
 58.70687    -46.7 9.031e+03 4.672e-09
 58.73660    -47.4 8.636e+03 3.332e-09
 58.77622    -48.4 8.124e+03 2.168e-09
 58.80080    -49.8 7.906e+03 1.585e-09
 58.82056    -50.5 8.023e+03 1.980e-09
 58.85525    -57.0 9.884e+03 2.377e-09
 58.88479    -63.7 1.127e+04 6.069e-09
 58.90445    -66.3 1.200e+04 1.670e-08
 58.92421    -67.1 1.272e+04 3.098e-08
 58.94120    -67.9 1.301e+04 3.483e-08
 58.95108    -68.5 1.306e+04 3.550e-08
 58.96373    -70.4 1.254e+04 2.074e-08
 58.98348    -74.8 1.058e+04 5.835e-09
 59.00324    -80.2 8.696e+03 2.395e-09
 59.01896    -81.9 8.201e+03 1.941e-09
 59.02884    -82.7 8.191e+03 2.072e-09
 59.04276    -83.1 8.200e+03 2.054e-09
 59.06252    -83.3 8.342e+03 2.151e-09
 59.08228    -83.6 8.512e+03 2.397e-09
 59.10015    -84.1 8.722e+03 2.793e-09
 59.11003    -85.1 8.909e+03 3.696e-09
 59.12179    -85.7 9.219e+03 4.595e-09
 59.14155    -86.4 9.645e+03 6.126e-09
 59.16131    -87.2 1.015e+04 8.439e-09
 59.18107    -87.8 1.065e+04 1.142e-08
 59.20083    -88.2 1.109e+04 1.428e-08
 59.22059    -88.5 1.136e+04 1.595e-08
 59.23732    -88.9 1.141e+04 1.627e-08
 59.24720    -91.0 1.142e+04 1.645e-08
 59.25910    -91.3 1.108e+04 1.303e-08
 59.26898    -91.8 1.088e+04 1.142e-08
 59.27986    -92.1 1.052e+04 8.528e-09
 59.29962    -92.3 1.014e+04 6.190e-09
 59.31938    -92.3 9.797e+03 4.402e-09
 59.33914    -92.2 9.504e+03 3.223e-09
 59.36887    -92.3 9.218e+03 2.457e-09
 59.40849    -90.6 8.915e+03 1.796e-09
 59.44800    -88.4 8.683e+03 1.312e-09
 59.48752    -86.0 8.665e+03 1.079e-09
 59.52704    -83.4 8.713e+03 9.652e-10
 59.56655    -80.6 8.760e+03 9.145e-10
 59.58707    -77.6 8.788e+03 9.055e-10
 59.60683    -77.3 8.672e+03 7.708e-10
 59.64559    -74.2 8.777e+03 8.268e-10
 59.67423    -71.4 8.974e+03 1.026e-09
 59.69399    -71.7 8.760e+03 6.137e-10
 59.72462    -69.6 9.201e+03 1.054e-09
 59.76414    -67.4 9.706e+03 2.649e-09
 59.80365    -65.2 1.075e+04 6.537e-09
 59.83319    -64.2 1.207e+04 1.679e-08
 59.85285    -63.9 1.309e+04 2.860e-08
 59.87261    -63.3 1.397e+04 4.644e-08
 59.89237    -62.5 1.450e+04 6.342e-08
 59.90477    -62.1 1.486e+04 6.663e-08
 59.91465    -62.0 1.500e+04 8.009e-08
 59.93189    -61.2 1.500e+04 8.091e-08
 59.95165    -60.5 1.465e+04 7.461e-08
 59.97140    -59.7 1.418e+04 6.534e-08
 59.99116    -58.9 1.371e+04 5.523e-08
 60.01092    -58.2 1.334e+04 4.531e-08
 60.03068    -57.5 1.300e+04 3.660e-08
 60.05044    -56.9 1.271e+04 2.977e-08
 60.06372    -56.4 1.256e+04 2.519e-08
 60.07360    -57.2 1.094e+04 7.357e-09
 60.08995    -56.7 1.058e+04 6.791e-09
 60.10971    -56.2 1.041e+04 6.706e-09
 60.12062    -55.8 1.019e+04 7.035e-09
 60.13050    -56.0 1.154e+04 1.071e-08
 60.14923    -55.9 1.149e+04 1.114e-08
 60.16899    -55.7 1.132e+04 1.137e-08
 60.18875    -55.5 1.088e+04 1.131e-08
 60.20851    -55.2 1.039e+04 1.088e-08
 60.22267    -54.9 9.892e+03 9.958e-09
 60.24252    -55.9 8.905e+03 6.376e-09
 60.27785    -54.4 8.606e+03 5.336e-09
 60.31737    -52.8 8.296e+03 4.240e-09
 60.35689    -51.2 8.223e+03 3.962e-09
 60.39641    -49.8 8.537e+03 4.382e-09
 60.43592    -48.4 9.238e+03 5.933e-09
 60.46546    -47.9 1.009e+04 1.008e-08
 60.48512    -47.1 1.031e+04 1.207e-08
 60.50488    -46.5 1.069e+04 1.487e-08
 60.52464    -45.8 1.102e+04 1.778e-08
 60.54056    -45.1 1.143e+04 2.124e-08
 60.55044    -45.3 1.153e+04 2.132e-08
 60.55734    -44.6 1.191e+04 2.459e-08
 60.56722    -45.2 1.178e+04 2.273e-08
 60.58391    -44.7 1.206e+04 2.317e-08
 60.60367    -44.6 1.261e+04 2.418e-08
 60.62343    -45.5 1.384e+04 2.845e-08
 60.64319    -47.4 1.507e+04 4.205e-08
 60.66295    -48.4 1.581e+04 7.062e-08
 60.68271    -48.5 1.638e+04 1.142e-07
 60.69951    -47.7 1.663e+04 1.457e-07
 60.70939    -46.9 1.629e+04 1.261e-07
 60.72222    -46.2 1.604e+04 1.041e-07
 60.74198    -45.4 1.522e+04 5.332e-08
 60.76174    -45.3 1.439e+04 2.334e-08
 60.77569    -45.4 1.353e+04 1.090e-08
 60.78557    -45.5 1.347e+04 2.027e-08
 60.80126    -45.1 1.296e+04 1.228e-08
 60.82102    -44.2 1.266e+04 8.635e-09
 60.84077    -42.9 1.249e+04 6.588e-09
 60.85846    -41.6 1.232e+04 5.128e-09
 60.86834    -42.3 1.154e+04 2.342e-09
 60.88029    -41.0 1.139e+04 2.061e-09
 60.91003    -39.9 1.075e+04 1.903e-09
 60.94964    -37.1 1.100e+04 1.950e-09
 60.98437    -35.3 1.085e+04 2.642e-09
 61.00403    -31.9 1.224e+04 5.682e-09
 61.01741    -30.8 1.194e+04 6.428e-09
 61.02729    -32.5 1.128e+04 5.157e-09
 61.03836    -31.4 1.120e+04 5.272e-09
 61.05812    -29.8 1.114e+04 4.695e-09
 61.07787    -29.0 1.107e+04 4.325e-09
 61.09763    -27.2 1.063e+04 2.945e-09
 61.11739    -26.9 1.072e+04 2.540e-09
 61.14713    -26.1 1.136e+04 3.228e-09
 61.17655    -24.5 1.110e+04 2.761e-09
 61.19631    -25.9 1.057e+04 1.457e-09
 61.22626    -23.5 1.103e+04 1.497e-09
 61.26577    -21.0 1.107e+04 1.914e-09
 61.30529    -18.8 1.134e+04 2.611e-09
 61.34481    -16.7 1.165e+04 4.126e-09
 61.38432    -14.7 1.175e+04 7.054e-09
 61.42108    -12.2 1.181e+04 9.803e-09
 61.44084    -11.7 1.192e+04 9.529e-09
 61.46336     -9.8 1.179e+04 1.011e-08
 61.49445     -8.0 1.179e+04 7.928e-09
 61.51421     -8.8 1.193e+04 9.986e-09
 61.54239     -7.8 1.150e+04 8.473e-09
 61.58191     -6.4 1.125e+04 7.785e-09
 61.62143     -5.3 1.126e+04 6.830e-09
 61.66094     -5.0 1.139e+04 6.631e-09
 61.69048     -6.2 1.181e+04 9.316e-09
 61.71014     -7.0 1.207e+04 1.047e-08
 61.72990     -9.1 1.292e+04 1.323e-08
 61.74966    -10.7 1.333e+04 1.877e-08
 61.76942    -10.9 1.320e+04 2.950e-08
 61.78918    -10.0 1.319e+04 3.201e-08
 61.80893     -9.2 1.305e+04 2.609e-08
 61.82203     -8.8 1.268e+04 2.137e-08
 61.83191    -10.1 1.278e+04 2.026e-08
 61.85769    -10.2 1.162e+04 1.284e-08
 61.87745    -12.2 1.153e+04 1.225e-08
 61.89795    -11.9 1.124e+04 1.219e-08
 61.93756     -9.6 1.113e+04 1.190e-08
 61.97708     -7.2 1.083e+04 1.033e-08
 62.01659     -4.5 1.032e+04 7.393e-09
 62.05611     -1.6 9.650e+03 4.499e-09
 62.09563      1.1 9.078e+03 2.611e-09
 62.13024      3.5 8.969e+03 1.875e-09
 62.15000      3.0 8.658e+03 1.585e-09
 62.17466      5.9 8.533e+03 1.534e-09
 62.21418      9.0 8.577e+03 1.638e-09
 62.25369     12.1 8.735e+03 1.956e-09
 62.29321     15.2 8.901e+03 2.300e-09
 62.31426     18.3 9.021e+03 2.525e-09
 62.33402     18.1 8.901e+03 2.051e-09
 62.37224     21.0 9.126e+03 2.516e-09
 62.41176     23.9 9.435e+03 3.287e-09
 62.44814     26.5 9.926e+03 4.764e-09
 62.46790     25.7 9.431e+03 2.922e-09
 62.49079     28.0 9.873e+03 4.068e-09
 62.53031     30.2 1.035e+04 5.746e-09
 62.56983     32.3 1.085e+04 7.697e-09
 62.59937     33.2 1.132e+04 1.038e-08
 62.61677     34.0 1.161e+04 1.226e-08
 62.62665     33.2 1.113e+04 8.660e-09
 62.63879     33.9 1.141e+04 1.027e-08
 62.65855     34.6 1.174e+04 1.246e-08
 62.67830     35.3 1.206e+04 1.498e-08
 62.69806     36.0 1.234e+04 1.757e-08
 62.71782     36.8 1.255e+04 1.975e-08
 62.73758     37.6 1.269e+04 2.167e-08
 62.75078     38.4 1.279e+04 2.295e-08
 62.76066     38.5 1.265e+04 1.873e-08
 62.77572     39.4 1.259e+04 1.840e-08
 62.78560     38.9 1.206e+04 1.201e-08
 62.79685     39.8 1.197e+04 9.979e-09
 62.81661     40.6 1.184e+04 7.930e-09
 62.83637     41.3 1.170e+04 6.169e-09
 62.85613     41.8 1.152e+04 4.793e-09
 62.87589     42.3 1.131e+04 3.825e-09
 62.89565     42.7 1.110e+04 3.205e-09
 62.91540     43.3 1.089e+04 2.806e-09
 62.93467     43.9 1.075e+04 2.579e-09
 62.94455     42.9 1.062e+04 2.391e-09
 62.95492     44.2 1.052e+04 2.371e-09
 62.96913     44.8 1.051e+04 2.386e-09
 62.97901     45.1 1.053e+04 2.333e-09
 62.99444     46.4 1.051e+04 2.457e-09
 63.01420     47.1 1.052e+04 2.544e-09
 63.03396     48.0 1.055e+04 2.760e-09
 63.05371     48.8 1.065e+04 3.131e-09
 63.07347     49.6 1.087e+04 3.990e-09
 63.09323     50.2 1.108e+04 5.126e-09
 63.10349     50.6 1.124e+04 6.477e-09
 63.11337     49.9 1.113e+04 6.273e-09
 63.13275     50.4 1.126e+04 7.313e-09
 63.15251     50.6 1.146e+04 7.760e-09
 63.17226     50.5 1.158e+04 7.813e-09
 63.18749     50.3 1.160e+04 7.618e-09
 63.19737     50.2 1.179e+04 8.206e-09
 63.21178     49.9 1.171e+04 7.294e-09
 63.23154     49.5 1.152e+04 6.555e-09
 63.25130     49.0 1.136e+04 5.994e-09
 63.26244     48.7 1.122e+04 5.640e-09
 63.27232     48.7 1.104e+04 5.320e-09
 63.29081     48.8 1.096e+04 5.053e-09
 63.31057     49.0 1.090e+04 4.888e-09
 63.33033     49.4 1.085e+04 4.734e-09
 63.35009     49.9 1.079e+04 4.610e-09
 63.36985     50.6 1.076e+04 4.589e-09
 63.38961     51.3 1.077e+04 4.652e-09
 63.40585     52.0 1.082e+04 4.940e-09
 63.41572     51.7 1.087e+04 5.042e-09
 63.42139     52.3 1.095e+04 5.639e-09
 63.43127     52.3 1.093e+04 5.511e-09
 63.44888     53.1 1.101e+04 6.328e-09
 63.46864     53.9 1.115e+04 7.190e-09
 63.48840     54.8 1.133e+04 7.844e-09
 63.50816     55.6 1.139e+04 7.841e-09
 63.52792     56.3 1.139e+04 7.506e-09
 63.54767     57.2 1.132e+04 6.475e-09
 63.56743     57.4 1.122e+04 5.468e-09
 63.59717     58.2 1.089e+04 4.222e-09
 63.62440     60.2 1.061e+04 3.373e-09
 63.64416     60.4 1.069e+04 3.725e-09
 63.67630     62.4 1.054e+04 2.846e-09
 63.71582     64.4 1.052e+04 2.166e-09
 63.73948     66.4 1.051e+04 1.839e-09
 63.75924     66.3 1.036e+04 1.882e-09
 63.79485     68.3 1.049e+04 2.107e-09
 63.83437     70.2 1.073e+04 2.590e-09
 63.87388     72.0 1.094e+04 3.388e-09
 63.91340     73.8 1.121e+04 4.652e-09
 63.95292     75.2 1.159e+04 6.379e-09
 63.99243     76.9 1.202e+04 8.696e-09
 64.02197     77.0 1.223e+04 9.896e-09
 64.04163     76.9 1.244e+04 1.110e-08
 64.05718     76.9 1.263e+04 1.233e-08
 64.06658     76.5 1.241e+04 1.102e-08
 64.07079     76.0 1.230e+04 9.537e-09
 64.08115     76.0 1.236e+04 9.724e-09
 64.10091     76.0 1.237e+04 9.808e-09
 64.12067     75.9 1.235e+04 9.760e-09
 64.14043     75.7 1.232e+04 9.634e-09
 64.16018     75.5 1.229e+04 9.551e-09
 64.17994     75.2 1.230e+04 9.685e-09
 64.19970     74.9 1.239e+04 1.037e-08
 64.21613     74.4 1.261e+04 1.218e-08
 64.22601     73.7 1.255e+04 1.200e-08
 64.23922     73.2 1.281e+04 1.514e-08
 64.25898     72.7 1.302e+04 1.860e-08
 64.27873     72.1 1.314e+04 2.059e-08
 64.28915     71.5 1.313e+04 2.041e-08
 64.29903     71.1 1.283e+04 1.698e-08
 64.31825     70.7 1.267e+04 1.507e-08
 64.33801     70.3 1.248e+04 1.270e-08
 64.35777     70.0 1.228e+04 1.062e-08
 64.37508     69.7 1.207e+04 9.212e-09
 64.38496     69.5 1.167e+04 7.375e-09
 64.39728     69.5 1.156e+04 7.327e-09
 64.41704     70.0 1.157e+04 7.598e-09
 64.43680     70.3 1.161e+04 7.870e-09
 64.46654     70.9 1.203e+04 1.016e-08
 64.49617     71.4 1.228e+04 1.169e-08
 64.50751     71.6 1.245e+04 1.272e-08
 64.51738     72.0 1.241e+04 1.263e-08
 64.53403     72.2 1.259e+04 1.376e-08
 64.54391     72.1 1.275e+04 1.620e-08
 64.55535     72.3 1.306e+04 1.945e-08
 64.57511     72.5 1.318e+04 2.048e-08
 64.59487     72.7 1.315e+04 2.019e-08
 64.61463     73.0 1.302e+04 1.861e-08
 64.63439     73.4 1.280e+04 1.621e-08
 64.65414     74.2 1.260e+04 1.334e-08
 64.67390     75.0 1.248e+04 1.175e-08
 64.69297     75.9 1.249e+04 1.043e-08
 64.70285     75.7 1.242e+04 1.244e-08
 64.71342     76.9 1.245e+04 1.185e-08
 64.72586     78.3 1.241e+04 1.165e-08
 64.73574     78.4 1.242e+04 1.210e-08
 64.75294     79.7 1.255e+04 1.258e-08
 64.77269     79.7 1.387e+04 1.658e-08
 64.79245     76.0 1.819e+04 3.038e-08
 64.80722     69.4 2.197e+04 1.045e-07
 64.81705     64.9 1.951e+04 1.207e-06
 64.82693     63.3 1.730e+04 6.463e-06
 64.83432     61.9 1.590e+04 2.654e-05
 64.83736     60.2 1.325e+04 2.565e-04
 64.83983     59.3 1.375e+04 1.765e-04
 64.84417     56.3 1.326e+04 2.581e-04
 64.84911     52.7 1.435e+04 1.082e-04
 64.85405     50.1 1.608e+04 2.402e-05
 64.85899     48.3 1.737e+04 8.136e-06
 64.86168     49.0 1.780e+04 4.935e-06
 64.86664     39.5 2.099e+04 4.836e-07
 64.87633     31.4 2.289e+04 6.898e-08
 64.88621     21.5 1.827e+04 1.077e-08
 64.89609     16.1 1.141e+04 8.375e-09
 64.90597     14.5 9.928e+03 6.352e-09
 64.91584     14.8 9.971e+03 6.202e-09
 64.93071     14.8 9.328e+03 5.121e-09
 64.94422     15.6 8.913e+03 4.598e-09
 64.95410     16.3 8.789e+03 4.175e-09
 64.97028     17.5 8.790e+03 4.207e-09
 64.99004     18.7 8.830e+03 4.314e-09
 65.00979     19.9 8.873e+03 4.410e-09
 65.02075     20.9 8.890e+03 4.432e-09
 65.03063     20.7 8.867e+03 4.350e-09
 65.04931     21.5 8.876e+03 4.398e-09
 65.06907     22.4 8.859e+03 4.426e-09
 65.08883     23.3 8.830e+03 4.400e-09
 65.10859     24.1 8.798e+03 4.372e-09
 65.13832     25.3 8.742e+03 3.905e-09
 65.17794     27.1 8.612e+03 3.456e-09
 65.21745     29.2 8.374e+03 2.863e-09
 65.25697     31.3 8.192e+03 2.272e-09
 65.29649     33.6 8.006e+03 1.900e-09
 65.32896     36.0 7.953e+03 1.798e-09
 65.34872     35.7 7.757e+03 1.493e-09
 65.37125     38.2 7.798e+03 1.554e-09
 65.39100     38.9 7.776e+03 1.343e-09
 65.41504     41.4 7.926e+03 1.502e-09
 65.45455     43.8 8.134e+03 1.720e-09
 65.49407     46.3 8.357e+03 1.942e-09
 65.53359     48.6 8.561e+03 2.123e-09
 65.57310     50.7 8.754e+03 2.272e-09
 65.61262     52.9 8.943e+03 2.444e-09
 65.64686     55.1 9.134e+03 2.662e-09
 65.66662     55.4 8.925e+03 2.261e-09
 65.69165     57.7 9.085e+03 2.414e-09
 65.73117     60.0 9.251e+03 2.408e-09
 65.77069     62.2 9.330e+03 2.372e-09
 65.80796     64.5 9.418e+03 2.351e-09
 65.82772     66.1 9.530e+03 2.343e-09
 65.84972     68.4 9.714e+03 2.496e-09
 65.88924     70.3 9.875e+03 2.894e-09
 65.91878     71.9 1.022e+04 3.715e-09
 65.93844     72.7 1.043e+04 4.245e-09
 65.95820     73.5 1.067e+04 4.984e-09
 65.97444     73.6 1.099e+04 5.988e-09
 65.98432     72.8 1.115e+04 6.404e-09
 65.99771     71.8 1.186e+04 9.453e-09
 66.01747     70.5 1.251e+04 1.427e-08
 66.03600     69.5 1.301e+04 1.991e-08
 66.04588     69.6 1.313e+04 2.034e-08
 66.05699     68.7 1.366e+04 2.659e-08
 66.07675     67.7 1.394e+04 2.971e-08
 66.09651     66.6 1.394e+04 2.781e-08
 66.11626     65.4 1.384e+04 2.331e-08
 66.13339     64.2 1.359e+04 1.860e-08
 66.14327     63.2 1.297e+04 1.337e-08
 66.15578     62.6 1.265e+04 1.201e-08
 66.17554     62.5 1.254e+04 1.217e-08
 66.19530     62.8 1.252e+04 1.260e-08
 66.21506     63.3 1.261e+04 1.378e-08
 66.23482     64.0 1.291e+04 1.660e-08
 66.25435     64.6 1.344e+04 2.261e-08
 66.26423     63.2 1.367e+04 3.003e-08
 66.27433     64.0 1.428e+04 4.078e-08
 66.29234     64.3 1.555e+04 6.050e-08
 66.30221     64.1 1.643e+04 8.636e-08
 66.31385     63.8 1.755e+04 1.248e-07
 66.32862     64.0 1.786e+04 1.396e-07
 66.33845     63.5 1.843e+04 1.580e-07
 66.34833     62.5 1.897e+04 1.843e-07
 66.35821     61.0 1.941e+04 2.227e-07
 66.36809     58.8 2.013e+04 2.664e-07
 66.37331     56.0 2.076e+04 3.363e-07
 66.37694     51.6 2.078e+04 4.623e-07
 66.38159     51.6 2.065e+04 4.288e-07
 66.38785     49.0 2.030e+04 5.564e-07
 66.39772     47.1 1.984e+04 6.889e-07
 66.40760     45.7 1.943e+04 8.347e-07
 66.41748     44.5 1.936e+04 9.632e-07
 66.42736     43.3 1.906e+04 1.103e-06
 66.43724     42.5 1.891e+04 1.095e-06
 66.44712     41.7 1.887e+04 1.060e-06
 66.45613     40.0 1.895e+04 1.102e-06
 66.46107     37.9 1.864e+04 1.652e-06
 66.46688     35.1 1.824e+04 2.592e-06
 66.47676     31.5 1.798e+04 3.432e-06
 66.48249     28.1 1.799e+04 3.041e-06
 66.48743     27.1 1.875e+04 1.253e-06
 66.49652     25.7 1.902e+04 6.868e-07
 66.50640     24.4 1.948e+04 3.097e-07
 66.51627     22.5 1.968e+04 1.449e-07
 66.52615     20.3 1.890e+04 8.802e-08
 66.53560     18.7 1.761e+04 7.177e-08
 66.54054     19.2 1.836e+04 9.779e-08
 66.54591     18.1 1.745e+04 8.076e-08
 66.55579     17.6 1.689e+04 7.174e-08
 66.57066     17.0 1.613e+04 5.878e-08
 66.59047     16.5 1.604e+04 5.939e-08
 66.61022     15.9 1.618e+04 6.606e-08
 66.62499     15.3 1.638e+04 7.780e-08
 66.63482     15.2 1.650e+04 8.245e-08
 66.64470     14.5 1.705e+04 9.997e-08
 66.65458     14.3 1.729e+04 1.125e-07
 66.66446     13.6 1.779e+04 1.303e-07
 66.67434     13.0 1.810e+04 1.460e-07
 66.68422     12.0 1.855e+04 1.673e-07
 66.69410     10.9 1.874e+04 1.859e-07
 66.69949      9.6 1.896e+04 2.081e-07
 66.70130     10.5 1.896e+04 2.092e-07
 66.70579      9.9 1.860e+04 1.745e-07
 66.71386      8.8 1.858e+04 1.884e-07
 66.72374      7.5 1.855e+04 1.946e-07
 66.73362      6.6 1.848e+04 1.931e-07
 66.74350      5.8 1.822e+04 1.784e-07
 66.75338      5.4 1.799e+04 1.680e-07
 66.76824      4.9 1.734e+04 1.224e-07
 66.77906      4.5 1.622e+04 7.135e-08
 66.78894      5.0 1.710e+04 1.034e-07
 66.80781      4.0 1.554e+04 5.260e-08
 66.82757      2.3 1.394e+04 2.819e-08
 66.84733      0.7 1.262e+04 1.903e-08
 66.86708      0.0 1.191e+04 1.595e-08
 66.88684     -0.2 1.169e+04 1.515e-08
 66.90660     -0.2 1.161e+04 1.473e-08
 66.91930     -0.1 1.153e+04 1.388e-08
 66.92918      0.4 1.096e+04 1.110e-08
 66.93801      0.8 1.098e+04 1.067e-08
 66.94789      0.5 1.098e+04 9.663e-09
 66.96588      0.9 1.090e+04 8.427e-09
 66.98563      1.5 1.082e+04 7.206e-09
 67.00539      2.1 1.073e+04 5.944e-09
 67.02515      2.7 1.061e+04 4.737e-09
 67.04491      3.2 1.048e+04 3.852e-09
 67.06467      3.7 1.035e+04 2.926e-09
 67.08443      3.5 1.030e+04 2.696e-09
 67.11416      4.4 1.012e+04 2.382e-09
 67.13785      5.5 1.008e+04 2.344e-09
 67.15761      6.1 9.974e+03 2.071e-09
 67.19329      6.7 9.997e+03 2.202e-09
 67.23281      7.1 1.000e+04 2.376e-09
 67.25610      7.7 9.889e+03 2.287e-09
 67.27586      8.0 9.638e+03 1.999e-09
 67.31184      8.8 9.439e+03 1.552e-09
 67.35136      9.3 9.300e+03 1.184e-09
 67.39088     10.0 9.223e+03 1.127e-09
 67.43039     11.0 9.239e+03 1.190e-09
 67.46991     11.9 9.390e+03 1.588e-09
 67.50943     12.6 9.684e+03 2.516e-09
 67.53897     13.6 9.754e+03 3.191e-09
 67.55863     13.8 9.794e+03 3.428e-09
 67.57380     14.5 9.912e+03 3.987e-09
 67.57966     14.7 9.819e+03 3.641e-09
 67.58425     15.1 9.843e+03 3.575e-09
 67.59814     15.5 9.961e+03 3.975e-09
 67.61790     15.9 1.009e+04 4.258e-09
 67.63766     16.3 1.014e+04 4.361e-09
 67.65742     16.7 1.017e+04 4.516e-09
 67.67718     17.1 1.023e+04 4.788e-09
 67.69694     17.4 1.032e+04 5.225e-09
 67.71669     17.8 1.044e+04 5.834e-09
 67.73275     18.1 1.059e+04 6.595e-09
 67.74263     18.1 1.057e+04 6.618e-09
 67.75621     18.3 1.071e+04 7.339e-09
 67.77597     18.5 1.083e+04 7.891e-09
 67.79273     18.7 1.089e+04 8.094e-09
 67.80261     19.0 1.102e+04 8.735e-09
 67.81549     19.3 1.100e+04 8.528e-09
 67.83525     19.5 1.092e+04 7.928e-09
 67.85500     19.8 1.077e+04 6.978e-09
 67.87476     20.1 1.063e+04 5.999e-09
 67.89170     20.4 1.051e+04 5.101e-09
 67.90158     20.7 1.026e+04 4.130e-09
 67.91428     21.1 1.020e+04 3.667e-09
 67.93404     21.9 1.012e+04 3.303e-09
 67.95380     22.5 1.013e+04 3.187e-09
 67.97355     23.5 1.012e+04 3.178e-09
 67.99331     24.3 1.015e+04 3.221e-09
 68.01108     25.2 1.020e+04 3.374e-09
 68.02096     25.3 1.021e+04 3.358e-09
 68.03283     26.0 1.026e+04 3.606e-09
 68.05064     27.3 1.038e+04 4.096e-09
 68.06052     27.9 1.029e+04 3.832e-09
 68.07235     28.7 1.045e+04 4.358e-09
 68.09210     29.6 1.059e+04 4.876e-09
 68.11186     30.4 1.083e+04 5.590e-09
 68.13162     30.7 1.111e+04 6.624e-09
 68.15138     30.8 1.132e+04 8.144e-09
 68.17114     31.0 1.141e+04 9.836e-09
 68.19090     31.0 1.135e+04 1.030e-08
 68.20959     31.1 1.125e+04 1.011e-08
 68.21947     31.3 1.124e+04 1.016e-08
 68.22944     31.4 1.095e+04 9.244e-09
 68.23932     31.4 1.079e+04 8.288e-09
 68.25017     31.7 1.047e+04 6.965e-09
 68.26993     31.9 1.021e+04 5.673e-09
 68.28969     32.1 1.001e+04 4.667e-09
 68.30945     32.4 9.799e+03 4.087e-09
 68.32920     32.8 9.609e+03 3.984e-09
 68.34896     33.3 9.588e+03 4.013e-09
 68.36854     33.9 9.566e+03 4.148e-09
 68.37842     34.0 9.474e+03 3.950e-09
 68.38848     34.6 9.484e+03 4.168e-09
 68.40824     35.2 9.515e+03 4.478e-09
 68.42800     35.7 9.531e+03 4.802e-09
 68.44776     36.3 9.538e+03 5.068e-09
 68.46751     37.2 9.521e+03 4.990e-09
 68.48727     37.8 9.516e+03 5.104e-09
 68.50703     38.4 9.505e+03 5.274e-09
 68.52679     39.0 9.515e+03 5.542e-09
 68.53737     39.5 9.563e+03 5.905e-09
 68.54725     39.5 9.531e+03 5.983e-09
 68.56631     40.0 9.595e+03 6.401e-09
 68.58606     40.5 9.641e+03 6.753e-09
 68.60582     41.0 9.638e+03 6.867e-09
 68.62558     41.6 9.630e+03 6.816e-09
 68.64534     42.2 9.573e+03 6.640e-09
 68.66510     42.9 9.486e+03 6.272e-09
 68.67603     43.5 9.395e+03 5.821e-09
 68.68591     44.1 9.498e+03 6.134e-09
 68.69632     44.6 9.388e+03 5.619e-09
 68.70620     44.7 9.348e+03 5.588e-09
 68.72437     45.1 9.276e+03 5.334e-09
 68.74413     45.6 9.270e+03 5.169e-09
 68.76389     46.0 9.263e+03 5.068e-09
 68.78365     46.4 9.245e+03 4.998e-09
 68.80341     46.8 9.204e+03 4.936e-09
 68.82316     47.3 9.203e+03 4.982e-09
 68.84292     47.5 9.228e+03 5.115e-09
 68.85526     47.4 9.335e+03 5.554e-09
 68.86514     47.6 9.666e+03 7.672e-09
 68.88244     47.4 9.950e+03 9.089e-09
 68.89439     47.0 1.043e+04 1.185e-08
 68.90427     47.5 1.007e+04 9.653e-09
 68.92196     47.1 1.048e+04 1.259e-08
 68.94172     46.9 1.086e+04 1.585e-08
 68.96147     46.5 1.108e+04 1.692e-08
 68.98123     45.7 1.110e+04 1.678e-08
 69.00099     44.6 1.107e+04 1.605e-08
 69.01421     43.3 1.110e+04 1.604e-08
 69.02409     42.8 1.175e+04 2.114e-08
 69.04051     41.7 1.182e+04 2.259e-08
 69.06027     40.9 1.184e+04 2.358e-08
 69.08002     40.3 1.180e+04 2.380e-08
 69.09978     39.4 1.191e+04 2.511e-08
 69.11274     38.0 1.246e+04 2.917e-08
 69.12262     38.9 1.224e+04 2.719e-08
 69.13930     37.3 1.297e+04 3.480e-08
 69.15407     36.1 1.316e+04 3.747e-08
 69.16390     35.9 1.319e+04 3.828e-08
 69.17311     35.2 1.428e+04 5.772e-08
 69.18304     35.7 1.250e+04 2.949e-08
 69.19857     34.8 1.275e+04 3.224e-08
 69.21833     33.9 1.297e+04 3.496e-08
 69.23809     33.1 1.299e+04 3.527e-08
 69.25785     32.4 1.285e+04 3.237e-08
 69.27761     31.7 1.266e+04 2.818e-08
 69.29737     31.1 1.244e+04 2.517e-08
 69.31712     30.7 1.231e+04 2.375e-08
 69.33110     30.5 1.225e+04 2.306e-08
 69.33620     31.6 1.200e+04 2.052e-08
 69.34199     32.1 1.185e+04 2.030e-08
 69.35664     32.0 1.185e+04 2.012e-08
 69.37640     31.8 1.194e+04 2.041e-08
 69.39616     31.8 1.204e+04 2.083e-08
 69.41592     31.8 1.206e+04 2.084e-08
 69.43567     31.8 1.198e+04 1.997e-08
 69.45543     31.9 1.174e+04 1.753e-08
 69.47519     32.3 1.134e+04 1.360e-08
 69.49106     32.5 1.103e+04 1.089e-08
 69.50094     33.0 1.105e+04 1.106e-08
 69.51471     33.2 1.078e+04 8.586e-09
 69.53447     33.5 1.056e+04 6.933e-09
 69.54946     33.8 1.043e+04 6.101e-09
 69.55933     34.8 1.036e+04 6.033e-09
 69.57398     35.4 1.026e+04 5.398e-09
 69.59374     36.2 1.016e+04 4.923e-09
 69.61350     37.1 1.010e+04 4.472e-09
 69.63326     37.9 1.011e+04 4.113e-09
 69.65001     38.8 1.020e+04 3.894e-09
 69.65988     39.5 1.004e+04 3.387e-09
 69.67278     40.5 1.010e+04 3.349e-09
 69.69253     41.4 1.017e+04 3.375e-09
 69.71229     42.3 1.029e+04 3.462e-09
 69.73205     43.2 1.043e+04 3.633e-09
 69.75181     44.0 1.058e+04 3.887e-09
 69.76781     44.8 1.067e+04 4.159e-09
 69.77769     45.6 1.047e+04 3.598e-09
 69.79133     46.5 1.054e+04 3.981e-09
 69.80895     47.2 1.066e+04 4.506e-09
 69.81883     47.9 1.068e+04 4.706e-09
 69.83084     48.5 1.086e+04 5.618e-09
 69.85060     49.0 1.102e+04 6.763e-09
 69.87036     49.5 1.123e+04 8.043e-09
 69.89012     49.9 1.144e+04 9.324e-09
 69.90988     50.2 1.164e+04 1.047e-08
 69.92963     50.3 1.186e+04 1.132e-08
 69.94939     50.4 1.198e+04 1.189e-08
 69.96790     50.3 1.203e+04 1.217e-08
 69.97778     50.2 1.214e+04 1.278e-08
 69.98617     50.0 1.207e+04 1.211e-08
 69.99605     50.4 1.198e+04 1.221e-08
 70.00867     50.3 1.179e+04 1.109e-08
 70.02843     50.3 1.164e+04 9.879e-09
 70.04819     50.4 1.155e+04 8.698e-09
 70.06794     50.5 1.151e+04 7.602e-09
 70.08770     50.6 1.150e+04 6.638e-09
 70.10746     50.8 1.149e+04 5.814e-09
 70.12685     51.1 1.153e+04 5.035e-09
 70.13673     50.9 1.137e+04 4.083e-09
 70.14698     51.3 1.148e+04 3.370e-09
 70.16674     51.6 1.159e+04 2.898e-09
 70.19474     52.1 1.172e+04 2.234e-09
 70.21460     52.4 1.154e+04 2.355e-09
 70.23609     53.6 1.166e+04 2.029e-09
 70.27560     55.2 1.171e+04 1.964e-09
 70.31512     57.0 1.177e+04 1.989e-09
 70.35464     59.0 1.191e+04 2.117e-09
 70.39415     60.9 1.201e+04 2.264e-09
 70.43367     62.7 1.217e+04 2.487e-09
 70.45482     64.2 1.233e+04 2.573e-09
 70.46460     64.1 1.243e+04 3.571e-09
 70.48287     64.6 1.247e+04 3.692e-09
 70.50263     65.5 1.247e+04 3.860e-09
 70.52239     66.0 1.246e+04 3.976e-09
 70.54214     66.8 1.243e+04 4.256e-09
 70.56190     67.4 1.241e+04 4.650e-09
 70.59164     68.8 1.243e+04 5.285e-09
 70.63125     69.8 1.267e+04 6.820e-09
 70.65121     69.5 1.311e+04 9.805e-09
 70.66099     70.5 1.295e+04 7.124e-09
 70.68045     69.6 1.375e+04 1.424e-08
 70.70021     68.7 1.492e+04 3.364e-08
 70.71997     67.8 1.588e+04 6.254e-08
 70.73973     66.4 1.619e+04 7.815e-08
 70.75949     64.9 1.613e+04 7.438e-08
 70.77252     63.5 1.569e+04 5.852e-08
 70.78240     62.8 1.628e+04 7.371e-08
 70.79900     61.5 1.531e+04 4.348e-08
 70.81876     60.2 1.427e+04 2.533e-08
 70.83852     59.7 1.337e+04 1.610e-08
 70.85828     59.7 1.284e+04 1.209e-08
 70.86947     60.1 1.251e+04 9.657e-09
 70.87935     60.1 1.272e+04 1.082e-08
 70.90777     61.0 1.267e+04 8.865e-09
 70.94739     62.7 1.237e+04 6.389e-09
 70.98690     64.8 1.213e+04 5.732e-09
 71.02642     67.2 1.206e+04 5.690e-09
 71.06594     69.9 1.207e+04 5.825e-09
 71.08802     72.7 1.211e+04 6.109e-09
 71.09294     72.9 1.214e+04 5.833e-09
 71.11037     72.5 1.221e+04 6.240e-09
 71.14497     75.5 1.231e+04 6.562e-09
 71.18449     78.4 1.256e+04 7.082e-09
 71.22400     80.8 1.274e+04 7.563e-09
 71.26352     83.6 1.287e+04 7.705e-09
 71.29306     85.0 1.286e+04 7.437e-09
 71.30618     86.2 1.287e+04 7.103e-09
 71.31606     86.3 1.288e+04 7.669e-09
 71.33248     87.7 1.287e+04 7.370e-09
 71.35224     89.0 1.285e+04 7.040e-09
 71.37200     90.3 1.282e+04 6.825e-09
 71.39176     91.7 1.281e+04 6.829e-09
 71.40831     93.3 1.278e+04 6.748e-09
 71.42817     93.6 1.250e+04 6.231e-09
 71.46111     96.2 1.262e+04 6.533e-09
 71.50062     98.9 1.271e+04 6.794e-09
 71.52473    101.3 1.276e+04 7.025e-09
 71.54449    101.6 1.288e+04 7.943e-09
 71.57966    103.6 1.287e+04 7.738e-09
 71.61917    105.6 1.282e+04 7.111e-09
 71.65869    107.6 1.277e+04 6.368e-09
 71.69821    109.7 1.276e+04 5.748e-09
 71.72641    112.0 1.281e+04 5.396e-09
 71.74616    112.4 1.270e+04 5.951e-09
 71.77724    114.6 1.273e+04 5.939e-09
 71.81676    116.8 1.281e+04 5.963e-09
 71.85627    118.9 1.295e+04 6.056e-09
 71.89579    120.8 1.305e+04 6.059e-09
 71.93531    122.6 1.311e+04 5.891e-09
 71.96145    124.5 1.321e+04 5.365e-09
 71.98121    124.9 1.318e+04 5.901e-09
 72.01434    126.9 1.325e+04 5.543e-09
 72.04430    129.0 1.339e+04 5.188e-09
 72.06406    128.4 1.333e+04 5.309e-09
 72.09337    130.7 1.340e+04 5.166e-09
 72.13289    133.1 1.345e+04 5.085e-09
 72.17241    135.5 1.349e+04 5.009e-09
 72.21192    137.9 1.349e+04 4.828e-09
 72.25144    140.4 1.349e+04 4.525e-09
 72.29096    142.9 1.351e+04 4.114e-09
 72.33047    145.5 1.353e+04 3.729e-09
 72.36220    148.1 1.354e+04 3.478e-09
 72.38196    147.7 1.333e+04 2.529e-09
 72.39816    150.1 1.343e+04 2.640e-09
 72.41792    150.2 1.352e+04 1.735e-09
 72.44903    152.6 1.362e+04 1.818e-09
 72.48854    155.0 1.369e+04 1.913e-09
 72.52806    157.2 1.368e+04 2.028e-09
 72.56758    159.4 1.354e+04 2.188e-09
 72.60709    161.4 1.336e+04 2.408e-09
 72.64661    163.3 1.317e+04 2.670e-09
 72.68010    165.3 1.301e+04 2.944e-09
 72.69985    164.1 1.300e+04 3.307e-09
 72.72564    166.2 1.283e+04 3.515e-09
 72.76516    168.3 1.263e+04 3.680e-09
 72.80468    170.5 1.255e+04 3.703e-09
 72.83487    172.7 1.239e+04 3.683e-09
 72.85463    173.8 1.244e+04 3.652e-09
 72.88371    176.0 1.227e+04 3.528e-09
 72.92323    178.3 1.208e+04 3.244e-09
 72.96274    180.6 1.192e+04 2.834e-09
 72.99799    183.0 1.180e+04 2.395e-09
 73.01775    182.6 1.175e+04 2.067e-09
 73.04178    185.2 1.164e+04 1.740e-09
 73.08129    187.9 1.154e+04 1.452e-09
 73.12081    190.5 1.144e+04 1.210e-09
 73.16033    193.3 1.134e+04 1.009e-09
 73.19984    196.1 1.123e+04 8.436e-10
 73.23936    199.1 1.112e+04 7.077e-10
 73.27158    202.1 1.102e+04 5.967e-10
 73.29134    202.9 1.113e+04 6.206e-10
 73.31589    206.0 1.104e+04 5.283e-10
 73.33565    206.1 1.107e+04 4.695e-10
 73.35791    209.2 1.104e+04 4.084e-10
 73.39743    212.3 1.101e+04 3.654e-10
 73.43695    215.6 1.088e+04 3.494e-10
 73.47646    218.8 1.077e+04 3.499e-10
 73.51598    222.1 1.076e+04 3.496e-10
 73.55550    225.4 1.075e+04 3.510e-10
 73.59501    228.7 1.070e+04 3.594e-10
 73.63378    231.9 1.061e+04 3.802e-10
 73.65354    231.8 1.064e+04 3.771e-10
 73.67405    234.9 1.059e+04 4.148e-10
 73.70830    238.0 1.058e+04 4.739e-10
 73.72805    238.8 1.076e+04 4.961e-10
 73.75308    241.9 1.075e+04 5.636e-10
 73.79260    244.9 1.074e+04 6.652e-10
 73.83211    247.8 1.074e+04 8.124e-10
 73.87163    250.8 1.078e+04 1.031e-09
 73.91115    253.8 1.085e+04 1.353e-09
 73.95066    256.6 1.093e+04 1.767e-09
 73.97144    259.2 1.100e+04 2.246e-09
 73.99120    258.8 1.096e+04 2.125e-09
 74.02970    261.3 1.093e+04 2.471e-09
 74.06921    263.7 1.088e+04 2.803e-09
 74.10873    265.8 1.085e+04 3.041e-09
 74.14501    267.6 1.084e+04 3.076e-09
 74.16477    269.5 1.085e+04 3.563e-09
 74.18776    271.1 1.094e+04 3.744e-09
 74.22728    272.1 1.094e+04 3.651e-09
 74.26680    273.0 1.087e+04 3.142e-09
 74.28934    274.0 1.072e+04 2.255e-09
 74.30909    273.5 1.075e+04 2.165e-09
 74.34583    274.9 1.059e+04 1.442e-09
 74.38535    276.6 1.039e+04 9.575e-10
 74.42486    278.7 1.003e+04 8.114e-10
 74.46438    281.1 9.962e+03 8.045e-10
 74.50390    283.7 9.954e+03 8.057e-10
 74.54342    286.2 9.943e+03 8.234e-10
 74.58172    288.7 9.958e+03 8.684e-10
 74.60148    289.6 1.000e+04 1.002e-09
 74.60723    292.0 1.001e+04 1.094e-09
 74.62699    291.9 1.011e+04 1.179e-09
 74.66197    294.2 1.011e+04 1.263e-09
 74.70148    296.6 1.010e+04 1.334e-09
 74.74100    299.0 1.009e+04 1.397e-09
 74.78052    301.4 1.006e+04 1.470e-09
 74.82003    304.0 1.005e+04 1.577e-09
 74.85955    306.6 1.009e+04 1.756e-09
 74.89907    309.3 1.022e+04 2.040e-09
 74.92513    312.1 1.048e+04 2.460e-09
 74.94489    311.9 1.071e+04 2.628e-09
 74.97810    314.5 1.097e+04 3.105e-09
 75.01762    316.0 1.107e+04 3.506e-09
 75.03809    318.3 1.107e+04 4.061e-09
 75.04788    319.1 1.110e+04 2.943e-09
 75.06682    320.2 1.121e+04 3.350e-09
 75.08388    321.8 1.130e+04 4.014e-09
 75.09376    321.7 1.131e+04 3.885e-09
 75.10633    323.4 1.134e+04 4.446e-09
 75.12609    325.0 1.138e+04 4.960e-09
 75.14585    326.3 1.144e+04 5.543e-09
 75.16561    327.5 1.158e+04 6.447e-09
 75.18537    328.6 1.189e+04 8.164e-09
 75.20513    329.5 1.250e+04 1.172e-08
 75.22488    330.2 1.337e+04 1.886e-08
 75.24283    330.9 1.437e+04 3.224e-08
 75.25271    329.6 1.486e+04 4.144e-08
 75.25635    330.0 1.568e+04 6.580e-08
 75.26623    330.9 1.499e+04 3.045e-08
 75.28416    330.8 1.567e+04 4.816e-08
 75.30392    331.0 1.614e+04 6.440e-08
 75.32368    331.4 1.641e+04 7.581e-08
 75.34343    331.2 1.682e+04 7.793e-08
 75.36319    330.4 1.684e+04 7.603e-08
 75.38295    328.9 1.671e+04 6.956e-08
 75.40178    327.4 1.631e+04 6.196e-08
 75.41166    325.7 1.567e+04 5.690e-08
 75.42247    325.3 1.567e+04 5.834e-08
 75.44223    325.0 1.579e+04 6.614e-08
 75.45700    325.1 1.591e+04 7.315e-08
 75.46683    325.2 1.637e+04 8.955e-08
 75.47466    325.0 1.657e+04 9.322e-08
 75.47960    325.4 1.679e+04 1.176e-07
 75.48609    325.4 1.714e+04 1.425e-07
 75.49103    324.9 1.705e+04 1.434e-07
 75.49646    325.0 1.740e+04 1.710e-07
 75.50634    325.0 1.783e+04 1.840e-07
 75.51622    324.7 1.795e+04 1.821e-07
 75.52610    324.1 1.801e+04 1.741e-07
 75.53598    323.6 1.789e+04 1.575e-07
 75.54586    323.1 1.764e+04 1.376e-07
 75.55574    322.5 1.732e+04 1.206e-07
 75.56557    322.1 1.707e+04 1.079e-07
 75.57056    322.5 1.656e+04 1.014e-07
 75.58054    322.3 1.615e+04 8.304e-08
 75.60029    322.2 1.551e+04 5.998e-08
 75.62005    322.2 1.476e+04 4.105e-08
 75.63981    322.4 1.400e+04 2.854e-08
 75.65957    322.7 1.333e+04 2.133e-08
 75.67933    323.2 1.282e+04 1.747e-08
 75.69306    324.1 1.245e+04 1.531e-08
 75.70294    324.3 1.318e+04 1.928e-08
 75.71884    325.1 1.283e+04 1.619e-08
 75.72955    326.1 1.271e+04 1.531e-08
 75.73943    326.8 1.182e+04 9.072e-09
 75.75836    328.0 1.182e+04 9.057e-09
 75.77812    329.4 1.186e+04 9.132e-09
 75.79788    330.8 1.192e+04 9.388e-09
 75.81764    332.2 1.201e+04 9.848e-09
 75.83739    333.7 1.213e+04 1.056e-08
 75.85715    335.1 1.228e+04 1.150e-08
 75.87691    336.6 1.245e+04 1.261e-08
 75.88850    338.0 1.263e+04 1.378e-08
 75.89838    338.9 1.180e+04 9.092e-09
 75.91142    340.5 1.200e+04 1.011e-08
 75.92130    340.5 1.168e+04 9.918e-09
 75.93619    342.1 1.175e+04 9.983e-09
 75.95594    343.7 1.179e+04 9.891e-09
 75.97570    345.2 1.182e+04 9.478e-09
 75.99546    346.7 1.183e+04 8.772e-09
 76.01522    348.1 1.178e+04 7.957e-09
 76.03498    349.5 1.167e+04 7.011e-09
 76.04745    350.8 1.151e+04 6.019e-09
 76.05733    352.4 1.186e+04 7.193e-09
 76.07450    353.8 1.188e+04 6.454e-09
 76.09425    355.2 1.186e+04 5.699e-09
 76.11401    356.6 1.179e+04 5.030e-09
 76.12978    358.1 1.165e+04 4.447e-09
 76.13966    358.6 1.001e+04 3.682e-09
 76.15353    360.2 9.900e+03 3.403e-09
 76.17329    361.8 9.788e+03 3.199e-09
 76.19305    363.5 9.751e+03 3.133e-09
 76.20640    365.2 9.747e+03 3.131e-09
 76.21628    366.5 9.808e+03 3.185e-09
 76.23256    368.4 9.832e+03 3.219e-09
 76.25232    370.5 9.904e+03 3.366e-09
 76.27208    372.2 1.051e+04 3.807e-09
 76.28582    372.4 1.048e+04 3.925e-09
 76.29071    372.2 1.073e+04 3.993e-09
 76.29668    371.4 1.219e+04 4.733e-09
 76.30656    368.7 1.786e+04 1.139e-08
 76.31644    364.8 2.036e+04 1.400e-07
 76.32632    362.9 2.008e+04 7.400e-07
 76.33620    358.8 1.772e+04 5.516e-06
 76.34358    353.5 1.528e+04 3.219e-05
 76.34850    348.6 1.410e+04 1.871e-04
 76.35293    342.6 1.377e+04 2.781e-04
 76.35540    339.7 1.526e+04 3.402e-05
 76.35838    338.5 1.524e+04 3.402e-05
 76.36522    339.3 1.686e+04 1.164e-05
 76.37016    335.1 1.528e+04 4.477e-05
 76.37569    337.1 1.746e+04 9.374e-06
 76.38559    339.7 2.029e+04 2.134e-06
 76.39547    340.3 2.130e+04 9.036e-07
 76.40535    339.8 2.134e+04 5.199e-07
 76.41523    338.5 2.194e+04 2.485e-07
 76.42511    335.8 2.212e+04 9.578e-08
 76.43499    333.1 2.074e+04 4.326e-08
 76.44986    329.6 1.796e+04 3.491e-08
 76.46966    326.2 1.572e+04 2.739e-08
 76.48942    321.8 1.569e+04 2.925e-08
 76.50918    317.5 1.678e+04 3.591e-08
 76.52429    311.5 1.883e+04 6.056e-08
 76.53412    307.7 2.024e+04 1.704e-07
 76.54366    304.1 2.040e+04 2.450e-07
 76.55354    300.3 2.034e+04 2.907e-07
 76.56342    297.3 2.023e+04 2.787e-07
 76.57133    294.6 2.012e+04 2.326e-07
 76.57627    294.2 2.017e+04 2.981e-07
 76.58318    292.0 2.010e+04 2.126e-07
 76.59306    289.9 2.000e+04 1.445e-07
 76.60792    285.3 1.954e+04 7.227e-08
 76.62773    279.3 1.775e+04 3.009e-08
 76.64749    273.7 1.439e+04 1.487e-08
 76.66725    270.1 1.161e+04 1.058e-08
 76.68324    269.2 1.127e+04 9.400e-09
 76.69312    268.7 1.102e+04 8.579e-09
 76.70676    268.7 1.101e+04 8.616e-09
 76.72652    268.8 1.095e+04 8.322e-09
 76.74628    268.9 1.075e+04 7.246e-09
 76.76604    268.8 1.052e+04 5.848e-09
 76.78485    268.6 1.022e+04 4.366e-09
 76.79472    268.0 1.012e+04 3.954e-09
 76.80556    267.7 9.878e+03 3.266e-09
 76.83241    269.0 9.677e+03 2.940e-09
 76.85226    268.9 9.323e+03 2.422e-09
 76.87491    270.3 9.121e+03 2.226e-09
 76.91442    271.7 9.141e+03 2.242e-09
 76.95394    272.4 9.271e+03 2.375e-09
 76.99346    272.3 9.457e+03 2.612e-09
 77.02300    272.1 9.577e+03 2.854e-09
 77.04266    272.3 9.757e+03 3.315e-09
 77.06241    272.2 1.002e+04 4.278e-09
 77.08217    272.0 1.034e+04 5.582e-09
 77.10193    271.7 1.067e+04 6.752e-09
 77.12169    271.1 1.096e+04 7.091e-09
 77.14145    270.1 1.098e+04 7.073e-09
 77.16009    268.8 1.101e+04 6.843e-09
 77.16997    268.0 1.083e+04 5.700e-09
 77.18097    265.9 1.083e+04 4.693e-09
 77.20072    263.9 1.061e+04 3.643e-09
 77.22165    262.7 1.018e+04 2.651e-09
 77.24151    262.9 1.024e+04 2.884e-09
 77.27007    262.2 9.664e+03 2.107e-09
 77.30959    261.7 9.452e+03 1.765e-09
 77.34911    261.0 9.462e+03 1.758e-09
 77.38862    260.1 9.535e+03 1.797e-09
 77.42814    259.0 9.701e+03 1.949e-09
 77.46766    257.5 9.885e+03 2.204e-09
 77.48806    255.7 1.005e+04 2.523e-09
 77.50782    257.3 1.001e+04 2.482e-09
 77.54669    255.2 1.015e+04 2.843e-09
 77.58621    253.6 1.024e+04 3.102e-09
 77.61575    252.2 1.030e+04 3.417e-09
 77.63541    251.0 1.034e+04 3.699e-09
 77.64681    249.5 1.037e+04 3.908e-09
 77.65669    250.4 1.042e+04 3.918e-09
 77.66815    248.8 1.046e+04 4.085e-09
 77.67803    248.9 1.053e+04 4.098e-09
 77.69468    247.4 1.053e+04 4.187e-09
 77.71444    245.9 1.053e+04 4.307e-09
 77.73420    244.6 1.053e+04 4.434e-09
 77.75396    243.3 1.051e+04 4.527e-09
 77.77372    242.1 1.046e+04 4.588e-09
 77.79348    241.0 1.042e+04 4.605e-09
 77.80576    240.0 1.040e+04 4.620e-09
 77.81564    240.9 1.038e+04 4.358e-09
 77.83299    239.9 1.038e+04 4.263e-09
 77.85275    239.0 1.042e+04 4.165e-09
 77.87251    238.0 1.049e+04 4.086e-09
 77.88650    236.7 1.055e+04 3.984e-09
 77.89638    236.6 1.048e+04 3.521e-09
 77.91203    235.5 1.051e+04 3.525e-09
 77.93178    234.3 1.052e+04 3.487e-09
 77.95154    233.2 1.048e+04 3.379e-09
 77.96471    232.1 1.041e+04 3.194e-09
 77.97459    232.3 1.047e+04 2.927e-09
 77.99106    231.6 1.038e+04 2.850e-09
 78.01082    230.6 1.036e+04 2.713e-09
 78.03058    230.0 1.028e+04 2.676e-09
 78.05033    229.4 1.019e+04 2.626e-09
 78.07009    229.2 1.015e+04 2.635e-09
 78.08985    229.2 1.009e+04 2.718e-09
 78.10486    229.0 1.003e+04 3.111e-09
 78.11474    229.3 1.007e+04 3.229e-09
 78.12365    228.6 1.035e+04 4.066e-09
 78.13353    230.3 1.013e+04 3.285e-09
 78.14913    229.8 1.045e+04 4.265e-09
 78.16889    229.0 1.094e+04 5.821e-09
 78.18864    227.8 1.157e+04 8.316e-09
 78.20840    226.1 1.233e+04 1.227e-08
 78.22816    224.1 1.308e+04 1.771e-08
 78.24792    221.8 1.372e+04 2.281e-08
 78.26768    219.0 1.408e+04 2.403e-08
 78.28260    215.8 1.409e+04 2.378e-08
 78.29248    218.6 1.408e+04 2.407e-08
 78.30719    215.2 1.404e+04 2.289e-08
 78.32322    212.0 1.374e+04 1.865e-08
 78.33310    211.9 1.384e+04 1.924e-08
 78.34671    209.2 1.326e+04 1.315e-08
 78.37645    203.9 1.223e+04 6.766e-09
 78.41606    199.9 1.069e+04 3.280e-09
 78.44175    197.8 9.607e+03 2.515e-09
 78.46150    201.3 9.575e+03 2.414e-09
 78.49509    200.1 9.455e+03 2.398e-09
 78.53189    199.9 9.448e+03 2.457e-09
 78.55165    199.8 9.322e+03 2.237e-09
 78.57413    199.6 9.328e+03 2.509e-09
 78.61364    198.7 9.309e+03 2.864e-09
 78.65316    198.2 9.280e+03 3.161e-09
 78.68270    199.2 9.248e+03 3.586e-09
 78.70236    199.6 9.298e+03 4.124e-09
 78.72212    199.7 9.402e+03 4.714e-09
 78.74188    199.6 9.536e+03 5.321e-09
 78.75945    199.2 9.692e+03 5.984e-09
 78.76762    200.1 9.560e+03 5.526e-09
 78.76981    199.9 9.559e+03 5.653e-09
 78.78140    199.2 9.668e+03 6.124e-09
 78.80115    198.4 9.815e+03 6.736e-09
 78.82091    197.4 1.003e+04 7.570e-09
 78.84067    196.4 1.030e+04 8.669e-09
 78.86043    195.3 1.057e+04 9.930e-09
 78.88019    194.1 1.074e+04 1.100e-08
 78.89995    192.8 1.076e+04 1.129e-08
 78.91840    191.4 1.074e+04 1.129e-08
 78.92827    192.2 1.039e+04 9.497e-09
 78.93946    191.0 1.030e+04 9.440e-09
 78.95922    190.0 1.023e+04 9.463e-09
 78.97829    189.1 1.020e+04 9.578e-09
 78.98816    188.6 1.013e+04 9.536e-09
 78.99874    187.7 1.015e+04 9.982e-09
 79.01850    186.6 1.030e+04 1.072e-08
 79.03825    184.8 1.061e+04 1.200e-08
 79.05801    181.6 1.134e+04 1.511e-08
 79.07734    175.6 1.316e+04 2.554e-08
 79.08722    180.4 1.094e+04 1.493e-08
 79.09753    174.4 1.307e+04 2.753e-08
 79.11729    165.8 1.627e+04 5.844e-08
 79.13705    156.6 1.842e+04 9.698e-08
 79.15680    148.0 1.901e+04 9.936e-08
 79.17656    140.7 1.874e+04 7.650e-08
 79.19632    134.8 1.735e+04 3.851e-08
 79.20652    129.7 1.447e+04 1.608e-08
 79.21640    130.6 1.377e+04 1.316e-08
 79.23584    126.9 1.147e+04 7.152e-09
 79.24617    123.4 1.033e+04 4.543e-09
 79.25605    127.9 1.080e+04 5.776e-09
 79.28533    121.4 1.019e+04 3.890e-09
 79.32495    119.5 9.715e+03 3.725e-09
 79.36446    119.5 9.848e+03 3.863e-09
 79.39544    119.5 1.037e+04 4.565e-09
 79.41519    121.8 1.020e+04 4.589e-09
 79.42507    121.9 1.093e+04 5.920e-09
 79.44483    123.5 1.094e+04 6.040e-09
 79.47304    122.0 1.140e+04 7.324e-09
 79.49270    121.1 1.177e+04 8.835e-09
 79.51246    120.3 1.226e+04 1.170e-08
 79.53221    119.5 1.296e+04 1.703e-08
 79.55197    118.6 1.356e+04 2.311e-08
 79.56407    117.4 1.369e+04 2.409e-08
 79.57395    118.8 1.420e+04 2.953e-08
 79.59149    117.3 1.409e+04 2.815e-08
 79.61125    116.5 1.355e+04 2.261e-08
 79.63101    115.7 1.290e+04 1.636e-08
 79.64323    115.1 1.240e+04 1.214e-08
 79.65311    115.3 1.233e+04 1.137e-08
 79.68050    112.7 1.176e+04 7.856e-09
 79.71333    110.8 1.096e+04 5.358e-09
 79.73309    112.0 1.122e+04 5.502e-09
 79.75963    110.5 1.054e+04 4.576e-09
 79.79915    110.5 1.020e+04 4.275e-09
 79.83866    110.9 1.001e+04 4.072e-09
 79.86178    111.9 9.839e+03 3.790e-09
 79.88154    112.5 9.668e+03 3.283e-09
 79.91770    113.6 9.497e+03 2.930e-09
 79.95721    114.8 9.324e+03 2.502e-09
 79.99673    116.1 9.144e+03 2.053e-09
 80.03123    117.5 8.972e+03 1.626e-09
 80.05099    118.0 8.904e+03 1.523e-09
 80.07577    119.5 8.820e+03 1.398e-09
 80.11528    121.0 8.736e+03 1.288e-09
 80.15480    122.6 8.646e+03 1.182e-09
 80.19432    124.1 8.552e+03 1.082e-09
 80.23383    125.7 8.453e+03 9.994e-10
 80.27335    127.3 8.354e+03 9.781e-10
 80.29850    128.9 8.331e+03 9.894e-10
 80.31826    129.6 8.236e+03 9.328e-10
 80.34912    131.2 8.210e+03 9.673e-10
 80.36888    131.6 8.185e+03 9.557e-10
 80.39190    133.2 8.165e+03 1.068e-09
 80.43142    134.7 8.213e+03 1.338e-09
 80.47093    136.0 8.327e+03 1.750e-09
 80.51045    137.2 8.456e+03 2.198e-09
 80.54997    138.2 8.541e+03 2.522e-09
 80.58948    139.1 8.587e+03 2.619e-09
 80.62900    139.7 8.624e+03 2.675e-09
 80.66702    140.0 8.665e+03 2.766e-09
 80.68678    140.5 8.413e+03 2.219e-09
 80.70803    140.5 8.512e+03 2.583e-09
 80.73521    140.1 8.594e+03 2.994e-09
 80.75497    140.5 8.574e+03 2.946e-09
 80.77709    140.5 8.637e+03 3.450e-09
 80.79675    141.5 8.883e+03 4.339e-09
 80.81651    142.2 9.281e+03 5.675e-09
 80.83565    142.2 9.677e+03 7.175e-09
 80.84553    142.4 9.778e+03 7.610e-09
 80.85603    142.4 1.024e+04 9.624e-09
 80.87578    142.3 1.072e+04 1.196e-08
 80.89554    141.9 1.114e+04 1.418e-08
 80.91530    141.3 1.134e+04 1.494e-08
 80.93506    140.5 1.132e+04 1.483e-08
 80.95337    139.7 1.121e+04 1.415e-08
 80.96325    139.8 1.127e+04 1.426e-08
 80.97458    139.0 1.103e+04 1.299e-08
 80.99434    138.2 1.079e+04 1.183e-08
 81.00448    137.2 1.073e+04 1.157e-08
 81.01436    137.1 1.067e+04 1.127e-08
 81.03385    135.9 1.072e+04 1.144e-08
 81.05361    134.2 1.096e+04 1.248e-08
 81.07337    132.2 1.144e+04 1.520e-08
 81.09313    129.8 1.211e+04 1.999e-08
 81.11289    126.2 1.330e+04 2.867e-08
 81.13264    120.8 1.509e+04 4.596e-08
 81.15240    114.6 1.657e+04 7.199e-08
 81.16343    108.2 1.695e+04 8.163e-08
 81.17287    106.7 1.681e+04 7.516e-08
 81.18161    107.6 1.739e+04 8.795e-08
 81.19192    101.3 1.696e+04 7.737e-08
 81.21168     96.5 1.567e+04 4.818e-08
 81.23144     92.8 1.369e+04 2.323e-08
 81.25119     89.2 1.153e+04 1.082e-08
 81.27095     87.1 1.080e+04 7.033e-09
 81.30069     86.2 1.021e+04 4.818e-09
 81.32247     85.4 9.735e+03 3.139e-09
 81.34223     84.5 9.220e+03 2.421e-09
 81.37982     84.6 8.953e+03 2.169e-09
 81.41934     85.4 8.961e+03 2.309e-09
 81.45885     86.5 9.154e+03 3.059e-09
 81.49837     87.4 9.667e+03 4.578e-09
 81.53789     87.5 1.012e+04 6.244e-09
 81.57740     87.2 1.046e+04 7.666e-09
 81.60863     86.2 1.076e+04 8.893e-09
 81.62839     85.0 1.071e+04 8.651e-09
 81.64047     83.4 1.097e+04 9.600e-09
 81.66023     83.7 1.110e+04 1.079e-08
 81.68598     82.3 1.112e+04 1.111e-08
 81.70564     81.7 1.114e+04 1.154e-08
 81.72540     81.1 1.123e+04 1.226e-08
 81.74515     80.3 1.138e+04 1.303e-08
 81.76491     79.4 1.154e+04 1.370e-08
 81.78467     78.5 1.164e+04 1.415e-08
 81.79922     77.4 1.181e+04 1.467e-08
 81.80910     77.6 1.206e+04 1.686e-08
 81.82419     76.1 1.216e+04 1.730e-08
 81.83667     74.5 1.223e+04 1.758e-08
 81.84655     74.2 1.238e+04 1.879e-08
 81.86370     72.4 1.234e+04 1.852e-08
 81.88346     70.4 1.227e+04 1.773e-08
 81.90322     69.2 1.215e+04 1.693e-08
 81.93296     66.8 1.218e+04 1.458e-08
 81.95836     63.4 1.149e+04 8.594e-09
 81.97812     64.1 1.178e+04 1.126e-08
 82.01209     61.5 1.084e+04 5.749e-09
 82.04535     59.3 9.639e+03 2.826e-09
 82.06510     57.6 9.425e+03 2.693e-09
 82.09112     57.2 9.075e+03 2.512e-09
 82.13064     57.4 9.074e+03 2.707e-09
 82.17016     57.8 9.180e+03 3.205e-09
 82.20967     58.3 9.298e+03 3.630e-09
 82.24919     58.7 9.285e+03 3.607e-09
 82.27626     59.2 9.145e+03 3.248e-09
 82.29602     60.8 9.368e+03 3.891e-09
 82.32822     61.5 9.130e+03 3.210e-09
 82.36774     62.1 8.855e+03 2.433e-09
 82.40726     62.8 8.618e+03 1.911e-09
 82.44677     63.6 8.531e+03 1.802e-09
 82.48206     64.6 8.552e+03 1.835e-09
 82.50182     64.9 8.540e+03 1.736e-09
 82.52581     66.0 8.654e+03 2.005e-09
 82.56532     67.1 8.933e+03 2.498e-09
 82.59416     68.2 9.152e+03 2.772e-09
 82.61392     70.2 9.273e+03 2.939e-09
 82.64436     71.1 9.328e+03 2.968e-09
 82.68387     72.1 9.285e+03 2.782e-09
 82.72339     73.0 9.139e+03 2.289e-09
 82.76291     73.8 8.909e+03 1.867e-09
 82.80242     74.8 8.788e+03 1.811e-09
 82.84194     75.7 8.780e+03 1.929e-09
 82.88146     76.6 8.846e+03 2.329e-09
 82.91205     77.0 8.975e+03 2.881e-09
 82.92961     79.9 8.827e+03 2.332e-09
 82.93853     79.8 8.804e+03 2.144e-09
 82.96049     79.8 8.936e+03 2.586e-09
 83.00001     79.0 8.964e+03 2.862e-09
 83.02955     78.7 8.864e+03 3.174e-09
 83.04921     78.8 9.012e+03 3.734e-09
 83.06897     78.1 9.421e+03 4.826e-09
 83.08069     76.5 1.004e+04 6.865e-09
 83.09056     78.7 9.867e+03 6.403e-09
 83.10848     76.9 1.062e+04 9.589e-09
 83.12824     75.0 1.143e+04 1.435e-08
 83.14681     73.3 1.195e+04 1.865e-08
 83.15669     72.1 1.234e+04 2.127e-08
 83.16776     70.1 1.234e+04 2.136e-08
 83.18752     68.2 1.205e+04 1.939e-08
 83.20728     66.2 1.157e+04 1.562e-08
 83.22703     63.8 1.117e+04 1.263e-08
 83.23963     61.4 1.090e+04 1.146e-08
 83.24951     62.6 1.146e+04 1.345e-08
 83.26655     60.7 1.141e+04 1.341e-08
 83.28631     59.3 1.146e+04 1.455e-08
 83.30607     58.9 1.162e+04 1.683e-08
 83.32583     59.1 1.174e+04 1.929e-08
 83.34558     59.9 1.188e+04 2.055e-08
 83.36517     60.0 1.224e+04 2.199e-08
 83.37505     56.8 1.338e+04 2.748e-08
 83.38510     53.1 1.556e+04 3.798e-08
 83.39858     48.5 1.639e+04 6.084e-08
 83.40846     51.1 1.611e+04 4.376e-08
 83.42462     46.9 1.630e+04 6.427e-08
 83.44438     44.0 1.642e+04 8.291e-08
 83.46413     39.3 1.762e+04 7.602e-08
 83.48389     31.6 1.807e+04 4.114e-08
 83.50365     21.2 1.353e+04 2.046e-08
 83.52341     14.6 1.139e+04 1.625e-08
 83.54317     11.0 1.167e+04 1.674e-08
 83.55753      7.7 1.189e+04 1.629e-08
 83.56741      7.9 1.203e+04 1.754e-08
 83.58268      4.3 1.168e+04 1.695e-08
 83.59340      1.3 1.152e+04 1.697e-08
 83.60328      2.7 1.157e+04 1.570e-08
 83.62220      0.4 1.156e+04 1.571e-08
 83.64196     -0.3 1.176e+04 1.625e-08
 83.67170     -4.5 1.147e+04 1.483e-08
 83.71131     -8.4 1.041e+04 8.074e-09
 83.75083    -13.2 8.237e+03 2.552e-09
 83.79034    -14.3 7.730e+03 1.906e-09
 83.81195    -14.1 7.646e+03 1.769e-09
 83.83171    -13.2 7.717e+03 1.757e-09
 83.86574    -12.8 7.681e+03 1.677e-09
 83.88550    -13.0 7.624e+03 1.547e-09
 83.90889    -12.5 7.400e+03 1.183e-09
 83.94841    -11.9 7.220e+03 8.787e-10
 83.98793    -11.3 7.113e+03 6.667e-10
 84.02744    -11.1 7.082e+03 5.857e-10
 84.06696    -11.0 7.207e+03 6.489e-10
 84.10648    -10.7 7.366e+03 9.768e-10
 84.14599     -9.6 7.622e+03 1.264e-09
 84.18364     -9.1 7.712e+03 1.324e-09
 84.20340     -9.4 7.610e+03 1.179e-09
 84.22503     -9.0 7.564e+03 1.130e-09
 84.24867     -8.5 7.518e+03 9.952e-10
 84.26842     -8.2 7.651e+03 1.177e-09
 84.30406     -7.8 7.494e+03 1.037e-09
 84.34358     -7.0 7.431e+03 1.054e-09
 84.38310     -5.7 7.405e+03 1.134e-09
 84.42261     -4.2 7.395e+03 1.162e-09
 84.46213     -2.7 7.365e+03 1.099e-09
 84.50153     -1.7 7.332e+03 1.031e-09
 84.54105     -0.4 7.311e+03 1.066e-09
 84.58068     -0.0 7.558e+03 1.316e-09
 84.62020     -0.3 8.229e+03 2.056e-09
 84.65971     -0.8 9.460e+03 4.526e-09
 84.68538     -2.1 1.059e+04 8.316e-09
 84.70514     -0.6 9.959e+03 5.471e-09
 84.73875     -1.0 1.133e+04 1.078e-08
 84.76829     -6.4 1.106e+04 7.040e-09
 84.78795     -5.8 1.045e+04 1.011e-08
 84.80771     -3.2 1.093e+04 1.200e-08
 84.82746     -1.3 1.099e+04 1.090e-08
 84.83899     -0.3 1.154e+04 6.427e-09
 84.84887     -3.2 1.128e+04 8.095e-09
 84.86698     -6.1 1.138e+04 8.001e-09
 84.88674     -8.1 1.035e+04 9.463e-09
 84.90354     -8.2 1.076e+04 1.350e-08
 84.91342     -7.1 1.068e+04 1.325e-08
 84.92626     -6.1 1.170e+04 1.632e-08
 84.94601     -6.3 1.252e+04 1.780e-08
 84.96577     -8.0 1.262e+04 1.822e-08
 84.98553     -8.3 1.254e+04 2.102e-08
 84.99794     -8.6 1.241e+04 2.109e-08
 85.00782     -9.0 1.226e+04 2.024e-08
 85.02505     -8.5 1.215e+04 1.908e-08
 85.04481     -8.3 1.190e+04 1.612e-08
 85.06456     -8.7 1.157e+04 1.428e-08
 85.08432     -8.9 1.141e+04 1.382e-08
 85.10408     -8.5 1.129e+04 1.489e-08
 85.12189     -7.5 1.124e+04 1.687e-08
 85.13177     -7.3 1.163e+04 1.945e-08
 85.14360     -6.3 1.258e+04 2.302e-08
 85.15689     -6.6 1.399e+04 2.724e-08
 85.16677     -4.9 1.308e+04 1.822e-08
 85.18311     -7.1 1.499e+04 2.485e-08
 85.20287    -10.9 1.561e+04 4.201e-08
 85.22263    -13.2 1.668e+04 8.416e-08
 85.23596    -14.0 1.745e+04 1.361e-07
 85.23977    -13.5 1.691e+04 1.109e-07
 85.24121    -14.6 1.749e+04 1.396e-07
 85.24723    -14.6 1.806e+04 1.751e-07
 85.25711    -15.2 1.846e+04 2.011e-07
 85.26699    -15.3 1.917e+04 2.139e-07
 85.27687    -17.9 1.891e+04 1.941e-07
 85.28675    -19.1 1.847e+04 1.377e-07
 85.30162    -22.0 1.708e+04 7.255e-08
 85.31584    -24.9 1.501e+04 3.717e-08
 85.32073    -26.1 1.504e+04 5.846e-08
 85.32627    -26.1 1.494e+04 5.303e-08
 85.34020    -26.9 1.454e+04 4.417e-08
 85.35013    -27.6 1.455e+04 4.290e-08
 85.36094    -27.8 1.358e+04 2.797e-08
 85.38070    -28.1 1.265e+04 1.986e-08
 85.40046    -28.2 1.168e+04 1.525e-08
 85.42022    -27.9 1.125e+04 1.319e-08
 85.43997    -27.8 1.108e+04 1.225e-08
 85.45973    -27.9 1.086e+04 1.194e-08
 85.47479    -28.1 1.075e+04 1.195e-08
 85.48467    -28.2 1.117e+04 1.364e-08
 85.49925    -27.8 1.107e+04 1.418e-08
 85.51901    -27.3 1.122e+04 1.466e-08
 85.53877    -27.1 1.143e+04 1.483e-08
 85.55852    -27.3 1.165e+04 1.450e-08
 85.57828    -29.2 1.175e+04 1.393e-08
 85.59804    -29.9 1.170e+04 1.380e-08
 85.61780    -30.3 1.181e+04 1.431e-08
 85.63374    -32.1 1.299e+04 1.846e-08
 85.64361    -33.9 1.511e+04 3.101e-08
 85.65732    -40.5 1.901e+04 7.224e-08
 85.67209    -45.2 1.923e+04 2.018e-07
 85.67757    -45.5 1.862e+04 5.806e-07
 85.68251    -45.4 1.883e+04 3.210e-07
 85.69180    -45.7 1.849e+04 6.492e-07
 85.70167    -45.5 1.853e+04 9.915e-07
 85.71155    -46.6 1.859e+04 1.062e-06
 85.71805    -46.9 1.860e+04 6.868e-07
 85.72299    -47.8 1.845e+04 7.891e-07
 85.73131    -47.3 1.869e+04 2.937e-07
 85.74119    -47.9 1.854e+04 1.368e-07
 85.75606    -50.9 1.757e+04 6.789e-08
 85.77587    -53.9 1.513e+04 2.650e-08
 85.78684    -57.1 1.312e+04 1.487e-08
 85.79378    -56.8 1.315e+04 1.525e-08
 85.80256    -57.0 1.341e+04 1.766e-08
 85.81538    -59.3 1.266e+04 1.426e-08
 85.83514    -60.3 1.245e+04 1.399e-08
 85.85490    -60.7 1.238e+04 1.624e-08
 85.87466    -60.8 1.255e+04 1.826e-08
 85.89442    -61.2 1.268e+04 1.936e-08
 85.91418    -62.2 1.285e+04 2.072e-08
 85.93393    -63.6 1.305e+04 2.353e-08
 85.95163    -64.7 1.331e+04 2.822e-08
 85.96151    -65.2 1.293e+04 2.324e-08
 85.97345    -66.0 1.314e+04 2.693e-08
 85.99321    -66.6 1.334e+04 3.013e-08
 86.00520    -67.8 1.366e+04 3.252e-08
 86.01508    -68.1 1.339e+04 3.058e-08
 86.03273    -70.3 1.394e+04 3.315e-08
 86.05248    -74.2 1.530e+04 4.350e-08
 86.07224    -78.2 1.671e+04 7.428e-08
 86.09200    -81.7 1.760e+04 1.156e-07
 86.11058    -85.5 1.784e+04 1.299e-07
 86.12046    -84.2 1.830e+04 1.639e-07
 86.13152    -88.7 1.803e+04 1.474e-07
 86.15128    -93.2 1.654e+04 7.628e-08
 86.17103    -97.6 1.431e+04 3.400e-08
 86.19079   -101.0 1.250e+04 1.921e-08
 86.21055   -102.9 1.172e+04 1.406e-08
 86.22355   -104.1 1.132e+04 1.138e-08
 86.23343   -104.4 1.112e+04 1.031e-08
 86.25007   -105.3 1.080e+04 8.659e-09
 86.26953   -105.9 1.057e+04 7.684e-09
 86.27941   -105.6 1.048e+04 7.092e-09
 86.28958   -105.8 1.034e+04 6.778e-09
 86.30934   -105.9 1.027e+04 6.676e-09
 86.32910   -105.9 1.026e+04 6.654e-09
 86.34886   -105.7 1.025e+04 6.673e-09
 86.36862   -105.7 1.028e+04 6.824e-09
 86.38838   -106.1 1.036e+04 7.587e-09
 86.40814   -107.7 1.122e+04 1.112e-08
 86.42789   -109.1 1.269e+04 1.959e-08
 86.43836   -109.8 1.408e+04 3.411e-08
 86.44249   -109.4 1.434e+04 3.892e-08
 86.45179   -109.8 1.354e+04 2.945e-08
 86.46741   -110.4 1.435e+04 4.013e-08
 86.48717   -111.5 1.464e+04 4.413e-08
 86.50693   -113.0 1.460e+04 4.372e-08
 86.52669   -114.4 1.385e+04 3.373e-08
 86.54644   -116.0 1.264e+04 2.276e-08
 86.56620   -118.1 1.178e+04 1.755e-08
 86.58596   -120.5 1.159e+04 1.657e-08
 86.59730   -123.7 1.193e+04 1.747e-08
 86.60718   -125.3 1.263e+04 2.057e-08
 86.62548   -129.2 1.390e+04 3.071e-08
 86.64524   -133.1 1.464e+04 4.028e-08
 86.66027   -137.4 1.479e+04 4.268e-08
 86.67015   -137.6 1.438e+04 3.845e-08
 86.68475   -141.8 1.397e+04 3.468e-08
 86.70451   -146.4 1.303e+04 2.335e-08
 86.72427   -151.5 1.206e+04 1.564e-08
 86.74403   -156.4 1.159e+04 1.339e-08
 86.75625   -160.3 1.148e+04 1.309e-08
 86.76613   -162.4 1.132e+04 1.208e-08
 86.78354   -165.3 1.144e+04 1.361e-08
 86.80330   -168.5 1.167e+04 1.516e-08
 86.82306   -173.4 1.243e+04 1.715e-08
 86.84282   -181.1 1.493e+04 2.299e-08
 86.86258   -190.6 1.764e+04 4.032e-08
 86.87862   -199.6 1.873e+04 7.059e-08
 86.88850   -203.0 1.935e+04 1.149e-07
 86.89711   -206.9 1.877e+04 1.173e-07
 86.90694   -209.5 1.891e+04 1.201e-07
 86.91510   -212.7 1.851e+04 1.198e-07
 86.92004   -211.4 1.869e+04 1.209e-07
 86.92670   -213.9 1.855e+04 1.193e-07
 86.93657   -216.7 1.793e+04 1.035e-07
 86.94645   -218.8 1.756e+04 8.643e-08
 86.95633   -221.5 1.674e+04 6.772e-08
 86.96621   -223.7 1.621e+04 5.384e-08
 86.97609   -226.1 1.524e+04 4.189e-08
 86.98597   -227.5 1.479e+04 3.701e-08
 87.00084   -229.5 1.407e+04 3.168e-08
 87.02065   -232.1 1.307e+04 2.437e-08
 87.04040   -234.5 1.192e+04 1.826e-08
 87.06016   -236.0 1.107e+04 1.456e-08
 87.07415   -236.6 1.081e+04 1.308e-08
 87.08403   -235.8 1.075e+04 1.291e-08
 87.09698   -236.2 1.045e+04 1.127e-08
 87.10686   -235.6 1.050e+04 1.175e-08
 87.11944   -235.6 1.047e+04 1.146e-08
 87.13920   -235.6 1.047e+04 1.142e-08
 87.15895   -235.6 1.061e+04 1.174e-08
 87.17871   -235.6 1.087e+04 1.280e-08
 87.19847   -235.6 1.113e+04 1.415e-08
 87.21823   -235.5 1.135e+04 1.561e-08
 87.23310   -235.5 1.148e+04 1.681e-08
 87.24298   -234.8 1.071e+04 1.147e-08
 87.25775   -234.8 1.087e+04 1.249e-08
 87.27750   -234.8 1.096e+04 1.332e-08
 87.29726   -234.7 1.096e+04 1.373e-08
 87.31534   -234.6 1.095e+04 1.381e-08
 87.32521   -234.1 1.040e+04 1.118e-08
 87.33678   -233.6 1.023e+04 1.062e-08
 87.35654   -233.0 1.008e+04 9.827e-09
 87.37630   -232.3 9.961e+03 9.112e-09
 87.39204   -231.6 9.872e+03 8.516e-09
 87.40192   -231.3 9.815e+03 8.304e-09
 87.41581   -230.6 9.796e+03 8.002e-09
 87.43557   -229.9 9.764e+03 7.568e-09
 87.45533   -229.3 9.708e+03 7.023e-09
 87.47509   -228.8 9.621e+03 6.389e-09
 87.49485   -228.4 9.510e+03 5.725e-09
 87.51461   -228.0 9.392e+03 5.113e-09
 87.53369   -227.6 9.308e+03 4.661e-09
 87.54357   -227.6 9.110e+03 4.057e-09
 87.55099   -227.2 9.097e+03 3.959e-09
 87.56087   -226.7 9.215e+03 4.035e-09
 87.57388   -226.4 9.214e+03 3.974e-09
 87.59364   -226.2 9.219e+03 3.969e-09
 87.61340   -226.0 9.366e+03 4.037e-09
 87.63316   -226.0 9.599e+03 4.412e-09
 87.65291   -225.9 9.833e+03 5.012e-09
 87.67267   -225.7 1.007e+04 5.750e-09
 87.69243   -225.6 1.030e+04 6.511e-09
 87.70994   -225.5 1.048e+04 7.143e-09
 87.71982   -225.0 1.038e+04 6.540e-09
 87.73195   -224.8 1.056e+04 7.207e-09
 87.75171   -224.7 1.067e+04 7.650e-09
 87.76193   -224.8 1.070e+04 7.789e-09
 87.77181   -224.5 1.076e+04 8.211e-09
 87.79122   -224.7 1.078e+04 8.292e-09
 87.81098   -224.9 1.077e+04 8.298e-09
 87.83074   -224.9 1.069e+04 8.111e-09
 87.85050   -224.9 1.056e+04 7.633e-09
 87.86889   -224.9 1.040e+04 7.011e-09
 87.87877   -224.8 1.041e+04 7.036e-09
 87.89999   -225.2 1.018e+04 6.019e-09
 87.93961   -224.6 9.710e+03 4.233e-09
 87.97912   -223.8 9.315e+03 2.959e-09
 88.01815   -222.8 9.024e+03 2.172e-09
 88.03791   -222.8 9.219e+03 2.483e-09
 88.05816   -221.3 8.807e+03 1.675e-09
 88.09767   -220.1 8.699e+03 1.376e-09
 88.13719   -218.9 8.711e+03 1.261e-09
 88.17671   -217.6 8.722e+03 1.242e-09
 88.19883   -216.5 8.793e+03 1.252e-09
 88.21859   -217.3 8.775e+03 1.318e-09
 88.25574   -216.2 8.943e+03 1.470e-09
 88.29526   -215.3 9.085e+03 1.672e-09
 88.33477   -214.4 9.167e+03 1.833e-09
 88.35581   -213.5 9.202e+03 1.915e-09
 88.37557   -213.9 9.255e+03 2.032e-09
 88.41381   -213.0 9.305e+03 2.107e-09
 88.45332   -212.0 9.422e+03 2.315e-09
 88.49284   -210.9 9.699e+03 2.889e-09
 88.53236   -210.0 1.015e+04 4.097e-09
 88.57187   -209.2 1.071e+04 6.113e-09
 88.61139   -208.6 1.125e+04 8.705e-09
 88.63555   -208.2 1.165e+04 1.092e-08
 88.65531   -209.6 1.143e+04 9.665e-09
 88.67370   -209.3 1.144e+04 9.617e-09
 88.69346   -209.8 1.145e+04 9.752e-09
 88.72994   -209.0 1.131e+04 8.141e-09
 88.76946   -208.2 1.113e+04 6.428e-09
 88.80898   -207.4 1.108e+04 5.243e-09
 88.84849   -206.9 1.117e+04 4.841e-09
 88.87803   -207.1 1.142e+04 4.959e-09
 88.89769   -206.8 1.148e+04 5.377e-09
 88.91745   -206.8 1.155e+04 5.807e-09
 88.93721   -206.7 1.163e+04 6.371e-09
 88.95697   -206.7 1.175e+04 7.021e-09
 88.97673   -206.6 1.183e+04 7.580e-09
 88.99141   -206.4 1.199e+04 8.366e-09
 89.01126   -208.5 1.268e+04 1.449e-08
 89.04608   -208.3 1.272e+04 1.410e-08
 89.07226   -208.2 1.274e+04 1.357e-08
 89.09202   -209.8 1.276e+04 1.264e-08
 89.11513   -209.1 1.296e+04 1.445e-08
 89.13479   -209.3 1.334e+04 1.727e-08
 89.15035   -209.5 1.395e+04 2.230e-08
 89.16023   -210.9 1.396e+04 2.177e-08
 89.17431   -211.6 1.450e+04 2.799e-08
 89.19407   -212.8 1.478e+04 3.358e-08
 89.21383   -214.3 1.480e+04 3.546e-08
 89.23359   -215.9 1.472e+04 3.551e-08
 89.25334   -217.0 1.416e+04 3.133e-08
 89.27310   -217.9 1.345e+04 2.353e-08
 89.29042   -218.6 1.279e+04 1.682e-08
 89.30030   -219.2 1.258e+04 1.442e-08
 89.30930   -219.6 1.220e+04 1.126e-08
 89.31918   -220.2 1.209e+04 1.011e-08
 89.33238   -220.3 1.189e+04 8.834e-09
 89.35214   -220.3 1.172e+04 7.857e-09
 89.37189   -220.1 1.156e+04 7.016e-09
 89.39165   -219.7 1.143e+04 6.287e-09
 89.41141   -219.4 1.132e+04 5.655e-09
 89.43117   -219.0 1.121e+04 5.100e-09
 89.45093   -218.5 1.110e+04 4.636e-09
 89.46825   -218.0 1.101e+04 4.265e-09
 89.47813   -218.1 1.099e+04 4.425e-09
 89.49044   -217.5 1.093e+04 4.251e-09
 89.50878   -216.8 1.090e+04 4.188e-09
 89.51866   -217.3 1.095e+04 4.139e-09
 89.52996   -216.6 1.095e+04 4.126e-09
 89.54972   -216.0 1.102e+04 4.137e-09
 89.56948   -215.5 1.117e+04 4.383e-09
 89.58924   -215.1 1.130e+04 4.828e-09
 89.60900   -214.7 1.144e+04 5.403e-09
 89.62720   -214.4 1.159e+04 6.067e-09
 89.63708   -214.4 1.154e+04 6.073e-09
 89.64851   -214.3 1.171e+04 6.803e-09
 89.66827   -214.3 1.186e+04 7.480e-09
 89.68803   -214.3 1.199e+04 8.048e-09
 89.70779   -214.7 1.210e+04 8.427e-09
 89.72713   -215.5 1.214e+04 8.533e-09
 89.73701   -215.6 1.211e+04 8.409e-09
 89.74730   -216.5 1.213e+04 8.464e-09
 89.76706   -217.3 1.212e+04 8.444e-09
 89.78615   -218.0 1.208e+04 8.341e-09
 89.79603   -218.0 1.211e+04 8.344e-09
 89.80658   -218.8 1.202e+04 8.021e-09
 89.82634   -219.6 1.191e+04 7.570e-09
 89.84610   -220.5 1.179e+04 7.022e-09
 89.87583   -222.0 1.161e+04 6.190e-09
 89.91545   -223.8 1.135e+04 4.876e-09
 89.94529   -224.7 1.126e+04 4.114e-09
 89.95577   -224.5 1.126e+04 4.107e-09
 89.96544   -224.7 1.147e+04 5.483e-09
 89.99448   -225.0 1.135e+04 4.036e-09
 90.03400   -225.0 1.135e+04 3.543e-09
 90.07351   -225.0 1.136e+04 3.470e-09
 90.11303   -225.2 1.156e+04 3.651e-09
 90.15255   -226.0 1.184e+04 4.232e-09
 90.19206   -226.9 1.199e+04 4.726e-09
 90.23158   -227.5 1.201e+04 4.858e-09
 90.26319   -227.5 1.197e+04 4.852e-09
 90.28294   -225.6 1.183e+04 3.383e-09
 90.31061   -225.4 1.169e+04 2.973e-09
 90.35013   -225.1 1.149e+04 2.618e-09
 90.38240   -223.8 1.131e+04 2.360e-09
 90.40215   -223.2 1.134e+04 2.373e-09
 90.42916   -221.6 1.132e+04 2.043e-09
 90.46868   -220.1 1.136e+04 1.937e-09
 90.50820   -218.9 1.138e+04 1.919e-09
 90.54771   -218.1 1.148e+04 1.938e-09
 90.58108   -217.8 1.158e+04 2.104e-09
 90.60084   -217.2 1.180e+04 2.191e-09
 90.62675   -217.2 1.186e+04 2.645e-09
 90.66626   -217.5 1.195e+04 3.303e-09
 90.70578   -218.2 1.210e+04 4.405e-09
 90.74530   -219.1 1.234e+04 6.177e-09
 90.78481   -220.1 1.260e+04 8.457e-09
 90.81911   -221.4 1.272e+04 1.047e-08
 90.83887   -221.8 1.279e+04 1.001e-08
 90.85387   -223.0 1.270e+04 1.103e-08
 90.87353   -223.6 1.269e+04 1.122e-08
 90.89329   -225.1 1.270e+04 1.134e-08
 90.90866   -228.9 1.346e+04 1.251e-08
 90.91854   -228.2 1.256e+04 1.115e-08
 90.93281   -233.0 1.456e+04 1.559e-08
 90.95257   -237.8 1.667e+04 3.866e-08
 90.97232   -242.1 1.761e+04 7.909e-08
 90.99208   -246.6 1.776e+04 1.051e-07
 91.01184   -251.1 1.759e+04 1.080e-07
 91.03160   -254.5 1.638e+04 7.929e-08
 91.04715   -257.1 1.460e+04 3.743e-08
 91.05703   -256.4 1.373e+04 2.861e-08
 91.06761   -258.6 1.188e+04 1.382e-08
 91.07749   -256.7 1.240e+04 1.540e-08
 91.09087   -258.3 1.120e+04 8.521e-09
 91.11063   -258.9 1.080e+04 6.978e-09
 91.13039   -258.8 1.068e+04 6.576e-09
 91.15015   -258.7 1.062e+04 6.357e-09
 91.16991   -258.3 1.054e+04 6.005e-09
 91.18967   -257.9 1.043e+04 5.505e-09
 91.20942   -257.5 1.029e+04 4.964e-09
 91.22656   -257.1 1.012e+04 4.485e-09
 91.23644   -256.0 9.985e+03 3.947e-09
 91.24894   -255.5 9.854e+03 3.546e-09
 91.26550   -254.4 9.822e+03 3.375e-09
 91.27548   -253.8 9.803e+03 3.073e-09
 91.29853   -253.7 9.726e+03 2.879e-09
 91.33805   -253.4 9.570e+03 2.690e-09
 91.37757   -253.1 9.428e+03 2.527e-09
 91.41708   -252.8 9.343e+03 2.341e-09
 91.45660   -252.7 9.309e+03 2.131e-09
 91.49612   -252.8 9.299e+03 1.939e-09
 91.53477   -253.0 9.292e+03 1.804e-09
 91.55453   -251.6 9.285e+03 2.067e-09
 91.57515   -251.9 9.287e+03 1.924e-09
 91.61467   -252.3 9.293e+03 1.896e-09
 91.65418   -252.9 9.359e+03 1.910e-09
 91.69253   -253.7 9.520e+03 1.989e-09
 91.71229   -253.8 9.487e+03 2.008e-09
 91.73322   -254.8 9.666e+03 2.108e-09
 91.77273   -255.8 9.792e+03 2.221e-09
 91.81225   -256.7 9.890e+03 2.330e-09
 91.85177   -257.1 1.000e+04 2.428e-09
 91.87243   -257.3 1.013e+04 2.494e-09
 91.89218   -257.2 9.967e+03 2.282e-09
 91.93080   -257.2 1.008e+04 2.380e-09
 91.97032   -257.0 1.017e+04 2.433e-09
 92.00984   -255.9 1.027e+04 2.447e-09
 92.04935   -254.4 1.040e+04 2.475e-09
 92.08887   -252.7 1.057e+04 2.544e-09
 92.12839   -250.9 1.074e+04 2.637e-09
 92.14900   -249.0 1.085e+04 2.734e-09
 92.16876   -249.0 1.088e+04 2.159e-09
 92.19032   -247.2 1.103e+04 2.360e-09
 92.21008   -248.0 1.127e+04 3.831e-09
 92.24694   -246.3 1.140e+04 4.638e-09
 92.28645   -244.5 1.149e+04 5.407e-09
 92.32597   -242.6 1.153e+04 5.859e-09
 92.36549   -240.7 1.154e+04 5.951e-09
 92.40500   -238.5 1.142e+04 5.685e-09
 92.44452   -236.1 1.122e+04 4.791e-09
 92.48404   -233.5 1.105e+04 3.951e-09
 92.50822   -230.8 1.097e+04 3.305e-09
 92.52798   -231.6 1.098e+04 2.709e-09
 92.56307   -228.9 1.099e+04 2.666e-09
 92.58572   -226.5 1.114e+04 2.771e-09
 92.60547   -227.1 1.132e+04 3.010e-09
 92.64210   -225.2 1.163e+04 4.377e-09
 92.68162   -223.5 1.197e+04 6.848e-09
 92.72114   -221.9 1.237e+04 1.023e-08
 92.76065   -220.7 1.277e+04 1.378e-08
 92.79019   -219.7 1.297e+04 1.707e-08
 92.80388   -219.2 1.301e+04 1.759e-08
 92.81376   -219.8 1.331e+04 1.641e-08
 92.82592   -219.5 1.348e+04 1.659e-08
 92.83580   -219.6 1.331e+04 1.824e-08
 92.84937   -219.4 1.332e+04 1.833e-08
 92.86913   -219.3 1.332e+04 1.795e-08
 92.88889   -219.2 1.346e+04 1.626e-08
 92.90865   -219.3 1.379e+04 1.460e-08
 92.92841   -219.7 1.397e+04 1.415e-08
 92.94816   -220.3 1.446e+04 1.413e-08
 92.96792   -221.0 1.473e+04 1.640e-08
 92.98487   -221.4 1.462e+04 2.082e-08
 92.99475   -222.3 1.516e+04 3.669e-08
 93.00744   -222.4 1.481e+04 4.064e-08
 93.02223   -222.0 1.470e+04 4.118e-08
 93.03211   -222.9 1.396e+04 3.965e-08
 93.04696   -222.0 1.357e+04 2.874e-08
 93.06671   -221.2 1.323e+04 1.856e-08
 93.08647   -220.6 1.294e+04 1.145e-08
 93.10623   -219.9 1.274e+04 7.229e-09
 93.12599   -219.2 1.261e+04 4.910e-09
 93.14382   -218.3 1.254e+04 3.647e-09
 93.15369   -218.6 1.278e+04 2.898e-09
 93.16551   -217.5 1.266e+04 2.414e-09
 93.18526   -216.1 1.262e+04 2.053e-09
 93.20502   -214.5 1.263e+04 1.782e-09
 93.23476   -213.1 1.265e+04 1.652e-09
 93.27437   -211.1 1.267e+04 1.688e-09
 93.31389   -208.7 1.256e+04 1.869e-09
 93.35341   -206.3 1.244e+04 2.153e-09
 93.39292   -204.2 1.236e+04 2.387e-09
 93.43244   -202.2 1.233e+04 2.469e-09
 93.45914   -200.3 1.234e+04 2.487e-09
 93.46885   -201.1 1.199e+04 1.842e-09
 93.48167   -200.7 1.191e+04 1.855e-09
 93.51147   -198.5 1.210e+04 2.276e-09
 93.55099   -196.7 1.246e+04 2.720e-09
 93.59051   -196.1 1.289e+04 3.346e-09
 93.63002   -196.2 1.322e+04 4.770e-09
 93.65956   -196.6 1.376e+04 9.173e-09
 93.67730   -198.6 1.393e+04 1.401e-08
 93.68718   -198.3 1.350e+04 1.106e-08
 93.69898   -200.0 1.356e+04 1.607e-08
 93.71874   -201.8 1.341e+04 1.948e-08
 93.73850   -203.3 1.333e+04 2.030e-08
 93.75826   -203.9 1.308e+04 2.035e-08
 93.77802   -204.0 1.269e+04 1.812e-08
 93.78949   -203.9 1.244e+04 1.438e-08
 93.79937   -204.4 1.333e+04 1.404e-08
 93.81753   -204.3 1.279e+04 1.046e-08
 93.83729   -203.8 1.225e+04 8.253e-09
 93.85705   -202.9 1.180e+04 6.939e-09
 93.87681   -202.0 1.147e+04 6.176e-09
 93.89566   -200.8 1.127e+04 5.745e-09
 93.90554   -200.8 1.127e+04 5.783e-09
 93.91632   -199.7 1.117e+04 5.531e-09
 93.93608   -198.6 1.108e+04 5.312e-09
 93.94844   -197.5 1.099e+04 5.037e-09
 93.95832   -197.6 1.127e+04 4.784e-09
 93.97560   -196.3 1.115e+04 4.478e-09
 93.99536   -195.1 1.105e+04 4.162e-09
 94.01512   -193.8 1.096e+04 3.850e-09
 94.03488   -192.5 1.087e+04 3.568e-09
 94.05463   -191.2 1.082e+04 3.335e-09
 94.07439   -189.9 1.078e+04 3.153e-09
 94.09415   -188.5 1.076e+04 3.024e-09
 94.10738   -187.1 1.080e+04 2.949e-09
 94.11726   -187.0 1.089e+04 3.846e-09
 94.12389   -185.6 1.090e+04 3.832e-09
 94.13377   -185.7 1.100e+04 3.302e-09
 94.15343   -184.4 1.103e+04 3.340e-09
 94.17318   -183.1 1.104e+04 3.550e-09
 94.19294   -181.8 1.101e+04 3.908e-09
 94.21270   -180.4 1.099e+04 4.370e-09
 94.23246   -179.1 1.104e+04 4.861e-09
 94.25222   -177.8 1.115e+04 5.389e-09
 94.26633   -176.4 1.127e+04 6.030e-09
 94.27621   -176.3 1.156e+04 7.671e-09
 94.29173   -175.0 1.175e+04 8.665e-09
 94.31149   -173.8 1.195e+04 9.828e-09
 94.33125   -172.5 1.214e+04 1.115e-08
 94.34225   -171.3 1.231e+04 1.260e-08
 94.35213   -171.5 1.253e+04 1.480e-08
 94.37077   -170.4 1.264e+04 1.616e-08
 94.39053   -169.3 1.273e+04 1.747e-08
 94.41028   -168.3 1.282e+04 1.884e-08
 94.42528   -167.3 1.290e+04 2.032e-08
 94.43516   -167.1 1.360e+04 3.229e-08
 94.44980   -166.1 1.366e+04 3.486e-08
 94.46956   -165.2 1.372e+04 3.830e-08
 94.48932   -164.2 1.380e+04 4.263e-08
 94.50908   -163.1 1.391e+04 4.769e-08
 94.52884   -162.0 1.404e+04 5.228e-08
 94.54859   -161.0 1.408e+04 5.442e-08
 94.56060   -160.0 1.407e+04 5.473e-08
 94.57048   -160.3 1.402e+04 5.353e-08
 94.58423   -159.1 1.378e+04 4.791e-08
 94.59411   -158.9 1.352e+04 4.368e-08
 94.60787   -157.7 1.315e+04 3.668e-08
 94.62763   -156.6 1.272e+04 2.920e-08
 94.64739   -155.3 1.228e+04 2.246e-08
 94.66714   -154.0 1.188e+04 1.703e-08
 94.68690   -152.7 1.153e+04 1.287e-08
 94.70666   -151.4 1.124e+04 9.797e-09
 94.72642   -150.0 1.103e+04 7.598e-09
 94.74318   -148.5 1.089e+04 6.058e-09
 94.75306   -148.2 1.079e+04 6.284e-09
 94.76594   -146.8 1.068e+04 5.533e-09
 94.77896   -145.4 1.059e+04 4.973e-09
 94.78884   -146.1 1.040e+04 4.150e-09
 94.80545   -144.7 1.030e+04 3.779e-09
 94.82521   -143.4 1.022e+04 3.550e-09
 94.84497   -142.1 1.018e+04 3.423e-09
 94.86473   -140.8 1.016e+04 3.364e-09
 94.88449   -139.5 1.017e+04 3.345e-09
 94.90212   -138.4 1.019e+04 3.343e-09
 94.91200   -138.3 1.025e+04 3.449e-09
 94.93398   -137.2 1.019e+04 3.259e-09
 94.97359   -134.7 1.015e+04 3.407e-09
 95.01311   -134.2 1.061e+04 4.869e-09
 95.04265   -134.7 1.136e+04 8.992e-09
 95.06107   -135.4 1.290e+04 1.843e-08
 95.07095   -134.3 1.225e+04 1.457e-08
 95.08207   -135.0 1.348e+04 2.601e-08
 95.10183   -135.5 1.468e+04 4.612e-08
 95.12159   -135.9 1.558e+04 7.071e-08
 95.14135   -136.7 1.606e+04 8.716e-08
 95.16110   -137.9 1.615e+04 9.028e-08
 95.18086   -139.6 1.598e+04 8.291e-08
 95.20062   -142.1 1.561e+04 6.819e-08
 95.21567   -145.3 1.539e+04 6.080e-08
 95.22519   -147.6 1.553e+04 6.327e-08
 95.22990   -145.5 1.636e+04 7.844e-08
 95.24014   -149.8 1.600e+04 7.234e-08
 95.25990   -154.1 1.508e+04 5.575e-08
 95.27965   -158.0 1.397e+04 3.552e-08
 95.29941   -161.8 1.338e+04 2.079e-08
 95.31917   -166.3 1.385e+04 1.561e-08
 95.33893   -171.0 1.631e+04 1.390e-08
 95.35869   -175.0 1.816e+04 1.846e-08
 95.37845   -177.2 1.694e+04 3.535e-08
 95.38885   -177.7 1.602e+04 6.992e-08
 95.39374   -178.3 1.537e+04 1.256e-07
 95.40305   -177.8 1.536e+04 1.354e-07
 95.41293   -176.9 1.540e+04 1.514e-07
 95.42280   -176.1 1.552e+04 1.641e-07
 95.43268   -175.4 1.567e+04 1.753e-07
 95.43887   -175.0 1.584e+04 1.816e-07
 95.44381   -175.1 1.544e+04 1.457e-07
 95.45244   -174.7 1.568e+04 1.483e-07
 95.46232   -174.7 1.594e+04 1.475e-07
 95.46822   -174.7 1.630e+04 1.438e-07
 95.47316   -175.4 1.733e+04 9.232e-08
 95.48208   -176.5 1.779e+04 8.052e-08
 95.49196   -177.9 1.774e+04 6.978e-08
 95.50184   -179.2 1.706e+04 6.008e-08
 95.51172   -180.4 1.608e+04 5.266e-08
 95.52160   -181.5 1.521e+04 4.776e-08
 95.53148   -182.5 1.467e+04 4.506e-08
 95.54136   -183.2 1.432e+04 4.313e-08
 95.54770   -183.6 1.406e+04 4.163e-08
 95.55763   -184.1 1.314e+04 2.977e-08
 95.57603   -184.4 1.281e+04 2.697e-08
 95.59579   -184.4 1.255e+04 2.384e-08
 95.61555   -184.4 1.227e+04 2.076e-08
 95.63531   -184.4 1.201e+04 1.811e-08
 95.65239   -184.4 1.173e+04 1.555e-08
 95.66226   -183.8 1.200e+04 1.928e-08
 95.67482   -183.6 1.173e+04 1.646e-08
 95.69458   -183.3 1.142e+04 1.340e-08
 95.70674   -182.9 1.108e+04 1.045e-08
 95.71662   -182.8 1.097e+04 8.802e-09
 95.73410   -182.5 1.073e+04 7.125e-09
 95.75386   -182.1 1.053e+04 5.732e-09
 95.77361   -181.8 1.037e+04 4.659e-09
 95.79337   -181.6 1.024e+04 3.907e-09
 95.81313   -181.3 1.013e+04 3.458e-09
 95.83289   -181.0 1.003e+04 3.286e-09
 95.85265   -180.7 9.988e+03 3.265e-09
 95.86569   -180.4 1.002e+04 3.261e-09
 95.87391   -180.2 1.000e+04 3.524e-09
 95.88062   -180.3 1.010e+04 3.570e-09
 95.89216   -180.0 1.007e+04 3.552e-09
 95.91192   -179.8 1.006e+04 3.649e-09
 95.93168   -179.7 1.007e+04 3.853e-09
 95.95144   -179.5 1.011e+04 4.237e-09
 95.97120   -179.5 1.019e+04 4.750e-09
 95.99096   -179.5 1.031e+04 5.374e-09
 96.01071   -179.5 1.043e+04 6.073e-09
 96.02464   -179.6 1.055e+04 6.796e-09
 96.03452   -180.0 1.044e+04 6.572e-09
 96.05023   -180.2 1.056e+04 7.402e-09
 96.06999   -180.3 1.069e+04 8.388e-09
 96.08910   -180.3 1.084e+04 9.507e-09
 96.09898   -180.4 1.090e+04 9.161e-09
 96.10951   -180.5 1.108e+04 1.038e-08
 96.12926   -180.6 1.121e+04 1.137e-08
 96.14902   -180.8 1.129e+04 1.187e-08
 96.16878   -181.0 1.129e+04 1.198e-08
 96.18359   -181.2 1.116e+04 1.174e-08
 96.19347   -181.7 1.093e+04 1.093e-08
 96.20830   -181.6 1.066e+04 9.549e-09
 96.22806   -181.3 1.035e+04 8.073e-09
 96.24782   -180.7 1.004e+04 6.666e-09
 96.26757   -180.0 9.741e+03 5.385e-09
 96.28733   -179.0 9.446e+03 4.216e-09
 96.30709   -177.7 9.204e+03 3.239e-09
 96.31733   -176.6 9.134e+03 2.691e-09
 96.32721   -176.8 9.143e+03 2.524e-09
 96.34264   -175.6 9.121e+03 2.265e-09
 96.36249   -175.9 8.928e+03 2.117e-09
 96.39620   -174.1 8.962e+03 1.895e-09
 96.43572   -172.5 8.977e+03 1.867e-09
 96.47523   -171.8 9.173e+03 1.942e-09
 96.51475   -171.8 9.664e+03 2.501e-09
 96.53579   -172.0 9.811e+03 3.244e-09
 96.55555   -172.8 9.947e+03 3.221e-09
 96.58381   -172.8 1.024e+04 4.520e-09
 96.60347   -173.6 1.053e+04 5.433e-09
 96.62322   -174.5 1.079e+04 6.210e-09
 96.64298   -175.5 1.096e+04 6.637e-09
 96.66043   -176.5 1.104e+04 6.779e-09
 96.67031   -175.8 1.100e+04 6.482e-09
 96.68250   -176.6 1.103e+04 6.496e-09
 96.70226   -177.4 1.110e+04 6.393e-09
 96.72202   -178.2 1.115e+04 6.249e-09
 96.74178   -179.1 1.124e+04 6.020e-09
 96.75405   -180.4 1.132e+04 5.756e-09
 96.76392   -180.1 1.150e+04 5.932e-09
 96.78129   -181.4 1.163e+04 5.594e-09
 96.80105   -182.9 1.165e+04 5.212e-09
 96.81938   -184.6 1.157e+04 4.849e-09
 96.82926   -184.2 1.147e+04 4.617e-09
 96.84057   -186.1 1.145e+04 4.404e-09
 96.86033   -188.3 1.137e+04 4.267e-09
 96.88008   -190.6 1.125e+04 4.216e-09
 96.89984   -193.0 1.106e+04 4.216e-09
 96.91960   -195.1 1.084e+04 4.237e-09
 96.93936   -196.9 1.059e+04 4.212e-09
 96.95912   -198.2 1.041e+04 4.112e-09
 96.97250   -199.7 1.024e+04 3.945e-09
 96.98183   -198.9 1.042e+04 4.452e-09
 96.99819   -199.9 1.065e+04 6.539e-09
 97.02847   -201.0 1.058e+04 6.887e-09
 97.06798   -201.4 1.056e+04 7.262e-09
 97.10750   -201.7 1.065e+04 7.773e-09
 97.14702   -202.0 1.080e+04 8.531e-09
 97.17656   -202.3 1.072e+04 8.210e-09
 97.19076   -202.9 1.093e+04 8.854e-09
 97.20064   -202.8 1.128e+04 1.119e-08
 97.21598   -203.6 1.159e+04 1.301e-08
 97.23574   -204.4 1.191e+04 1.471e-08
 97.25549   -205.4 1.210e+04 1.566e-08
 97.27525   -206.6 1.212e+04 1.569e-08
 97.29501   -207.8 1.184e+04 1.378e-08
 97.30611   -208.6 1.126e+04 1.065e-08
 97.31598   -209.0 1.252e+04 2.192e-08
 97.33453   -209.6 1.174e+04 1.536e-08
 97.35429   -210.1 1.086e+04 1.031e-08
 97.37404   -210.5 1.008e+04 7.246e-09
 97.39380   -210.6 9.557e+03 5.599e-09
 97.40911   -210.6 9.258e+03 4.747e-09
 97.41899   -211.0 9.708e+03 6.191e-09
 97.43332   -210.7 9.398e+03 5.141e-09
 97.45308   -210.0 9.201e+03 4.393e-09
 97.46505   -209.4 9.100e+03 3.877e-09
 97.47493   -209.5 9.096e+03 4.345e-09
 97.49259   -209.0 9.020e+03 3.741e-09
 97.51235   -208.6 8.971e+03 3.385e-09
 97.54209   -208.5 8.919e+03 3.163e-09
 97.58170   -207.4 8.771e+03 2.814e-09
 97.61432   -206.4 8.725e+03 2.722e-09
 97.63408   -206.8 8.799e+03 2.913e-09
 97.66074   -205.9 8.787e+03 2.878e-09
 97.70025   -205.1 8.817e+03 2.899e-09
 97.73977   -204.5 8.926e+03 2.956e-09
 97.77929   -204.0 9.038e+03 2.955e-09
 97.81880   -203.6 9.109e+03 2.925e-09
 97.84602   -203.3 9.209e+03 2.881e-09
 97.86578   -202.9 9.528e+03 3.777e-09
 97.89784   -202.6 9.585e+03 3.544e-09
 97.93221   -202.4 9.589e+03 3.259e-09
 97.95197   -203.4 9.920e+03 4.546e-09
 97.97687   -203.1 1.001e+04 4.271e-09
 98.00641   -202.5 1.005e+04 3.972e-09
 98.02607   -202.4 1.012e+04 3.940e-09
 98.04583   -202.1 1.022e+04 3.969e-09
 98.06418   -201.9 1.038e+04 4.075e-09
 98.07406   -201.3 1.038e+04 3.974e-09
 98.08535   -201.2 1.052e+04 4.177e-09
 98.10085   -201.1 1.063e+04 4.470e-09
 98.11073   -201.5 1.052e+04 4.430e-09
 98.12486   -201.4 1.062e+04 4.726e-09
 98.14462   -201.4 1.071e+04 5.049e-09
 98.16438   -201.4 1.082e+04 5.389e-09
 98.18414   -201.6 1.091e+04 5.719e-09
 98.21387   -202.1 1.101e+04 6.109e-09
 98.25011   -203.3 1.114e+04 6.881e-09
 98.26987   -204.0 1.088e+04 5.774e-09
 98.28273   -204.7 1.122e+04 6.725e-09
 98.30249   -203.0 1.062e+04 5.225e-09
 98.33252   -203.4 1.074e+04 5.262e-09
 98.36206   -204.2 1.134e+04 6.914e-09
 98.38172   -204.6 1.207e+04 9.781e-09
 98.40148   -205.4 1.288e+04 1.603e-08
 98.41874   -206.0 1.347e+04 2.554e-08
 98.42862   -206.4 1.401e+04 3.875e-08
 98.44100   -206.7 1.423e+04 4.957e-08
 98.46076   -206.7 1.425e+04 5.195e-08
 98.48051   -206.7 1.388e+04 4.699e-08
 98.50027   -206.3 1.337e+04 3.612e-08
 98.51077   -205.8 1.267e+04 2.450e-08
 98.52065   -205.5 1.318e+04 3.377e-08
 98.53979   -204.8 1.259e+04 2.510e-08
 98.55955   -204.0 1.198e+04 1.720e-08
 98.57769   -203.3 1.158e+04 1.192e-08
 98.58757   -203.3 1.167e+04 1.039e-08
 98.59906   -202.8 1.142e+04 7.051e-09
 98.61882   -202.2 1.126e+04 5.226e-09
 98.63858   -201.6 1.112e+04 4.206e-09
 98.65834   -201.0 1.097e+04 3.636e-09
 98.67810   -200.4 1.078e+04 3.341e-09
 98.69786   -199.8 1.063e+04 3.224e-09
 98.71761   -199.2 1.058e+04 3.186e-09
 98.72913   -198.6 1.057e+04 3.156e-09
 98.73828   -198.2 1.057e+04 3.043e-09
 98.74652   -198.1 1.041e+04 2.742e-09
 98.75713   -197.6 1.040e+04 2.705e-09
 98.77689   -197.0 1.039e+04 2.697e-09
 98.79665   -196.6 1.040e+04 2.739e-09
 98.81641   -196.2 1.042e+04 2.847e-09
 98.83616   -195.8 1.046e+04 3.014e-09
 98.85592   -195.4 1.051e+04 3.212e-09
 98.87568   -195.0 1.056e+04 3.435e-09
 98.89544   -194.6 1.062e+04 3.674e-09
 98.90547   -194.2 1.069e+04 3.923e-09
 98.91535   -194.4 1.077e+04 3.957e-09
 98.93496   -194.0 1.087e+04 4.278e-09
 98.94749   -193.7 1.095e+04 4.631e-09
 98.95736   -193.7 1.094e+04 4.564e-09
 98.97447   -193.4 1.105e+04 4.990e-09
 99.00421   -193.2 1.119e+04 5.603e-09
 99.04382   -192.1 1.147e+04 6.951e-09
 99.08334   -191.0 1.173e+04 8.278e-09
 99.12286   -189.9 1.204e+04 1.008e-08
 99.15240   -189.3 1.246e+04 1.323e-08
 99.16584   -188.5 1.274e+04 1.525e-08
 99.17572   -189.4 1.271e+04 1.495e-08
 99.19182   -188.5 1.303e+04 1.784e-08
 99.21157   -187.8 1.331e+04 1.987e-08
 99.22336   -187.2 1.350e+04 2.147e-08
 99.23324   -187.1 1.430e+04 4.011e-08
 99.25109   -186.6 1.445e+04 4.366e-08
 99.27085   -186.0 1.450e+04 4.513e-08
 99.29061   -185.4 1.451e+04 4.546e-08
 99.31037   -184.7 1.450e+04 4.346e-08
 99.33012   -184.0 1.448e+04 3.905e-08
 99.34988   -183.2 1.445e+04 3.306e-08
 99.36964   -182.4 1.436e+04 2.640e-08
 99.38231   -181.6 1.427e+04 2.058e-08
 99.38699   -181.3 1.488e+04 4.843e-08
 99.39408   -182.2 1.450e+04 3.391e-08
 99.40916   -181.3 1.438e+04 2.635e-08
 99.42892   -180.5 1.430e+04 2.036e-08
 99.44868   -179.8 1.423e+04 1.596e-08
 99.46843   -179.1 1.413e+04 1.303e-08
 99.48819   -178.6 1.402e+04 1.136e-08
 99.50795   -178.1 1.393e+04 1.052e-08
 99.52771   -178.0 1.390e+04 1.004e-08
 99.54126   -178.0 1.393e+04 9.740e-09
 99.55114   -177.9 1.525e+04 2.706e-08
 99.56723   -179.3 1.589e+04 2.959e-08
 99.58698   -181.7 1.631e+04 3.623e-08
 99.60255   -183.9 1.639e+04 4.701e-08
 99.61243   -182.7 1.545e+04 3.169e-08
 99.62650   -183.6 1.528e+04 3.320e-08
 99.64626   -183.8 1.510e+04 3.357e-08
 99.66602   -183.8 1.485e+04 3.251e-08
 99.68578   -183.1 1.466e+04 3.011e-08
 99.70021   -182.0 1.447e+04 2.689e-08
 99.71009   -182.8 1.474e+04 3.077e-08
 99.72529   -181.5 1.441e+04 2.499e-08
 99.74505   -180.0 1.413e+04 2.071e-08
 99.76481   -178.5 1.398e+04 1.823e-08
 99.78457   -177.1 1.388e+04 1.658e-08
 99.80433   -175.7 1.378e+04 1.509e-08
 99.82091   -174.2 1.369e+04 1.370e-08
 99.83079   -173.8 1.345e+04 1.018e-08
 99.84384   -172.4 1.337e+04 8.987e-09
 99.85916   -171.0 1.329e+04 7.924e-09
 99.86903   -170.8 1.360e+04 8.923e-09
 99.88336   -169.3 1.357e+04 8.431e-09
 99.90312   -167.7 1.354e+04 8.053e-09
 99.92288   -166.2 1.356e+04 7.823e-09
 99.94264   -164.9 1.358e+04 7.775e-09
 99.96239   -163.5 1.361e+04 7.843e-09
 99.98215   -162.2 1.372e+04 8.706e-09
100.00191   -161.2 1.395e+04 1.123e-08
