# Columns:
#   distance along LOS (in CHIMPs)
#   peculiar velocity  (in km/s)
#   temperature (K)
#   HI number density
# pos=(213.629,21.9007,204.674), angles=(1.50311,4.88926)
  0.00214   -184.5 9.031e+03 3.225e-09
  0.01423   -183.7 9.184e+03 3.593e-09
  0.03412   -182.9 9.367e+03 4.109e-09
  0.05400   -182.1 9.564e+03 4.761e-09
  0.07389   -181.2 9.765e+03 5.505e-09
  0.09378   -180.3 9.952e+03 6.260e-09
  0.10598   -179.3 1.012e+04 7.058e-09
  0.11592   -179.6 1.034e+04 8.295e-09
  0.13355   -178.5 1.043e+04 8.750e-09
  0.15344   -177.5 1.049e+04 8.990e-09
  0.16986   -176.5 1.052e+04 9.079e-09
  0.17980   -176.5 1.044e+04 8.718e-09
  0.19321   -175.6 1.050e+04 8.869e-09
  0.21133   -174.8 1.060e+04 9.150e-09
  0.22127   -174.9 1.087e+04 9.988e-09
  0.23298   -174.4 1.111e+04 1.077e-08
  0.25287   -174.1 1.138e+04 1.196e-08
  0.27275   -174.0 1.164e+04 1.344e-08
  0.29264   -173.9 1.186e+04 1.502e-08
  0.31253   -173.8 1.201e+04 1.639e-08
  0.32661   -173.6 1.214e+04 1.733e-08
  0.33656   -174.8 1.432e+04 3.648e-08
  0.35230   -174.5 1.428e+04 3.667e-08
  0.37219   -174.2 1.416e+04 3.612e-08
  0.39207   -173.9 1.406e+04 3.479e-08
  0.41196   -173.7 1.389e+04 3.272e-08
  0.43184   -173.5 1.356e+04 2.903e-08
  0.44190   -173.2 1.320e+04 2.498e-08
  0.44683   -173.9 1.536e+04 4.604e-08
  0.45660   -173.8 1.543e+04 4.743e-08
  0.46334   -173.7 1.522e+04 4.595e-08
  0.46832   -173.3 1.370e+04 2.872e-08
  0.47649   -173.1 1.353e+04 2.703e-08
  0.48643   -172.8 1.335e+04 2.513e-08
  0.49448   -172.6 1.328e+04 2.386e-08
  0.49945   -173.0 1.448e+04 3.379e-08
  0.51134   -172.1 1.363e+04 2.593e-08
  0.53128   -171.3 1.318e+04 2.251e-08
  0.54725   -170.3 1.260e+04 1.868e-08
  0.55719   -171.0 1.568e+04 5.637e-08
  0.57105   -169.8 1.534e+04 4.938e-08
  0.59093   -168.7 1.492e+04 4.193e-08
  0.61082   -167.8 1.449e+04 3.533e-08
  0.63071   -167.0 1.397e+04 2.866e-08
  0.65059   -166.1 1.338e+04 2.218e-08
  0.66254   -165.0 1.292e+04 1.815e-08
  0.67248   -166.0 1.562e+04 5.968e-08
  0.69037   -164.7 1.492e+04 4.358e-08
  0.71025   -163.3 1.408e+04 3.097e-08
  0.73014   -161.8 1.322e+04 2.190e-08
  0.74698   -160.3 1.238e+04 1.501e-08
  0.75693   -160.8 1.253e+04 1.721e-08
  0.76789   -159.2 1.185e+04 1.262e-08
  0.77783   -159.6 1.383e+04 3.282e-08
  0.78980   -158.1 1.335e+04 2.627e-08
  0.80968   -156.6 1.303e+04 2.256e-08
  0.82957   -155.0 1.274e+04 1.979e-08
  0.84946   -153.3 1.251e+04 1.777e-08
  0.86934   -151.5 1.234e+04 1.623e-08
  0.88318   -150.0 1.220e+04 1.505e-08
  0.89312   -150.1 1.307e+04 2.441e-08
  0.90912   -148.6 1.285e+04 2.150e-08
  0.92900   -147.1 1.266e+04 1.908e-08
  0.94889   -145.6 1.252e+04 1.722e-08
  0.96877   -144.2 1.240e+04 1.587e-08
  0.98852   -142.9 1.230e+04 1.505e-08
  0.99846   -143.5 1.227e+04 1.435e-08
  1.00855   -142.2 1.213e+04 1.355e-08
  1.02843   -140.7 1.200e+04 1.297e-08
  1.04052   -139.0 1.195e+04 1.264e-08
  1.05046   -138.9 1.191e+04 1.243e-08
  1.06821   -137.1 1.190e+04 1.231e-08
  1.08809   -135.7 1.200e+04 1.243e-08
  1.10381   -135.0 1.286e+04 1.280e-08
  1.11375   -135.4 1.181e+04 1.057e-08
  1.12787   -136.4 1.523e+04 1.081e-08
  1.14273   -141.8 2.677e+04 1.699e-08
  1.15263   -145.6 2.450e+04 1.084e-07
  1.16136   -147.8 1.950e+04 1.103e-06
  1.16633   -148.2 2.094e+04 4.216e-07
  1.17251   -151.0 1.857e+04 2.022e-06
  1.18221   -154.9 1.774e+04 4.656e-06
  1.18719   -155.8 1.773e+04 5.164e-06
  1.19240   -160.9 1.746e+04 6.727e-06
  1.20234   -164.8 1.754e+04 5.817e-06
  1.21228   -167.0 1.829e+04 2.683e-06
  1.21900   -168.6 1.928e+04 8.534e-07
  1.22397   -165.6 1.891e+04 1.387e-06
  1.23217   -167.0 1.952e+04 5.706e-07
  1.24211   -168.8 1.939e+04 2.062e-07
  1.25206   -170.6 1.790e+04 8.579e-08
  1.26200   -171.7 1.577e+04 4.913e-08
  1.27168   -171.8 1.432e+04 3.649e-08
  1.27665   -169.5 1.605e+04 5.164e-08
  1.28189   -169.7 1.460e+04 3.715e-08
  1.29183   -169.4 1.393e+04 3.038e-08
  1.30679   -169.2 1.353e+04 2.511e-08
  1.32411   -168.8 1.261e+04 1.819e-08
  1.33177   -170.1 1.274e+04 1.846e-08
  1.33439   -166.6 1.374e+04 2.301e-08
  1.34661   -166.2 1.293e+04 1.726e-08
  1.36650   -167.1 1.165e+04 1.224e-08
  1.38639   -167.8 1.116e+04 1.019e-08
  1.40627   -168.0 1.113e+04 9.807e-09
  1.42616   -168.0 1.129e+04 9.922e-09
  1.43974   -168.1 1.150e+04 1.044e-08
  1.44968   -165.9 1.167e+04 1.075e-08
  1.46593   -166.3 1.180e+04 1.109e-08
  1.48582   -166.6 1.190e+04 1.139e-08
  1.50571   -167.0 1.193e+04 1.146e-08
  1.52559   -167.4 1.188e+04 1.134e-08
  1.54508   -168.0 1.169e+04 1.057e-08
  1.55503   -165.5 1.228e+04 1.162e-08
  1.56536   -166.7 1.221e+04 1.112e-08
  1.58525   -168.8 1.222e+04 1.083e-08
  1.60514   -171.9 1.235e+04 1.083e-08
  1.61764   -176.1 1.374e+04 1.354e-08
  1.62758   -180.2 1.485e+04 1.763e-08
  1.64491   -184.6 1.593e+04 2.797e-08
  1.66037   -188.2 1.674e+04 4.245e-08
  1.67027   -188.7 1.745e+04 4.886e-08
  1.67961   -191.3 1.812e+04 6.252e-08
  1.68956   -193.9 1.867e+04 7.323e-08
  1.69950   -196.6 1.908e+04 8.134e-08
  1.70944   -199.4 1.930e+04 8.565e-08
  1.71792   -202.2 1.935e+04 8.647e-08
  1.72289   -205.2 2.039e+04 1.200e-07
  1.72933   -207.7 2.028e+04 1.111e-07
  1.73927   -210.4 1.998e+04 9.559e-08
  1.74921   -213.2 1.955e+04 8.246e-08
  1.75916   -215.9 1.886e+04 7.424e-08
  1.76431   -218.3 1.822e+04 6.880e-08
  1.76928   -220.8 1.795e+04 6.898e-08
  1.77556   -222.4 1.762e+04 6.715e-08
  1.78054   -224.4 1.733e+04 6.080e-08
  1.78899   -225.6 1.713e+04 5.775e-08
  1.79893   -226.6 1.696e+04 5.514e-08
  1.80887   -227.6 1.681e+04 5.224e-08
  1.81882   -228.7 1.664e+04 4.816e-08
  1.82824   -229.9 1.632e+04 4.300e-08
  1.83321   -231.0 1.544e+04 3.357e-08
  1.83870   -231.4 1.533e+04 3.318e-08
  1.84865   -231.6 1.527e+04 3.393e-08
  1.86361   -231.8 1.524e+04 3.420e-08
  1.88101   -232.0 1.449e+04 2.780e-08
  1.89095   -235.5 1.451e+04 1.596e-08
  1.90123   -235.8 1.341e+04 1.309e-08
  1.91117   -235.4 1.216e+04 9.883e-09
  1.92332   -234.8 1.166e+04 9.066e-09
  1.94320   -234.1 1.132e+04 8.980e-09
  1.96309   -233.7 1.123e+04 9.010e-09
  1.98298   -233.8 1.127e+04 9.138e-09
  1.99630   -234.8 1.194e+04 1.096e-08
  2.00624   -236.5 1.310e+04 1.373e-08
  2.02275   -237.1 1.444e+04 2.253e-08
  2.03762   -237.3 1.539e+04 3.427e-08
  2.04751   -237.5 1.596e+04 4.321e-08
  2.05287   -237.8 1.651e+04 5.664e-08
  2.05423   -237.5 1.626e+04 5.169e-08
  2.05882   -237.9 1.613e+04 5.122e-08
  2.06740   -238.5 1.661e+04 6.236e-08
  2.07734   -239.4 1.698e+04 7.345e-08
  2.08728   -240.6 1.716e+04 8.050e-08
  2.09723   -241.7 1.719e+04 8.222e-08
  2.10652   -242.7 1.716e+04 8.088e-08
  2.11149   -243.5 1.658e+04 5.742e-08
  2.11711   -245.0 1.630e+04 4.407e-08
  2.12705   -246.8 1.594e+04 3.184e-08
  2.13700   -248.7 1.552e+04 2.351e-08
  2.14694   -250.5 1.522e+04 1.915e-08
  2.15688   -252.2 1.518e+04 1.726e-08
  2.16416   -253.9 1.514e+04 1.628e-08
  2.16913   -254.8 1.486e+04 1.595e-08
  2.18179   -256.3 1.477e+04 1.512e-08
  2.19476   -259.5 1.391e+04 1.407e-08
  2.20471   -257.8 1.381e+04 1.283e-08
  2.21693   -259.5 1.326e+04 1.276e-08
  2.22683   -260.3 1.330e+04 1.632e-08
  2.23643   -260.5 1.308e+04 1.748e-08
  2.24637   -260.5 1.318e+04 1.844e-08
  2.25632   -260.7 1.344e+04 1.993e-08
  2.26626   -261.3 1.408e+04 2.213e-08
  2.27448   -262.4 1.535e+04 2.709e-08
  2.27945   -266.9 1.887e+04 6.813e-08
  2.28615   -268.6 1.965e+04 1.100e-07
  2.29609   -270.1 1.984e+04 1.731e-07
  2.30603   -271.2 1.964e+04 2.509e-07
  2.31597   -272.0 1.919e+04 3.228e-07
  2.32592   -272.5 1.876e+04 3.602e-07
  2.33212   -272.7 1.862e+04 3.702e-07
  2.33710   -274.2 1.849e+04 3.274e-07
  2.34143   -274.4 1.851e+04 2.900e-07
  2.34640   -273.7 1.846e+04 3.003e-07
  2.35575   -274.1 1.855e+04 2.485e-07
  2.36569   -274.8 1.881e+04 1.841e-07
  2.37563   -276.1 1.894e+04 1.226e-07
  2.38480   -277.7 1.858e+04 7.388e-08
  2.38977   -282.6 1.558e+04 3.108e-08
  2.39552   -284.0 1.331e+04 2.319e-08
  2.40546   -284.6 1.215e+04 2.035e-08
  2.41541   -284.6 1.188e+04 1.923e-08
  2.42535   -284.2 1.173e+04 1.800e-08
  2.43752   -284.1 1.143e+04 1.628e-08
  2.44751   -284.9 1.062e+04 1.263e-08
  2.46025   -284.0 1.025e+04 1.022e-08
  2.47835   -283.1 9.997e+03 8.701e-09
  2.48830   -282.2 9.905e+03 7.709e-09
  2.50002   -280.9 9.842e+03 7.222e-09
  2.51991   -279.5 9.831e+03 7.111e-09
  2.53979   -278.1 9.836e+03 7.108e-09
  2.55286   -276.6 9.993e+03 7.316e-09
  2.56280   -277.2 1.019e+04 7.248e-09
  2.57957   -275.7 1.050e+04 8.350e-09
  2.59945   -274.2 1.081e+04 9.825e-09
  2.61934   -272.7 1.114e+04 1.155e-08
  2.63923   -271.1 1.145e+04 1.338e-08
  2.65820   -269.5 1.173e+04 1.519e-08
  2.66815   -269.7 1.159e+04 1.377e-08
  2.67900   -268.2 1.171e+04 1.442e-08
  2.69888   -266.6 1.177e+04 1.474e-08
  2.71877   -265.2 1.179e+04 1.483e-08
  2.73866   -263.8 1.182e+04 1.407e-08
  2.75854   -262.5 1.172e+04 1.265e-08
  2.77189   -261.3 1.161e+04 1.095e-08
  2.77689   -260.6 1.125e+04 7.136e-09
  2.78344   -260.9 1.114e+04 5.575e-09
  2.79832   -260.0 1.116e+04 5.535e-09
  2.81820   -259.0 1.115e+04 5.541e-09
  2.83809   -258.1 1.111e+04 5.619e-09
  2.85797   -257.0 1.107e+04 5.694e-09
  2.87786   -255.9 1.100e+04 5.747e-09
  2.88878   -254.7 1.094e+04 5.731e-09
  2.89873   -254.9 1.090e+04 5.629e-09
  2.91763   -253.6 1.079e+04 5.399e-09
  2.93752   -252.3 1.070e+04 5.076e-09
  2.95741   -251.0 1.063e+04 4.736e-09
  2.97729   -249.7 1.057e+04 4.423e-09
  2.99413   -248.4 1.054e+04 4.188e-09
  3.00407   -248.3 1.054e+04 3.627e-09
  3.01707   -246.8 1.054e+04 3.613e-09
  3.03695   -245.6 1.054e+04 3.624e-09
  3.05548   -244.2 1.055e+04 3.676e-09
  3.07546   -243.1 1.058e+04 3.269e-09
  3.10675   -240.9 1.056e+04 3.415e-09
  3.14652   -238.8 1.053e+04 3.445e-09
  3.18629   -236.4 1.034e+04 3.327e-09
  3.21496   -233.5 1.019e+04 3.075e-09
  3.23485   -233.6 9.938e+03 2.002e-09
  3.26584   -231.0 9.875e+03 1.917e-09
  3.30561   -228.4 9.836e+03 1.825e-09
  3.34538   -225.8 9.803e+03 1.705e-09
  3.38516   -223.1 9.759e+03 1.567e-09
  3.42493   -220.4 9.722e+03 1.430e-09
  3.44554   -217.5 9.714e+03 1.331e-09
  3.46543   -217.8 9.745e+03 1.166e-09
  3.50448   -214.9 9.744e+03 1.163e-09
  3.54425   -212.2 9.777e+03 1.204e-09
  3.58402   -209.6 9.845e+03 1.356e-09
  3.62285   -207.1 9.918e+03 1.557e-09
  3.64274   -206.9 9.931e+03 1.262e-09
  3.65623   -204.6 1.000e+04 1.451e-09
  3.67612   -205.1 1.008e+04 1.642e-09
  3.70334   -203.0 1.014e+04 1.760e-09
  3.74311   -201.0 1.015e+04 1.786e-09
  3.78288   -199.1 1.015e+04 1.752e-09
  3.82266   -197.0 1.014e+04 1.560e-09
  3.86243   -194.7 1.014e+04 1.331e-09
  3.88681   -192.5 1.015e+04 1.147e-09
  3.90670   -192.7 1.024e+04 1.270e-09
  3.94197   -190.5 1.026e+04 1.144e-09
  3.98175   -188.4 1.022e+04 1.074e-09
  4.02152   -186.2 1.012e+04 1.040e-09
  4.06129   -184.1 9.989e+03 1.023e-09
  4.09750   -182.1 9.866e+03 1.003e-09
  4.11739   -182.4 9.905e+03 1.240e-09
  4.14084   -180.3 9.825e+03 1.158e-09
  4.18061   -178.3 9.737e+03 1.062e-09
  4.20992   -176.2 9.656e+03 9.677e-10
  4.22980   -176.1 9.705e+03 1.086e-09
  4.26015   -174.0 9.639e+03 9.488e-10
  4.29993   -171.9 9.556e+03 8.455e-10
  4.32808   -169.7 9.516e+03 7.997e-10
  4.34797   -170.5 9.711e+03 9.241e-10
  4.37947   -168.2 9.705e+03 9.185e-10
  4.41925   -166.1 9.708e+03 9.206e-10
  4.45902   -164.1 9.759e+03 9.881e-10
  4.49879   -162.4 9.859e+03 1.300e-09
  4.53856   -160.8 9.984e+03 1.886e-09
  4.55866   -159.4 1.013e+04 2.829e-09
  4.57855   -159.5 1.015e+04 2.161e-09
  4.61811   -158.2 1.021e+04 2.768e-09
  4.65788   -157.1 1.020e+04 3.400e-09
  4.69765   -156.2 1.011e+04 3.825e-09
  4.73743   -155.2 1.007e+04 3.931e-09
  4.76935   -154.1 9.899e+03 3.932e-09
  4.78914   -153.5 9.806e+03 2.605e-09
  4.81687   -152.2 9.644e+03 3.168e-09
  4.85674   -150.5 9.341e+03 2.804e-09
  4.89652   -148.7 9.141e+03 2.196e-09
  4.93629   -146.8 9.011e+03 1.649e-09
  4.97606   -144.8 8.967e+03 1.293e-09
  4.99993   -142.9 9.014e+03 1.153e-09
  5.01982   -142.7 9.051e+03 1.212e-09
  5.05561   -140.7 9.072e+03 1.187e-09
  5.09538   -139.0 9.189e+03 1.208e-09
  5.13515   -137.6 9.433e+03 1.454e-09
  5.17493   -136.3 9.634e+03 1.948e-09
  5.21062   -135.1 9.823e+03 2.618e-09
  5.23051   -134.9 9.904e+03 2.629e-09
  5.25447   -133.9 1.009e+04 3.272e-09
  5.29424   -132.8 1.028e+04 3.839e-09
  5.33402   -131.9 1.051e+04 4.117e-09
  5.36416   -131.0 1.066e+04 4.150e-09
  5.38405   -131.0 1.067e+04 4.501e-09
  5.41356   -130.1 1.074e+04 4.502e-09
  5.44120   -129.0 1.086e+04 4.363e-09
  5.46109   -129.0 1.096e+04 4.113e-09
  5.49311   -127.8 1.107e+04 3.849e-09
  5.53288   -126.7 1.123e+04 3.580e-09
  5.57265   -125.6 1.134e+04 3.361e-09
  5.61242   -124.5 1.146e+04 3.158e-09
  5.65190   -123.4 1.155e+04 2.865e-09
  5.67178   -123.4 1.173e+04 2.817e-09
  5.69197   -122.2 1.173e+04 2.558e-09
  5.73174   -120.7 1.171e+04 2.252e-09
  5.77151   -119.1 1.172e+04 1.931e-09
  5.81129   -117.2 1.177e+04 1.616e-09
  5.85106   -115.3 1.188e+04 1.312e-09
  5.88248   -113.3 1.203e+04 1.034e-09
  5.90236   -113.3 1.211e+04 1.117e-09
  5.93061   -111.1 1.223e+04 8.881e-10
  5.95123   -108.9 1.238e+04 7.339e-10
  5.97112   -109.2 1.234e+04 7.034e-10
  6.01015   -107.0 1.250e+04 6.222e-10
  6.04992   -104.8 1.264e+04 5.782e-10
  6.08970   -102.7 1.274e+04 5.626e-10
  6.11305   -100.5 1.278e+04 5.638e-10
  6.13294   -100.2 1.285e+04 5.496e-10
  6.16924    -98.1 1.302e+04 5.511e-10
  6.20901    -96.1 1.321e+04 5.790e-10
  6.24879    -94.1 1.328e+04 6.353e-10
  6.28856    -92.3 1.336e+04 6.895e-10
  6.32375    -90.5 1.346e+04 7.244e-10
  6.34363    -90.0 1.361e+04 6.607e-10
  6.36810    -88.2 1.373e+04 6.877e-10
  6.40788    -86.4 1.386e+04 7.062e-10
  6.44765    -84.6 1.402e+04 7.152e-10
  6.48742    -82.6 1.414e+04 7.158e-10
  6.51841    -80.3 1.442e+04 6.804e-10
  6.53830    -80.5 1.442e+04 6.921e-10
  6.55433    -78.1 1.467e+04 6.231e-10
  6.57421    -77.8 1.474e+04 6.496e-10
  6.60674    -75.1 1.497e+04 5.777e-10
  6.64651    -72.4 1.518e+04 5.188e-10
  6.68629    -69.6 1.539e+04 4.755e-10
  6.72606    -66.8 1.561e+04 4.448e-10
  6.76502    -64.0 1.575e+04 4.356e-10
  6.78490    -63.6 1.579e+04 4.272e-10
  6.80560    -60.9 1.585e+04 4.397e-10
  6.84538    -58.3 1.572e+04 5.131e-10
  6.88515    -55.8 1.554e+04 6.366e-10
  6.92492    -53.3 1.543e+04 7.871e-10
  6.96469    -50.8 1.539e+04 9.385e-10
  6.99560    -48.4 1.535e+04 1.070e-09
  7.01548    -48.0 1.528e+04 1.026e-09
  7.04424    -45.6 1.521e+04 1.050e-09
  7.08401    -43.3 1.519e+04 1.058e-09
  7.10548    -41.1 1.511e+04 1.103e-09
  7.12536    -41.9 1.510e+04 1.158e-09
  7.16356    -39.9 1.505e+04 1.303e-09
  7.20333    -38.0 1.498e+04 1.531e-09
  7.22618    -36.1 1.492e+04 1.765e-09
  7.24606    -36.0 1.487e+04 1.719e-09
  7.28287    -34.1 1.475e+04 1.897e-09
  7.32265    -32.2 1.460e+04 2.043e-09
  7.36242    -30.4 1.460e+04 2.044e-09
  7.40219    -28.5 1.476e+04 1.834e-09
  7.43687    -26.7 1.481e+04 1.472e-09
  7.45675    -26.3 1.493e+04 1.221e-09
  7.48174    -24.6 1.504e+04 8.730e-10
  7.52151    -23.1 1.498e+04 7.261e-10
  7.56128    -21.8 1.490e+04 7.011e-10
  7.60106    -20.8 1.494e+04 7.958e-10
  7.64083    -20.7 1.492e+04 1.169e-09
  7.66745    -20.7 1.484e+04 2.216e-09
  7.67939    -19.9 1.456e+04 2.207e-09
  7.69254    -21.4 1.458e+04 3.412e-09
  7.72037    -21.0 1.477e+04 4.602e-09
  7.76015    -20.9 1.486e+04 4.418e-09
  7.79992    -20.4 1.475e+04 3.513e-09
  7.83969    -19.5 1.465e+04 3.028e-09
  7.87814    -18.2 1.465e+04 2.958e-09
  7.89803    -17.8 1.458e+04 3.909e-09
  7.91924    -16.5 1.456e+04 3.592e-09
  7.95901    -14.9 1.482e+04 2.917e-09
  7.99878    -13.6 1.500e+04 2.336e-09
  8.03855    -12.2 1.508e+04 2.129e-09
  8.07833    -10.6 1.519e+04 1.920e-09
  8.10872     -8.8 1.517e+04 1.669e-09
  8.12860     -8.8 1.519e+04 1.172e-09
  8.15787     -7.2 1.532e+04 9.998e-10
  8.19764     -5.4 1.541e+04 9.169e-10
  8.23742     -3.1 1.535e+04 8.873e-10
  8.25972     -0.9 1.551e+04 7.253e-10
  8.27961     -1.1 1.554e+04 6.507e-10
  8.31696      1.0 1.553e+04 5.778e-10
  8.33930      3.3 1.554e+04 5.821e-10
  8.35918      3.5 1.552e+04 5.938e-10
  8.39651      5.4 1.543e+04 7.356e-10
  8.43628      7.7 1.523e+04 1.044e-09
  8.47605     10.1 1.512e+04 1.333e-09
  8.51583     12.3 1.522e+04 1.407e-09
  8.54999     14.3 1.525e+04 1.475e-09
  8.56988     14.3 1.524e+04 1.296e-09
  8.59537     16.3 1.524e+04 1.304e-09
  8.63514     18.1 1.523e+04 1.485e-09
  8.67492     20.0 1.513e+04 1.946e-09
  8.71469     22.0 1.504e+04 2.482e-09
  8.75446     23.9 1.498e+04 2.838e-09
  8.78057     25.5 1.492e+04 3.141e-09
  8.80046     25.6 1.487e+04 3.250e-09
  8.82690     27.0 1.481e+04 3.403e-09
  8.84679     27.1 1.490e+04 4.570e-09
  8.87378     28.5 1.478e+04 5.518e-09
  8.91355     29.5 1.478e+04 5.529e-09
  8.95332     30.4 1.475e+04 4.862e-09
  8.99126     31.2 1.470e+04 3.941e-09
  9.01115     31.1 1.464e+04 3.899e-09
  9.03287     32.1 1.467e+04 3.653e-09
  9.07264     33.1 1.467e+04 4.000e-09
  9.11242     34.1 1.475e+04 4.549e-09
  9.15219     34.9 1.472e+04 4.490e-09
  9.19196     35.8 1.456e+04 4.050e-09
  9.22184     36.8 1.446e+04 3.187e-09
  9.24173     36.8 1.436e+04 4.005e-09
  9.27151     37.7 1.416e+04 3.255e-09
  9.31128     38.7 1.396e+04 3.215e-09
  9.35105     39.6 1.386e+04 3.486e-09
  9.39082     40.3 1.374e+04 3.685e-09
  9.41397     40.9 1.368e+04 3.499e-09
  9.43385     40.7 1.380e+04 3.583e-09
  9.45242     41.2 1.376e+04 3.537e-09
  9.47231     41.4 1.372e+04 3.911e-09
  9.51014     42.1 1.370e+04 3.585e-09
  9.54991     42.9 1.360e+04 3.368e-09
  9.58969     44.0 1.354e+04 3.279e-09
  9.62946     45.4 1.368e+04 2.852e-09
  9.66311     47.1 1.384e+04 2.295e-09
  9.68300     47.6 1.394e+04 2.477e-09
  9.70900     49.3 1.401e+04 1.976e-09
  9.74878     50.9 1.405e+04 1.495e-09
  9.78855     52.6 1.405e+04 1.115e-09
  9.82832     54.4 1.405e+04 8.696e-10
  9.86809     56.2 1.402e+04 7.343e-10
  9.89369     58.1 1.384e+04 6.989e-10
  9.91358     58.8 1.379e+04 8.510e-10
  9.94764     60.9 1.375e+04 8.504e-10
  9.98115     63.1 1.365e+04 8.941e-10
 10.00103     63.2 1.384e+04 6.737e-10
 10.02719     65.4 1.375e+04 7.444e-10
 10.06696     67.5 1.367e+04 8.407e-10
 10.10438     69.4 1.357e+04 9.744e-10
 10.12427     70.2 1.357e+04 1.200e-09
 10.14650     72.2 1.347e+04 1.579e-09
 10.18628     73.8 1.337e+04 2.194e-09
 10.22605     75.0 1.339e+04 3.003e-09
 10.26582     75.5 1.351e+04 3.823e-09
 10.29555     75.6 1.356e+04 4.794e-09
 10.31534     75.6 1.355e+04 5.691e-09
 10.33477     75.6 1.359e+04 6.822e-09
 10.34471     75.9 1.377e+04 7.444e-09
 10.35511     75.6 1.385e+04 8.617e-09
 10.37500     75.0 1.397e+04 1.092e-08
 10.39489     74.0 1.421e+04 1.605e-08
 10.41477     72.8 1.457e+04 2.583e-08
 10.43466     71.6 1.497e+04 3.810e-08
 10.45006     69.9 1.520e+04 4.077e-08
 10.46000     69.6 1.528e+04 4.545e-08
 10.47443     67.3 1.534e+04 4.646e-08
 10.49432     64.8 1.537e+04 4.818e-08
 10.51420     62.3 1.542e+04 5.198e-08
 10.53409     60.1 1.536e+04 5.279e-08
 10.55398     58.9 1.503e+04 4.772e-08
 10.56535     58.4 1.444e+04 3.387e-08
 10.56944     58.0 1.429e+04 2.828e-08
 10.57796     57.3 1.431e+04 2.741e-08
 10.59375     56.8 1.370e+04 1.329e-08
 10.62368     54.7 1.328e+04 6.926e-09
 10.66355     53.8 1.257e+04 5.990e-09
 10.70332     53.8 1.239e+04 5.802e-09
 10.74309     54.3 1.223e+04 5.693e-09
 10.77623     55.2 1.202e+04 4.965e-09
 10.79612     54.8 1.205e+04 5.450e-09
 10.82264     56.1 1.190e+04 3.899e-09
 10.86241     57.6 1.179e+04 2.469e-09
 10.90218     59.0 1.184e+04 1.507e-09
 10.94196     60.3 1.182e+04 1.082e-09
 10.98173     62.0 1.172e+04 1.058e-09
 11.00681     63.7 1.172e+04 1.121e-09
 11.02670     63.1 1.180e+04 1.087e-09
 11.06127     64.6 1.179e+04 1.384e-09
 11.10105     65.9 1.180e+04 1.816e-09
 11.13539     67.0 1.200e+04 2.037e-09
 11.15528     67.4 1.193e+04 1.744e-09
 11.18059     68.2 1.201e+04 1.662e-09
 11.21750     68.8 1.213e+04 1.496e-09
 11.23739     68.4 1.220e+04 1.571e-09
 11.26014     69.2 1.220e+04 1.511e-09
 11.29991     69.8 1.223e+04 1.566e-09
 11.33968     70.2 1.222e+04 1.824e-09
 11.37945     70.1 1.213e+04 2.160e-09
 11.41923     69.8 1.208e+04 2.473e-09
 11.44808     69.0 1.199e+04 2.564e-09
 11.46797     68.3 1.210e+04 2.844e-09
 11.49877     67.5 1.197e+04 2.823e-09
 11.53855     67.2 1.179e+04 2.777e-09
 11.57832     67.1 1.166e+04 2.771e-09
 11.61809     67.3 1.156e+04 2.839e-09
 11.65786     67.8 1.149e+04 2.863e-09
 11.67866     68.5 1.144e+04 2.809e-09
 11.69855     68.0 1.162e+04 3.487e-09
 11.72246     69.0 1.151e+04 3.143e-09
 11.74235     69.6 1.139e+04 3.084e-09
 11.77718     71.0 1.132e+04 2.753e-09
 11.81695     72.8 1.136e+04 2.722e-09
 11.85673     74.0 1.149e+04 2.833e-09
 11.88646     74.7 1.155e+04 3.037e-09
 11.89910     75.6 1.161e+04 3.326e-09
 11.90905     75.6 1.181e+04 4.013e-09
 11.92613     76.4 1.185e+04 4.512e-09
 11.94602     77.3 1.190e+04 5.082e-09
 11.96591     78.2 1.199e+04 5.760e-09
 11.98579     78.9 1.213e+04 6.597e-09
 12.00445     79.7 1.232e+04 7.705e-09
 12.01439     79.2 1.255e+04 1.030e-08
 12.01580     79.8 1.285e+04 1.265e-08
 12.02574     79.8 1.265e+04 1.063e-08
 12.04545     79.9 1.301e+04 1.413e-08
 12.06534     79.8 1.347e+04 2.019e-08
 12.08522     79.8 1.399e+04 2.917e-08
 12.10511     79.8 1.445e+04 3.987e-08
 12.11974     79.4 1.478e+04 4.785e-08
 12.12968     79.2 1.450e+04 3.307e-08
 12.14488     77.1 1.534e+04 4.373e-08
 12.15754     75.3 1.602e+04 5.762e-08
 12.16247     75.9 1.573e+04 5.204e-08
 12.16964     74.7 1.619e+04 6.303e-08
 12.17729     72.2 1.722e+04 9.189e-08
 12.18226     71.5 1.718e+04 8.747e-08
 12.18953     68.2 1.822e+04 1.831e-07
 12.19947     65.8 1.864e+04 3.841e-07
 12.20942     63.6 1.880e+04 4.826e-07
 12.21936     61.9 1.864e+04 4.279e-07
 12.22930     60.9 1.812e+04 2.604e-07
 12.23498     59.5 1.707e+04 7.555e-08
 12.24497     57.4 1.621e+04 5.768e-08
 12.26420     54.6 1.347e+04 5.882e-09
 12.28954     48.1 1.282e+04 1.964e-09
 12.30953     50.7 1.444e+04 2.158e-09
 12.33063     47.4 1.168e+04 1.696e-09
 12.35051     47.7 1.180e+04 2.035e-09
 12.37377     48.8 1.148e+04 1.902e-09
 12.41354     50.9 1.145e+04 1.887e-09
 12.45332     53.1 1.148e+04 1.935e-09
 12.49309     55.0 1.151e+04 1.977e-09
 12.53286     57.0 1.151e+04 1.957e-09
 12.56121     58.9 1.148e+04 1.868e-09
 12.58109     58.6 1.155e+04 1.668e-09
 12.61241     60.2 1.147e+04 1.602e-09
 12.65218     61.9 1.141e+04 1.510e-09
 12.69195     63.5 1.135e+04 1.403e-09
 12.73172     65.1 1.127e+04 1.299e-09
 12.77150     66.8 1.117e+04 1.205e-09
 12.79178     68.6 1.105e+04 1.118e-09
 12.81167     68.3 1.089e+04 8.692e-10
 12.85104     70.1 1.083e+04 7.098e-10
 12.87671     71.9 1.080e+04 5.817e-10
 12.89659     72.7 1.077e+04 5.463e-10
 12.93059     74.3 1.074e+04 4.701e-10
 12.97036     75.9 1.075e+04 4.001e-10
 13.00248     77.4 1.070e+04 3.524e-10
 13.02236     77.2 1.063e+04 2.745e-10
 13.04990     79.0 1.060e+04 2.752e-10
 13.08968     80.7 1.058e+04 2.829e-10
 13.12945     82.2 1.054e+04 3.153e-10
 13.16922     83.8 1.048e+04 3.993e-10
 13.20900     85.4 1.044e+04 5.878e-10
 13.23306     86.8 1.048e+04 9.730e-10
 13.25294     86.8 1.050e+04 7.838e-10
 13.28854     87.8 1.065e+04 1.264e-09
 13.32831     88.2 1.080e+04 1.832e-09
 13.36809     88.1 1.090e+04 2.268e-09
 13.40786     87.9 1.102e+04 2.460e-09
 13.44375     87.3 1.107e+04 2.588e-09
 13.46363     87.9 1.098e+04 2.537e-09
 13.48740     87.1 1.113e+04 3.326e-09
 13.52718     86.1 1.136e+04 4.336e-09
 13.56695     84.6 1.140e+04 4.433e-09
 13.60672     83.1 1.121e+04 3.901e-09
 13.64649     82.4 1.083e+04 2.574e-09
 13.67433     82.2 1.059e+04 1.428e-09
 13.69421     81.4 1.071e+04 8.929e-10
 13.72604     81.2 1.035e+04 6.709e-10
 13.76581     81.7 1.018e+04 6.623e-10
 13.80558     82.8 1.018e+04 6.776e-10
 13.84536     83.7 1.021e+04 7.790e-10
 13.88502     84.1 1.037e+04 1.086e-09
 13.92479     82.6 1.075e+04 2.474e-09
 13.96468     82.4 1.099e+04 3.210e-09
 14.00445     82.1 1.103e+04 3.146e-09
 14.03095     81.9 1.102e+04 2.595e-09
 14.05084     82.6 1.092e+04 2.490e-09
 14.08399     82.5 1.098e+04 1.798e-09
 14.11560     82.5 1.103e+04 1.409e-09
 14.13548     81.2 1.104e+04 1.093e-09
 14.16354     82.1 1.102e+04 1.092e-09
 14.20331     83.2 1.106e+04 1.116e-09
 14.24308     84.5 1.121e+04 1.165e-09
 14.28286     85.9 1.154e+04 1.266e-09
 14.31259     86.4 1.167e+04 1.226e-09
 14.32429     86.4 1.175e+04 1.238e-09
 14.33423     86.4 1.174e+04 1.399e-09
 14.34598     85.5 1.199e+04 1.768e-09
 14.35593     85.4 1.199e+04 1.484e-09
 14.37215     83.8 1.187e+04 3.696e-09
 14.39204     82.8 1.270e+04 1.430e-08
 14.41192     82.3 1.408e+04 3.878e-08
 14.43181     80.6 1.517e+04 5.760e-08
 14.45133     78.0 1.526e+04 5.201e-08
 14.46127     78.5 1.493e+04 4.795e-08
 14.47158     75.8 1.498e+04 3.236e-08
 14.49147     72.2 1.484e+04 1.507e-08
 14.51135     68.2 1.421e+04 9.731e-09
 14.53124     65.7 1.403e+04 9.945e-09
 14.55113     64.1 1.396e+04 1.187e-08
 14.56662     63.2 1.397e+04 1.542e-08
 14.57656     63.0 1.417e+04 1.814e-08
 14.59090     62.0 1.416e+04 2.091e-08
 14.60788     60.6 1.416e+04 2.085e-08
 14.61782     60.5 1.408e+04 2.190e-08
 14.63067     59.0 1.384e+04 1.940e-08
 14.65056     57.9 1.336e+04 1.475e-08
 14.67044     57.1 1.286e+04 1.006e-08
 14.68191     56.6 1.252e+04 6.286e-09
 14.69185     56.3 1.283e+04 6.545e-09
 14.72026     55.4 1.247e+04 3.851e-09
 14.76013     54.4 1.239e+04 2.473e-09
 14.78745     53.6 1.229e+04 2.261e-09
 14.80734     53.4 1.231e+04 3.017e-09
 14.83967     52.9 1.224e+04 2.971e-09
 14.87945     52.6 1.218e+04 2.937e-09
 14.91922     52.6 1.211e+04 2.764e-09
 14.95899     52.8 1.204e+04 2.495e-09
 14.99814     53.1 1.208e+04 2.315e-09
 15.01803     52.8 1.215e+04 2.632e-09
 15.03854     53.3 1.217e+04 2.639e-09
 15.07831     53.8 1.230e+04 2.718e-09
 15.11808     54.2 1.257e+04 2.988e-09
 15.15785     54.5 1.289e+04 3.785e-09
 15.18520     54.8 1.335e+04 5.363e-09
 15.20508     55.8 1.307e+04 5.364e-09
 15.22872     56.2 1.366e+04 8.132e-09
 15.24851     55.5 1.398e+04 1.146e-08
 15.26703     55.4 1.424e+04 1.560e-08
 15.28692     55.3 1.455e+04 2.310e-08
 15.30681     55.5 1.492e+04 3.093e-08
 15.32669     55.3 1.506e+04 3.197e-08
 15.34381     55.2 1.496e+04 3.011e-08
 15.35376     55.2 1.486e+04 2.967e-08
 15.36647     55.5 1.462e+04 2.377e-08
 15.38635     55.6 1.446e+04 1.866e-08
 15.40624     55.7 1.434e+04 1.507e-08
 15.43616     56.1 1.416e+04 1.252e-08
 15.45930     56.7 1.394e+04 1.097e-08
 15.47919     57.2 1.401e+04 8.831e-09
 15.51581     58.0 1.406e+04 9.095e-09
 15.55558     58.4 1.415e+04 9.453e-09
 15.59535     58.4 1.415e+04 9.053e-09
 15.63513     58.3 1.404e+04 6.984e-09
 15.66999     58.4 1.393e+04 4.340e-09
 15.68988     59.0 1.413e+04 4.916e-09
 15.71467     59.2 1.410e+04 2.987e-09
 15.75238     59.5 1.411e+04 1.953e-09
 15.77226     60.2 1.407e+04 2.251e-09
 15.79422     60.7 1.406e+04 1.532e-09
 15.83399     61.5 1.401e+04 1.226e-09
 15.87376     62.6 1.396e+04 1.135e-09
 15.90057     63.8 1.397e+04 1.153e-09
 15.92046     64.4 1.408e+04 1.062e-09
 15.95331     65.4 1.411e+04 1.249e-09
 15.99308     66.1 1.410e+04 1.816e-09
 16.03285     66.6 1.402e+04 2.948e-09
 16.07262     66.9 1.409e+04 4.387e-09
 16.11126     66.7 1.454e+04 4.771e-09
 16.13115     67.1 1.455e+04 4.173e-09
 16.15217     66.5 1.464e+04 3.959e-09
 16.19194     66.1 1.488e+04 2.955e-09
 16.23171     65.8 1.512e+04 1.842e-09
 16.27149     65.8 1.501e+04 1.579e-09
 16.31126     65.9 1.499e+04 1.662e-09
 16.33944     66.1 1.498e+04 1.882e-09
 16.35014     66.8 1.509e+04 2.208e-09
 16.36173     67.5 1.508e+04 2.720e-09
 16.39081     67.4 1.493e+04 3.203e-09
 16.43058     67.2 1.478e+04 2.933e-09
 16.47035     67.2 1.469e+04 1.895e-09
 16.51012     67.0 1.492e+04 9.650e-10
 16.54990     66.8 1.456e+04 7.614e-10
 16.57242     67.0 1.431e+04 8.441e-10
 16.59231     67.9 1.413e+04 7.720e-10
 16.62944     68.5 1.376e+04 1.008e-09
 16.66921     69.4 1.354e+04 1.362e-09
 16.70899     70.2 1.342e+04 1.722e-09
 16.74876     71.0 1.338e+04 2.059e-09
 16.78311     71.3 1.326e+04 2.411e-09
 16.80300     72.5 1.313e+04 2.831e-09
 16.82830     72.6 1.289e+04 3.797e-09
 16.86808     72.4 1.273e+04 4.747e-09
 16.90662     71.5 1.252e+04 5.467e-09
 16.92651     70.6 1.268e+04 6.777e-09
 16.94762     69.2 1.242e+04 6.479e-09
 16.98739     67.9 1.208e+04 5.570e-09
 17.01369     67.0 1.173e+04 4.120e-09
 17.03358     68.4 1.169e+04 3.799e-09
 17.06694     68.0 1.144e+04 2.880e-09
 17.10671     67.6 1.122e+04 2.080e-09
 17.14649     67.3 1.090e+04 1.865e-09
 17.18626     67.4 1.083e+04 1.924e-09
 17.22438     67.6 1.067e+04 2.232e-09
 17.24427     69.4 1.065e+04 2.107e-09
 17.26580     69.7 1.054e+04 2.571e-09
 17.30558     70.1 1.041e+04 2.737e-09
 17.34535     70.8 1.031e+04 2.529e-09
 17.38512     71.7 1.013e+04 1.847e-09
 17.42489     72.5 1.008e+04 1.066e-09
 17.45496     72.9 1.013e+04 5.905e-10
 17.47485     74.5 1.005e+04 8.815e-10
 17.49369     74.9 1.007e+04 5.813e-10
 17.51358     75.1 9.879e+03 6.084e-10
 17.54421     76.1 9.875e+03 6.184e-10
 17.58398     77.1 9.902e+03 6.752e-10
 17.62376     78.1 9.963e+03 7.725e-10
 17.66353     79.0 1.002e+04 8.516e-10
 17.68554     79.9 1.009e+04 8.657e-10
 17.70543     80.9 1.002e+04 8.928e-10
 17.74307     81.7 1.006e+04 8.663e-10
 17.78285     82.6 1.005e+04 8.602e-10
 17.82262     83.5 1.007e+04 8.831e-10
 17.86239     84.6 1.013e+04 9.678e-10
 17.89624     85.7 1.020e+04 1.108e-09
 17.91612     86.5 1.016e+04 1.159e-09
 17.94194     87.7 1.023e+04 1.320e-09
 17.98171     88.9 1.036e+04 1.384e-09
 18.02148     90.0 1.050e+04 1.379e-09
 18.06087     91.2 1.054e+04 1.382e-09
 18.08076     91.9 1.056e+04 1.758e-09
 18.10103     93.1 1.060e+04 1.834e-09
 18.12681     94.2 1.059e+04 2.072e-09
 18.14670     94.9 1.049e+04 2.272e-09
 18.18057     95.9 1.047e+04 2.671e-09
 18.22035     96.7 1.050e+04 3.178e-09
 18.26012     97.4 1.054e+04 3.591e-09
 18.29989     98.0 1.056e+04 3.751e-09
 18.33751     98.7 1.057e+04 3.764e-09
 18.35739     99.2 1.033e+04 3.293e-09
 18.37944    100.2 1.038e+04 3.464e-09
 18.41921    101.2 1.052e+04 3.901e-09
 18.45898    102.3 1.072e+04 4.441e-09
 18.49875    103.3 1.078e+04 5.230e-09
 18.53853    104.2 1.121e+04 5.207e-09
 18.56809    105.1 1.129e+04 4.964e-09
 18.58797    105.5 1.122e+04 5.165e-09
 18.61807    106.2 1.134e+04 4.849e-09
 18.64794    106.8 1.143e+04 4.525e-09
 18.66782    106.7 1.111e+04 2.817e-09
 18.69762    107.6 1.116e+04 2.586e-09
 18.73739    108.3 1.120e+04 2.406e-09
 18.77716    108.9 1.125e+04 2.212e-09
 18.79866    109.4 1.136e+04 2.008e-09
 18.81855    109.7 1.127e+04 2.015e-09
 18.85671    110.1 1.153e+04 1.824e-09
 18.89648    110.5 1.163e+04 1.787e-09
 18.93625    110.9 1.172e+04 1.808e-09
 18.97603    111.3 1.192e+04 1.978e-09
 19.00936    111.8 1.216e+04 2.482e-09
 19.02924    111.9 1.209e+04 2.374e-09
 19.05557    112.2 1.232e+04 2.990e-09
 19.08530    112.3 1.243e+04 3.484e-09
 19.10509    112.3 1.254e+04 3.892e-09
 19.12445    112.3 1.271e+04 4.339e-09
 19.13439    112.2 1.264e+04 4.309e-09
 19.14486    112.1 1.277e+04 4.763e-09
 19.16475    111.9 1.291e+04 5.287e-09
 19.18464    111.5 1.312e+04 6.096e-09
 19.20452    110.9 1.337e+04 7.606e-09
 19.22441    110.2 1.365e+04 1.030e-08
 19.23481    109.3 1.391e+04 1.424e-08
 19.24019    108.9 1.415e+04 1.736e-08
 19.24968    109.1 1.409e+04 1.679e-08
 19.26418    108.2 1.418e+04 2.056e-08
 19.28407    107.2 1.414e+04 2.079e-08
 19.30395    106.4 1.400e+04 2.030e-08
 19.32384    105.7 1.374e+04 1.863e-08
 19.34373    105.3 1.347e+04 1.673e-08
 19.37365    104.4 1.311e+04 1.281e-08
 19.41352    104.0 1.264e+04 8.971e-09
 19.45063    104.0 1.219e+04 5.662e-09
 19.47051    104.1 1.202e+04 4.109e-09
 19.49307    104.7 1.178e+04 2.154e-09
 19.53284    105.8 1.164e+04 1.236e-09
 19.57262    107.1 1.113e+04 1.022e-09
 19.61239    109.0 1.100e+04 1.019e-09
 19.65216    111.0 1.096e+04 1.036e-09
 19.68121    112.8 1.087e+04 1.098e-09
 19.70109    113.1 1.086e+04 1.101e-09
 19.73171    114.9 1.074e+04 1.183e-09
 19.77148    116.5 1.065e+04 1.257e-09
 19.80218    118.0 1.053e+04 1.316e-09
 19.82207    118.7 1.065e+04 1.309e-09
 19.85102    120.2 1.053e+04 1.297e-09
 19.89080    121.6 1.043e+04 1.240e-09
 19.91179    123.1 1.034e+04 1.127e-09
 19.93167    123.5 1.035e+04 1.203e-09
 19.97034    125.1 1.025e+04 1.050e-09
 20.01011    126.7 1.015e+04 8.857e-10
 20.04989    128.4 1.009e+04 7.395e-10
 20.08966    130.1 1.002e+04 6.493e-10
 20.12248    131.9 9.916e+03 6.343e-10
 20.14236    132.3 9.883e+03 6.777e-10
 20.16920    134.1 9.867e+03 6.779e-10
 20.20898    135.9 9.854e+03 6.840e-10
 20.24875    137.7 9.814e+03 7.157e-10
 20.28852    139.4 9.778e+03 7.812e-10
 20.32830    141.0 9.756e+03 8.677e-10
 20.35306    142.4 9.745e+03 9.548e-10
 20.37294    142.9 9.726e+03 1.143e-09
 20.38925    144.3 9.715e+03 1.237e-09
 20.40913    145.3 9.852e+03 1.224e-09
 20.44761    146.6 9.866e+03 1.226e-09
 20.48739    147.9 9.875e+03 1.227e-09
 20.52716    149.2 9.906e+03 1.244e-09
 20.56375    150.4 9.985e+03 1.312e-09
 20.58364    151.0 1.005e+04 1.601e-09
 20.60670    152.0 1.016e+04 1.671e-09
 20.64648    152.9 1.025e+04 1.767e-09
 20.68625    153.6 1.034e+04 1.866e-09
 20.72602    154.3 1.047e+04 2.019e-09
 20.76579    155.0 1.067e+04 2.232e-09
 20.79433    155.6 1.091e+04 2.554e-09
 20.81421    156.7 1.086e+04 2.441e-09
 20.84534    157.0 1.108e+04 2.826e-09
 20.87507    157.0 1.116e+04 3.137e-09
 20.89486    157.3 1.129e+04 3.460e-09
 20.90942    157.7 1.146e+04 3.647e-09
 20.91937    158.4 1.149e+04 3.994e-09
 20.93463    158.5 1.165e+04 4.105e-09
 20.95452    158.5 1.178e+04 4.116e-09
 20.96618    158.4 1.188e+04 4.124e-09
 20.97612    158.7 1.207e+04 4.658e-09
 20.99429    158.4 1.218e+04 4.854e-09
 21.01418    157.9 1.224e+04 5.226e-09
 21.02471    157.1 1.229e+04 6.118e-09
 21.03466    158.3 1.218e+04 5.758e-09
 21.05395    157.4 1.223e+04 6.514e-09
 21.07384    156.1 1.238e+04 8.785e-09
 21.09372    154.7 1.265e+04 1.324e-08
 21.11361    153.3 1.294e+04 1.922e-08
 21.13006    152.1 1.310e+04 2.331e-08
 21.14000    153.8 1.285e+04 1.795e-08
 21.15338    152.6 1.299e+04 2.175e-08
 21.17327    151.6 1.292e+04 2.129e-08
 21.19315    150.8 1.263e+04 1.827e-08
 21.21304    150.0 1.221e+04 1.268e-08
 21.23293    148.9 1.175e+04 7.458e-09
 21.24535    147.4 1.122e+04 4.233e-09
 21.25224    149.3 1.196e+04 9.009e-09
 21.25971    148.4 1.175e+04 7.239e-09
 21.27270    146.7 1.112e+04 4.687e-09
 21.29259    145.1 1.049e+04 3.804e-09
 21.31247    144.1 1.035e+04 3.933e-09
 21.33236    143.9 1.016e+04 4.368e-09
 21.35069    144.0 1.009e+04 5.030e-09
 21.36064    144.7 1.041e+04 5.927e-09
 21.37213    144.8 1.038e+04 6.758e-09
 21.39202    145.1 1.037e+04 7.321e-09
 21.41190    145.4 1.037e+04 7.520e-09
 21.43179    145.7 1.036e+04 7.420e-09
 21.45168    145.8 1.043e+04 7.373e-09
 21.46598    145.9 1.037e+04 7.085e-09
 21.47593    146.1 1.218e+04 1.665e-08
 21.49145    146.0 1.204e+04 1.589e-08
 21.51134    145.9 1.168e+04 1.416e-08
 21.53122    145.5 1.134e+04 1.290e-08
 21.54330    145.2 1.111e+04 1.253e-08
 21.55324    145.4 1.072e+04 9.234e-09
 21.57099    145.4 1.073e+04 9.744e-09
 21.58127    145.5 1.085e+04 1.053e-08
 21.59122    145.8 1.199e+04 1.820e-08
 21.61077    145.8 1.192e+04 1.834e-08
 21.63065    145.8 1.194e+04 1.870e-08
 21.65054    145.6 1.206e+04 1.998e-08
 21.67043    145.1 1.237e+04 2.307e-08
 21.68662    144.4 1.284e+04 2.854e-08
 21.69656    144.8 1.360e+04 3.823e-08
 21.71020    144.0 1.400e+04 4.451e-08
 21.73009    143.1 1.423e+04 4.795e-08
 21.74997    142.0 1.424e+04 4.755e-08
 21.76986    140.6 1.413e+04 4.352e-08
 21.78472    138.8 1.430e+04 4.283e-08
 21.79462    137.5 1.441e+04 4.275e-08
 21.80186    134.1 1.494e+04 4.633e-08
 21.80683    132.8 1.576e+04 5.573e-08
 21.81450    131.0 1.613e+04 6.132e-08
 21.82684    123.3 1.803e+04 1.096e-07
 21.83683    121.7 1.772e+04 1.076e-07
 21.84940    112.8 1.840e+04 1.551e-07
 21.86929    104.9 1.815e+04 1.437e-07
 21.88918     99.3 1.693e+04 8.588e-08
 21.90726     94.4 1.469e+04 3.124e-08
 21.91720     91.2 1.348e+04 1.828e-08
 21.92895     85.8 1.048e+04 7.986e-09
 21.94883     83.8 9.984e+03 6.623e-09
 21.96872     83.4 1.003e+04 6.666e-09
 21.98861     82.8 1.048e+04 7.600e-09
 22.00849     82.3 1.114e+04 9.357e-09
 22.02254     82.3 1.102e+04 9.252e-09
 22.03249     79.3 1.336e+04 2.420e-08
 22.04827     79.1 1.333e+04 2.449e-08
 22.06815     78.4 1.338e+04 2.619e-08
 22.08804     77.7 1.333e+04 2.721e-08
 22.10792     77.1 1.311e+04 2.576e-08
 22.12042     76.8 1.285e+04 2.316e-08
 22.13037     76.5 1.326e+04 2.925e-08
 22.14770     74.9 1.347e+04 3.167e-08
 22.16758     75.6 1.321e+04 2.711e-08
 22.18747     76.4 1.296e+04 2.215e-08
 22.20736     77.2 1.275e+04 1.755e-08
 22.22724     78.0 1.250e+04 1.350e-08
 22.24318     78.7 1.221e+04 1.035e-08
 22.25312     78.6 1.267e+04 1.517e-08
 22.26702     79.4 1.218e+04 1.025e-08
 22.28690     79.9 1.180e+04 7.584e-09
 22.31683     81.3 1.154e+04 5.929e-09
 22.34872     83.5 1.106e+04 3.567e-09
 22.36861     82.6 1.166e+04 6.382e-09
 22.39647     84.6 1.122e+04 3.955e-09
 22.43624     86.5 1.100e+04 2.385e-09
 22.46391     87.8 1.086e+04 1.875e-09
 22.47376     87.1 1.092e+04 2.155e-09
 22.48576     87.8 1.087e+04 1.923e-09
 22.50565     88.4 1.088e+04 1.809e-09
 22.52554     89.0 1.089e+04 1.822e-09
 22.54542     89.5 1.088e+04 1.891e-09
 22.56531     90.1 1.091e+04 2.110e-09
 22.57911     90.7 1.100e+04 2.545e-09
 22.58905     90.6 1.104e+04 2.632e-09
 22.60508     91.2 1.112e+04 3.267e-09
 22.62497     91.9 1.123e+04 4.189e-09
 22.64486     92.5 1.145e+04 5.413e-09
 22.66474     92.9 1.172e+04 6.892e-09
 22.68445     93.3 1.201e+04 8.493e-09
 22.69439     93.6 1.192e+04 8.454e-09
 22.69755     93.7 1.217e+04 9.991e-09
 22.70749     93.2 1.202e+04 9.627e-09
 22.72440     93.3 1.215e+04 1.066e-08
 22.74429     93.2 1.223e+04 1.134e-08
 22.76417     93.1 1.228e+04 1.172e-08
 22.78406     92.9 1.234e+04 1.187e-08
 22.79974     92.6 1.236e+04 1.192e-08
 22.80968     92.9 1.227e+04 1.160e-08
 22.82383     92.6 1.223e+04 1.140e-08
 22.84372     92.4 1.215e+04 1.099e-08
 22.86360     92.5 1.206e+04 1.043e-08
 22.88349     92.6 1.197e+04 9.783e-09
 22.90338     92.9 1.190e+04 9.150e-09
 22.91503     93.3 1.183e+04 8.648e-09
 22.92497     93.8 1.169e+04 7.531e-09
 22.94315     94.4 1.169e+04 7.492e-09
 22.96304     95.2 1.172e+04 7.591e-09
 22.98114     95.9 1.177e+04 7.812e-09
 22.99108     95.9 1.168e+04 6.914e-09
 23.00281     96.7 1.176e+04 7.059e-09
 23.02038     97.4 1.184e+04 7.147e-09
 23.03032     98.0 1.172e+04 6.388e-09
 23.04258     98.8 1.178e+04 6.532e-09
 23.06247     99.6 1.188e+04 6.701e-09
 23.08235    100.3 1.205e+04 7.120e-09
 23.10224    100.5 1.225e+04 8.125e-09
 23.12213    100.6 1.247e+04 1.009e-08
 23.13567    100.7 1.270e+04 1.316e-08
 23.14561    101.7 1.246e+04 1.115e-08
 23.16190    101.8 1.272e+04 1.604e-08
 23.18179    101.9 1.321e+04 2.153e-08
 23.20167    101.8 1.340e+04 2.141e-08
 23.22156    101.4 1.339e+04 1.916e-08
 23.24101    100.8 1.310e+04 1.359e-08
 23.25096    102.1 1.361e+04 2.178e-08
 23.26133    101.3 1.324e+04 1.317e-08
 23.27467    100.5 1.274e+04 9.007e-09
 23.28461    101.3 1.259e+04 9.161e-09
 23.31114    102.0 1.236e+04 6.591e-09
 23.35101    101.7 1.195e+04 2.956e-09
 23.39079    101.8 1.187e+04 1.780e-09
 23.43056    102.4 1.179e+04 1.566e-09
 23.46184    103.7 1.176e+04 1.612e-09
 23.48173    104.1 1.193e+04 2.733e-09
 23.51011    105.5 1.195e+04 2.709e-09
 23.54988    107.1 1.206e+04 2.799e-09
 23.58965    108.7 1.223e+04 2.827e-09
 23.62942    110.2 1.231e+04 2.685e-09
 23.66920    111.8 1.223e+04 2.361e-09
 23.69242    113.6 1.209e+04 1.885e-09
 23.71231    113.8 1.211e+04 1.703e-09
 23.74874    115.8 1.197e+04 1.325e-09
 23.78851    118.0 1.188e+04 1.055e-09
 23.82829    120.3 1.173e+04 9.343e-10
 23.85199    122.7 1.165e+04 9.300e-10
 23.87187    123.2 1.166e+04 1.046e-09
 23.90311    125.7 1.163e+04 1.078e-09
 23.92300    126.4 1.163e+04 1.130e-09
 23.94760    128.7 1.154e+04 1.283e-09
 23.98738    130.9 1.150e+04 1.708e-09
 24.02715    132.9 1.154e+04 2.513e-09
 24.06692    134.3 1.167e+04 3.599e-09
 24.10669    134.6 1.171e+04 4.080e-09
 24.13369    134.9 1.168e+04 4.006e-09
 24.15358    136.6 1.168e+04 4.280e-09
 24.18624    137.0 1.158e+04 3.934e-09
 24.22601    137.7 1.141e+04 3.115e-09
 24.26579    138.4 1.125e+04 2.292e-09
 24.30556    139.2 1.117e+04 1.714e-09
 24.34439    140.0 1.117e+04 1.342e-09
 24.36427    141.9 1.111e+04 1.453e-09
 24.38510    142.7 1.108e+04 1.159e-09
 24.41917    143.7 1.097e+04 1.122e-09
 24.43905    143.4 1.088e+04 1.397e-09
 24.46465    144.7 1.086e+04 1.464e-09
 24.50442    146.2 1.103e+04 1.747e-09
 24.54419    147.3 1.138e+04 2.459e-09
 24.57393    148.1 1.149e+04 2.764e-09
 24.58471    148.6 1.155e+04 3.269e-09
 24.59475    149.7 1.131e+04 2.648e-09
 24.61370    149.9 1.140e+04 3.384e-09
 24.63349    150.3 1.139e+04 4.232e-09
 24.65337    150.7 1.139e+04 5.111e-09
 24.67326    150.8 1.140e+04 5.917e-09
 24.69006    150.9 1.140e+04 6.697e-09
 24.70000    151.9 1.143e+04 6.346e-09
 24.71250    151.8 1.148e+04 7.430e-09
 24.72245    151.3 1.133e+04 6.919e-09
 24.73292    151.3 1.133e+04 8.200e-09
 24.75280    151.2 1.138e+04 9.895e-09
 24.77269    151.1 1.149e+04 1.171e-08
 24.79258    150.9 1.158e+04 1.266e-08
 24.80535    150.5 1.157e+04 1.261e-08
 24.81529    151.4 1.191e+04 1.527e-08
 24.83235    150.9 1.181e+04 1.475e-08
 24.85224    150.6 1.146e+04 1.289e-08
 24.87212    150.7 1.099e+04 1.050e-08
 24.89201    150.8 1.054e+04 8.279e-09
 24.91070    150.9 1.018e+04 6.503e-09
 24.92064    151.6 1.030e+04 7.224e-09
 24.93178    151.7 1.000e+04 5.772e-09
 24.95167    151.9 9.777e+03 4.681e-09
 24.97155    152.1 9.588e+03 3.876e-09
 24.99144    152.2 9.476e+03 3.440e-09
 25.00613    152.6 9.441e+03 3.214e-09
 25.02089    153.3 9.027e+03 2.291e-09
 25.03612    154.6 9.156e+03 2.611e-09
 25.06124    155.7 8.898e+03 2.330e-09
 25.10101    156.9 8.711e+03 2.328e-09
 25.14078    157.9 8.660e+03 2.374e-09
 25.18056    159.1 8.624e+03 2.430e-09
 25.22033    160.2 8.634e+03 2.536e-09
 25.24682    161.2 8.716e+03 2.760e-09
 25.26670    162.0 8.750e+03 2.870e-09
 25.28972    162.3 8.759e+03 3.044e-09
 25.29957    162.4 8.720e+03 2.931e-09
 25.30962    163.1 8.712e+03 3.062e-09
 25.32951    163.9 8.828e+03 3.541e-09
 25.34939    164.2 9.140e+03 4.503e-09
 25.36191    164.3 9.543e+03 6.030e-09
 25.37185    165.0 9.581e+03 6.186e-09
 25.38917    164.8 1.009e+04 8.511e-09
 25.40905    164.5 1.071e+04 1.196e-08
 25.42894    164.1 1.134e+04 1.613e-08
 25.44883    163.4 1.187e+04 1.860e-08
 25.46726    162.4 1.196e+04 1.843e-08
 25.47720    163.0 1.209e+04 1.985e-08
 25.48860    161.8 1.207e+04 1.825e-08
 25.50848    160.6 1.182e+04 1.372e-08
 25.52837    159.3 1.132e+04 8.688e-09
 25.54826    157.9 1.065e+04 5.043e-09
 25.56814    156.5 1.003e+04 3.148e-09
 25.58255    155.7 9.846e+03 2.750e-09
 25.58762    156.0 9.899e+03 3.086e-09
 25.59310    156.6 9.918e+03 2.917e-09
 25.60792    156.6 9.855e+03 2.855e-09
 25.62780    156.7 9.857e+03 2.849e-09
 25.64769    156.9 9.928e+03 2.879e-09
 25.66757    157.3 1.015e+04 3.038e-09
 25.68746    157.3 1.043e+04 3.369e-09
 25.69783    157.2 1.070e+04 3.903e-09
 25.70778    157.2 1.079e+04 4.399e-09
 25.72723    156.9 1.111e+04 5.360e-09
 25.74712    156.4 1.149e+04 6.935e-09
 25.76701    155.5 1.205e+04 9.375e-09
 25.78689    154.5 1.277e+04 1.264e-08
 25.80318    153.3 1.347e+04 1.595e-08
 25.81312    152.5 1.345e+04 1.515e-08
 25.82667    151.2 1.369e+04 1.522e-08
 25.84655    150.1 1.374e+04 1.410e-08
 25.86644    149.2 1.364e+04 1.155e-08
 25.87669    148.6 1.337e+04 8.763e-09
 25.88664    148.5 1.336e+04 1.144e-08
 25.90621    148.0 1.282e+04 8.505e-09
 25.91847    147.6 1.238e+04 6.652e-09
 25.92841    147.5 1.228e+04 5.804e-09
 25.94598    147.6 1.208e+04 5.463e-09
 25.96587    147.9 1.189e+04 5.195e-09
 25.98576    148.3 1.176e+04 5.084e-09
 26.00564    148.8 1.175e+04 5.088e-09
 26.02382    149.4 1.175e+04 5.194e-09
 26.03376    149.8 1.181e+04 5.253e-09
 26.04541    150.4 1.190e+04 5.733e-09
 26.06530    150.9 1.204e+04 6.599e-09
 26.08519    151.4 1.217e+04 7.732e-09
 26.10507    151.8 1.228e+04 8.758e-09
 26.12496    152.0 1.228e+04 9.014e-09
 26.13911    152.3 1.223e+04 8.885e-09
 26.14905    152.8 1.226e+04 8.893e-09
 26.16028    153.1 1.216e+04 8.502e-09
 26.17023    152.7 1.200e+04 8.123e-09
 26.18462    153.0 1.183e+04 7.094e-09
 26.20451    153.3 1.166e+04 6.188e-09
 26.22439    153.5 1.154e+04 5.801e-09
 26.24428    153.8 1.157e+04 5.868e-09
 26.25440    154.2 1.165e+04 6.250e-09
 26.26434    154.9 1.156e+04 6.251e-09
 26.28405    155.3 1.169e+04 6.766e-09
 26.30394    155.8 1.194e+04 7.435e-09
 26.32382    156.3 1.224e+04 8.079e-09
 26.34371    156.8 1.258e+04 8.612e-09
 26.35974    157.4 1.300e+04 9.041e-09
 26.36969    157.9 1.239e+04 6.327e-09
 26.38348    158.2 1.284e+04 5.584e-09
 26.40337    158.3 1.347e+04 5.161e-09
 26.42325    158.4 1.401e+04 5.296e-09
 26.44314    158.4 1.474e+04 5.931e-09
 26.45382    158.1 1.546e+04 7.748e-09
 26.46376    158.9 1.557e+04 3.393e-08
 26.47503    158.6 1.620e+04 4.847e-08
 26.48497    159.0 1.610e+04 1.843e-08
 26.50280    158.3 1.694e+04 3.070e-08
 26.52269    157.6 1.772e+04 5.394e-08
 26.54257    157.1 1.837e+04 8.550e-08
 26.55744    156.5 1.870e+04 7.916e-08
 26.56733    155.5 1.901e+04 8.769e-08
 26.57728    154.6 1.938e+04 1.034e-07
 26.58525    153.7 1.998e+04 1.202e-07
 26.59022    153.9 1.938e+04 9.346e-08
 26.59551    152.8 2.009e+04 9.883e-08
 26.60049    153.3 1.991e+04 1.762e-07
 26.60711    152.2 2.009e+04 2.040e-07
 26.61705    150.8 2.025e+04 2.081e-07
 26.62699    149.7 2.026e+04 2.029e-07
 26.63693    149.1 2.052e+04 1.746e-07
 26.64290    148.8 2.073e+04 1.434e-07
 26.64787    149.1 2.102e+04 9.678e-08
 26.66184    148.8 2.089e+04 5.828e-08
 26.68178    148.2 1.966e+04 3.152e-08
 26.69567    147.7 1.761e+04 1.981e-08
 26.70561    147.6 1.450e+04 1.616e-08
 26.72155    147.7 1.318e+04 1.424e-08
 26.73741    148.2 1.266e+04 1.206e-08
 26.74735    149.1 1.705e+04 2.227e-08
 26.76132    149.9 1.612e+04 1.658e-08
 26.78121    151.0 1.517e+04 1.290e-08
 26.80101    152.2 1.477e+04 1.004e-08
 26.82090    153.9 1.431e+04 9.281e-09
 26.84087    155.1 1.409e+04 8.718e-09
 26.86075    156.4 1.401e+04 8.749e-09
 26.88064    157.8 1.403e+04 8.868e-09
 26.90053    159.1 1.401e+04 9.327e-09
 26.91630    160.5 1.392e+04 1.024e-08
 26.92625    161.4 1.400e+04 1.313e-08
 26.94030    162.7 1.391e+04 1.375e-08
 26.96019    163.7 1.385e+04 1.542e-08
 26.98007    164.5 1.395e+04 1.884e-08
 26.99996    165.3 1.473e+04 2.400e-08
 27.01984    165.9 1.554e+04 3.397e-08
 27.03094    166.4 1.620e+04 4.706e-08
 27.03270    165.5 1.838e+04 1.038e-07
 27.03647    166.2 1.830e+04 9.358e-08
 27.04460    166.2 1.857e+04 1.098e-07
 27.05455    166.2 1.894e+04 1.358e-07
 27.06449    166.1 1.918e+04 1.657e-07
 27.07443    166.1 1.913e+04 1.930e-07
 27.08417    166.4 1.893e+04 2.112e-07
 27.08914    167.0 1.915e+04 1.999e-07
 27.09432    167.2 1.897e+04 2.152e-07
 27.10426    167.1 1.886e+04 2.148e-07
 27.11421    167.1 1.857e+04 2.078e-07
 27.12415    167.2 1.827e+04 1.946e-07
 27.13409    167.5 1.800e+04 1.796e-07
 27.14181    167.9 1.780e+04 1.647e-07
 27.14678    168.2 1.820e+04 1.766e-07
 27.15398    168.4 1.798e+04 1.611e-07
 27.16392    168.4 1.776e+04 1.447e-07
 27.17264    168.4 1.744e+04 1.279e-07
 27.17761    168.0 1.756e+04 1.529e-07
 27.18381    168.2 1.715e+04 1.323e-07
 27.19375    168.8 1.682e+04 1.125e-07
 27.19946    168.9 1.669e+04 1.051e-07
 27.20443    169.3 1.701e+04 1.149e-07
 27.21866    169.8 1.667e+04 9.652e-08
 27.23859    170.9 1.622e+04 8.067e-08
 27.25223    172.0 1.585e+04 6.986e-08
 27.26217    172.6 1.671e+04 8.343e-08
 27.27837    173.6 1.636e+04 7.409e-08
 27.29825    174.8 1.612e+04 6.744e-08
 27.31453    175.9 1.582e+04 6.029e-08
 27.32447    176.3 1.729e+04 1.101e-07
 27.33803    177.7 1.720e+04 1.039e-07
 27.35757    179.1 1.699e+04 9.144e-08
 27.36752    179.3 1.733e+04 1.184e-07
 27.37780    180.9 1.708e+04 9.578e-08
 27.39768    182.3 1.669e+04 7.471e-08
 27.41757    183.5 1.607e+04 5.806e-08
 27.43746    184.5 1.536e+04 4.770e-08
 27.45734    185.5 1.473e+04 4.305e-08
 27.47221    186.0 1.458e+04 4.238e-08
 27.47774    186.6 1.460e+04 4.266e-08
 27.48271    187.0 1.453e+04 4.237e-08
 27.49205    187.5 1.458e+04 4.332e-08
 27.50199    187.7 1.480e+04 4.661e-08
 27.51193    187.7 1.512e+04 5.201e-08
 27.52188    187.7 1.542e+04 5.832e-08
 27.53041    187.8 1.565e+04 6.523e-08
 27.53538    188.5 1.557e+04 6.479e-08
 27.54176    188.6 1.583e+04 7.290e-08
 27.55171    188.7 1.603e+04 8.070e-08
 27.56165    188.8 1.616e+04 8.663e-08
 27.57159    189.0 1.631e+04 8.830e-08
 27.58153    189.3 1.637e+04 8.769e-08
 27.58806    189.4 1.640e+04 8.530e-08
 27.59303    189.9 1.621e+04 8.957e-08
 27.60142    190.1 1.624e+04 8.477e-08
 27.60796    190.4 1.618e+04 7.733e-08
 27.61294    190.0 1.726e+04 9.440e-08
 27.62131    190.0 1.700e+04 7.834e-08
 27.63125    189.8 1.651e+04 6.144e-08
 27.64073    189.5 1.589e+04 4.759e-08
 27.64570    190.3 1.625e+04 5.421e-08
 27.65616    190.0 1.568e+04 3.868e-08
 27.67609    189.6 1.439e+04 2.343e-08
 27.69350    188.0 1.279e+04 1.477e-08
 27.70344    189.8 1.395e+04 1.967e-08
 27.71587    187.7 1.223e+04 1.390e-08
 27.73575    186.1 1.142e+04 1.331e-08
 27.75564    185.6 1.141e+04 1.351e-08
 27.77552    185.5 1.151e+04 1.432e-08
 27.79541    185.5 1.166e+04 1.515e-08
 27.80879    185.3 1.174e+04 1.522e-08
 27.81873    185.5 1.197e+04 1.738e-08
 27.83518    185.3 1.203e+04 1.740e-08
 27.85507    185.1 1.201e+04 1.718e-08
 27.87496    185.0 1.201e+04 1.679e-08
 27.89165    184.9 1.202e+04 1.668e-08
 27.90160    184.0 1.191e+04 1.729e-08
 27.91413    183.9 1.206e+04 1.773e-08
 27.92408    183.9 1.281e+04 2.441e-08
 27.93461    183.6 1.320e+04 2.730e-08
 27.95450    183.3 1.370e+04 3.194e-08
 27.97439    182.3 1.421e+04 3.730e-08
 27.98925    181.8 1.456e+04 4.271e-08
 27.99915    181.4 1.473e+04 4.494e-08
 28.00909    180.9 1.493e+04 4.784e-08
 28.01903    180.4 1.514e+04 5.078e-08
 28.02898    179.8 1.534e+04 5.357e-08
 28.03430    179.1 1.556e+04 5.613e-08
 28.03867    179.4 1.617e+04 7.255e-08
 28.04329    178.7 1.627e+04 7.296e-08
 28.04886    177.6 1.651e+04 7.456e-08
 28.05881    176.3 1.671e+04 7.586e-08
 28.06875    174.6 1.679e+04 7.594e-08
 28.07869    172.8 1.678e+04 7.420e-08
 28.08697    170.7 1.665e+04 6.978e-08
 28.09194    170.4 1.721e+04 8.177e-08
 28.09858    168.4 1.674e+04 7.343e-08
 28.10852    166.7 1.627e+04 6.350e-08
 28.11847    165.8 1.602e+04 5.855e-08
 28.13343    165.2 1.552e+04 4.460e-08
 28.14471    163.4 1.489e+04 2.932e-08
 28.15466    162.3 1.522e+04 3.308e-08
 28.17325    160.6 1.442e+04 1.858e-08
 28.18519    158.7 1.364e+04 1.126e-08
 28.19513    158.2 1.352e+04 1.254e-08
 28.21302    157.3 1.319e+04 1.056e-08
 28.23291    156.9 1.306e+04 1.024e-08
 28.25006    156.6 1.301e+04 1.024e-08
 28.26000    156.0 1.314e+04 1.145e-08
 28.27268    155.7 1.311e+04 1.159e-08
 28.29257    155.5 1.309e+04 1.182e-08
 28.31245    155.4 1.307e+04 1.225e-08
 28.33234    155.3 1.304e+04 1.291e-08
 28.35223    155.3 1.298e+04 1.363e-08
 28.36535    155.3 1.289e+04 1.416e-08
 28.37529    155.0 1.294e+04 1.467e-08
 28.39200    155.1 1.286e+04 1.513e-08
 28.41189    155.2 1.273e+04 1.561e-08
 28.43177    155.4 1.264e+04 1.558e-08
 28.45166    155.7 1.249e+04 1.531e-08
 28.46878    156.0 1.235e+04 1.473e-08
 28.47787    155.4 1.221e+04 1.339e-08
 28.48064    155.3 1.214e+04 1.308e-08
 28.49143    155.5 1.191e+04 1.139e-08
 28.51132    155.8 1.170e+04 9.996e-09
 28.53120    156.1 1.150e+04 8.929e-09
 28.55109    156.3 1.131e+04 8.142e-09
 28.57098    156.5 1.111e+04 7.630e-09
 28.58599    156.7 1.101e+04 7.584e-09
 28.59593    156.6 1.092e+04 7.453e-09
 28.61075    156.9 1.091e+04 7.536e-09
 28.63064    156.9 1.093e+04 7.878e-09
 28.65052    156.8 1.102e+04 8.609e-09
 28.67041    156.5 1.122e+04 9.997e-09
 28.69029    155.9 1.157e+04 1.244e-08
 28.70127    155.1 1.204e+04 1.608e-08
 28.71122    155.0 1.177e+04 1.435e-08
 28.73007    154.2 1.215e+04 1.754e-08
 28.74995    153.2 1.231e+04 1.896e-08
 28.76231    152.2 1.228e+04 1.877e-08
 28.77225    152.7 1.225e+04 1.861e-08
 28.78973    151.8 1.208e+04 1.758e-08
 28.80662    151.2 1.166e+04 1.514e-08
 28.81656    151.1 1.155e+04 1.431e-08
 28.82950    150.9 1.111e+04 1.215e-08
 28.84938    150.9 1.070e+04 1.025e-08
 28.86927    151.0 1.037e+04 8.865e-09
 28.88916    151.2 1.008e+04 7.807e-09
 28.90904    151.5 9.861e+03 7.067e-09
 28.92191    152.0 9.680e+03 6.533e-09
 28.93185    152.1 9.775e+03 6.869e-09
 28.94882    152.7 9.639e+03 6.485e-09
 28.96870    153.3 9.479e+03 6.032e-09
 28.98859    154.0 9.323e+03 5.638e-09
 29.00848    154.8 9.308e+03 5.498e-09
 29.02726    155.5 9.308e+03 5.524e-09
 29.03720    155.6 9.294e+03 5.485e-09
 29.04590    156.3 9.267e+03 5.495e-09
 29.05584    157.1 8.887e+03 4.305e-09
 29.06813    157.9 8.860e+03 4.312e-09
 29.08802    158.8 8.857e+03 4.338e-09
 29.10791    159.6 8.854e+03 4.460e-09
 29.12779    160.5 8.907e+03 4.701e-09
 29.14255    161.2 9.101e+03 5.211e-09
 29.15249    161.1 9.084e+03 5.177e-09
 29.16757    161.7 9.411e+03 6.138e-09
 29.18745    161.8 9.887e+03 7.703e-09
 29.20734    161.9 1.057e+04 1.046e-08
 29.22722    162.0 1.128e+04 1.468e-08
 29.24711    162.3 1.186e+04 1.984e-08
 29.25784    162.5 1.218e+04 2.311e-08
 29.26778    162.6 1.195e+04 2.094e-08
 29.28688    162.7 1.196e+04 2.088e-08
 29.30677    162.9 1.177e+04 1.958e-08
 29.32666    163.1 1.135e+04 1.615e-08
 29.33943    163.2 1.085e+04 1.222e-08
 29.34937    164.5 1.139e+04 1.639e-08
 29.36318    164.5 1.102e+04 1.314e-08
 29.37312    164.3 1.106e+04 1.265e-08
 29.38632    163.4 1.050e+04 9.396e-09
 29.40620    162.4 9.816e+03 7.174e-09
 29.42609    161.5 9.263e+03 6.021e-09
 29.44597    160.6 9.074e+03 5.831e-09
 29.46586    159.8 9.082e+03 5.892e-09
 29.47847    159.1 9.164e+03 6.257e-09
 29.48841    158.4 9.362e+03 6.880e-09
 29.50563    157.1 9.703e+03 8.140e-09
 29.52552    154.8 1.039e+04 1.059e-08
 29.54541    151.3 1.147e+04 1.521e-08
 29.56529    146.6 1.271e+04 2.317e-08
 29.58382    140.9 1.403e+04 3.522e-08
 29.59376    138.7 1.406e+04 3.544e-08
 29.60506    132.3 1.505e+04 4.437e-08
 29.62302    125.2 1.538e+04 4.415e-08
 29.63296    121.3 1.663e+04 5.757e-08
 29.64484    113.8 1.578e+04 4.060e-08
 29.66472    107.3 1.362e+04 2.241e-08
 29.68461    102.2 1.103e+04 1.232e-08
 29.69920     97.8 9.638e+03 7.040e-09
 29.71919     97.9 9.125e+03 6.220e-09
 29.75441     97.3 8.333e+03 4.395e-09
 29.79418     97.3 7.710e+03 3.142e-09
 29.83395     97.9 7.175e+03 2.338e-09
 29.87373     99.1 6.932e+03 2.016e-09
 29.90999    100.9 6.877e+03 1.945e-09
 29.92988    101.3 6.950e+03 2.079e-09
 29.95327    103.3 6.894e+03 2.034e-09
 29.99304    105.6 6.854e+03 1.952e-09
 30.03282    108.0 6.797e+03 1.841e-09
 30.07259    110.1 6.819e+03 1.673e-09
 30.11236    112.1 7.014e+03 2.078e-09
 30.14057    114.0 7.739e+03 3.196e-09
 30.16046    113.6 8.236e+03 3.941e-09
 30.19040    116.0 9.217e+03 5.797e-09
 30.21028    112.4 1.109e+04 1.231e-08
 30.23168    114.7 1.140e+04 1.306e-08
 30.27145    116.8 1.162e+04 1.308e-08
 30.31122    118.7 1.166e+04 1.264e-08
 30.35100    120.4 1.159e+04 1.191e-08
 30.37115    121.5 1.142e+04 1.114e-08
 30.38100    121.5 1.089e+04 8.971e-09
 30.40052    121.9 1.097e+04 9.349e-09
 30.42040    123.0 1.091e+04 9.246e-09
 30.44029    124.0 1.091e+04 9.460e-09
 30.46018    125.1 1.077e+04 9.703e-09
 30.47630    126.4 1.067e+04 9.890e-09
 30.48625    126.5 1.066e+04 9.804e-09
 30.49368    127.8 1.064e+04 1.015e-08
 30.50362    126.7 1.086e+04 1.089e-08
 30.51984    128.0 1.096e+04 1.138e-08
 30.53972    129.3 1.113e+04 1.206e-08
 30.55961    130.5 1.132e+04 1.286e-08
 30.57949    131.7 1.152e+04 1.377e-08
 30.59159    132.9 1.172e+04 1.467e-08
 30.60154    133.0 1.164e+04 1.436e-08
 30.61927    134.2 1.181e+04 1.519e-08
 30.63915    135.3 1.193e+04 1.582e-08
 30.65904    136.5 1.197e+04 1.605e-08
 30.67893    137.7 1.194e+04 1.572e-08
 30.69694    138.9 1.190e+04 1.511e-08
 30.70688    139.0 1.192e+04 1.521e-08
 30.71870    140.1 1.187e+04 1.447e-08
 30.73858    141.4 1.180e+04 1.356e-08
 30.75847    142.6 1.176e+04 1.275e-08
 30.77727    143.8 1.176e+04 1.210e-08
 30.78721    143.3 1.153e+04 9.881e-09
 30.79824    144.5 1.161e+04 9.641e-09
 30.81223    145.8 1.165e+04 9.692e-09
 30.82217    145.5 1.177e+04 1.020e-08
 30.83802    146.6 1.191e+04 1.050e-08
 30.85790    147.6 1.206e+04 1.097e-08
 30.87779    148.6 1.222e+04 1.156e-08
 30.89768    149.7 1.239e+04 1.227e-08
 30.91756    150.7 1.257e+04 1.319e-08
 30.93745    150.8 1.262e+04 1.353e-08
 30.95733    151.9 1.274e+04 1.397e-08
 30.97722    153.0 1.280e+04 1.387e-08
 30.99711    154.1 1.283e+04 1.310e-08
 31.01699    155.3 1.281e+04 1.184e-08
 31.03286    156.6 1.287e+04 1.081e-08
 31.04281    154.9 1.224e+04 8.203e-09
 31.05677    155.5 1.241e+04 8.806e-09
 31.07080    154.9 1.304e+04 1.088e-08
 31.08074    151.9 1.441e+04 1.534e-08
 31.09654    150.3 1.583e+04 2.677e-08
 31.11642    148.2 1.675e+04 4.300e-08
 31.13631    145.1 1.769e+04 7.187e-08
 31.14810    142.7 1.812e+04 9.798e-08
 31.15805    140.5 1.775e+04 9.160e-08
 31.17608    137.1 1.813e+04 1.284e-07
 31.19597    133.5 1.821e+04 1.469e-07
 31.21586    130.6 1.806e+04 1.372e-07
 31.23574    128.3 1.737e+04 1.013e-07
 31.25350    127.1 1.626e+04 6.645e-08
 31.26344    127.0 1.615e+04 6.421e-08
 31.27551    126.8 1.527e+04 4.406e-08
 31.29540    126.9 1.448e+04 3.048e-08
 31.31529    127.2 1.378e+04 2.177e-08
 31.33517    127.9 1.323e+04 1.670e-08
 31.35439    128.9 1.284e+04 1.376e-08
 31.36433    128.8 1.307e+04 1.557e-08
 31.36879    129.2 1.275e+04 1.346e-08
 31.37873    129.3 1.276e+04 1.354e-08
 31.39483    130.0 1.262e+04 1.210e-08
 31.41472    130.3 1.262e+04 1.144e-08
 31.43461    130.6 1.264e+04 1.095e-08
 31.45449    130.9 1.270e+04 1.087e-08
 31.47414    131.4 1.285e+04 1.142e-08
 31.48408    132.4 1.273e+04 9.610e-09
 31.49426    133.2 1.309e+04 1.086e-08
 31.51415    133.8 1.374e+04 1.437e-08
 31.53404    134.7 1.494e+04 2.548e-08
 31.55392    136.5 1.636e+04 5.189e-08
 31.56879    136.7 1.727e+04 7.046e-08
 31.57868    135.9 1.852e+04 1.079e-07
 31.58863    134.7 1.981e+04 2.134e-07
 31.59430    132.7 1.997e+04 5.284e-07
 31.59927    134.6 2.005e+04 5.406e-07
 31.60851    132.1 1.915e+04 1.286e-06
 31.61846    129.3 1.868e+04 2.286e-06
 31.62840    125.2 1.895e+04 2.209e-06
 31.63834    120.0 1.958e+04 1.595e-06
 31.64697    113.2 2.070e+04 7.163e-07
 31.65148    113.4 2.108e+04 8.365e-07
 31.65280    107.9 2.159e+04 3.834e-07
 31.65823    101.0 2.090e+04 2.589e-07
 31.66817     97.1 2.016e+04 2.512e-07
 31.67812     95.1 1.987e+04 2.742e-07
 31.68806     93.9 1.937e+04 4.312e-07
 31.69800     93.1 1.908e+04 6.880e-07
 31.70462     92.3 1.887e+04 9.206e-07
 31.70959     90.7 1.867e+04 1.743e-06
 31.71789     89.6 1.851e+04 1.955e-06
 31.72783     89.3 1.851e+04 1.787e-06
 31.73777     89.3 1.863e+04 1.364e-06
 31.74772     89.4 1.895e+04 8.361e-07
 31.75729     89.1 1.924e+04 4.472e-07
 31.76226     88.0 1.923e+04 6.803e-07
 31.76760     88.0 1.926e+04 3.644e-07
 31.77755     88.0 1.892e+04 2.040e-07
 31.78749     88.3 1.812e+04 1.218e-07
 31.79459     88.4 1.778e+04 1.060e-07
 31.79956     87.8 1.723e+04 8.008e-08
 31.81001     90.1 1.644e+04 5.299e-08
 31.82000     89.7 1.757e+04 9.902e-08
 31.83233     91.6 1.652e+04 4.712e-08
 31.85222     92.8 1.512e+04 2.111e-08
 31.87210     93.7 1.377e+04 1.166e-08
 31.89199     95.0 1.288e+04 8.438e-09
 31.91188     96.8 1.236e+04 7.143e-09
 31.92535     98.7 1.203e+04 6.377e-09
 31.93504     98.8 1.235e+04 7.720e-09
 31.94146     98.3 1.203e+04 7.030e-09
 31.95165    100.1 1.174e+04 6.182e-09
 31.97154    102.1 1.149e+04 5.453e-09
 31.99142    104.1 1.129e+04 4.860e-09
 32.01131    105.9 1.112e+04 4.358e-09
 32.03070    107.6 1.093e+04 3.894e-09
 32.04064    107.8 1.114e+04 4.728e-09
 32.05108    109.5 1.091e+04 4.119e-09
 32.07097    111.3 1.072e+04 3.645e-09
 32.09085    112.9 1.058e+04 3.304e-09
 32.11074    114.2 1.047e+04 3.089e-09
 32.13063    115.5 1.034e+04 2.916e-09
 32.14599    116.6 1.024e+04 2.823e-09
 32.15593    117.3 1.035e+04 3.146e-09
 32.17040    118.6 1.022e+04 3.036e-09
 32.19029    119.8 1.013e+04 2.990e-09
 32.21017    121.1 1.005e+04 2.920e-09
 32.22505    122.1 1.001e+04 2.879e-09
 32.23499    121.4 1.004e+04 2.758e-09
 32.24994    123.3 9.971e+03 2.713e-09
 32.26128    124.0 9.967e+03 2.698e-09
 32.27122    124.7 9.980e+03 2.895e-09
 32.28972    126.2 9.913e+03 2.766e-09
 32.30960    127.3 9.891e+03 2.696e-09
 32.32949    128.8 9.826e+03 2.640e-09
 32.34938    130.0 9.818e+03 2.643e-09
 32.36662    131.4 9.806e+03 2.645e-09
 32.37656    131.6 9.959e+03 3.165e-09
 32.38915    132.9 1.005e+04 3.353e-09
 32.40903    134.1 1.014e+04 3.570e-09
 32.42892    135.4 1.021e+04 3.793e-09
 32.44881    136.7 1.028e+04 4.002e-09
 32.46869    138.1 1.030e+04 4.192e-09
 32.48191    139.4 1.029e+04 4.322e-09
 32.49185    139.0 1.108e+04 6.646e-09
 32.50847    140.4 1.102e+04 6.556e-09
 32.51858    141.9 1.086e+04 6.295e-09
 32.52852    141.6 1.059e+04 5.175e-09
 32.54824    142.9 1.049e+04 5.010e-09
 32.56813    144.2 1.048e+04 4.934e-09
 32.58726    145.5 1.051e+04 4.928e-09
 32.59720    145.2 1.108e+04 6.869e-09
 32.60790    146.6 1.110e+04 6.812e-09
 32.62778    148.0 1.113e+04 6.897e-09
 32.64767    149.4 1.122e+04 7.149e-09
 32.66756    150.9 1.136e+04 7.619e-09
 32.68744    152.2 1.152e+04 8.273e-09
 32.70255    153.6 1.171e+04 9.099e-09
 32.71249    153.0 1.216e+04 1.170e-08
 32.72722    154.4 1.236e+04 1.284e-08
 32.74710    155.7 1.263e+04 1.439e-08
 32.76699    156.9 1.295e+04 1.648e-08
 32.78687    158.0 1.335e+04 1.934e-08
 32.80217    159.0 1.387e+04 2.351e-08
 32.81211    158.9 1.372e+04 2.206e-08
 32.81784    159.9 1.447e+04 2.939e-08
 32.82778    159.0 1.435e+04 2.736e-08
 32.84653    159.9 1.515e+04 3.606e-08
 32.86642    160.7 1.604e+04 4.955e-08
 32.88631    161.5 1.685e+04 6.725e-08
 32.90619    162.1 1.747e+04 8.243e-08
 32.92318    162.4 1.769e+04 8.420e-08
 32.93313    161.1 1.662e+04 5.664e-08
 32.94597    161.7 1.661e+04 5.526e-08
 32.96585    162.6 1.650e+04 4.943e-08
 32.98574    163.7 1.642e+04 4.117e-08
 33.00562    164.7 1.672e+04 3.865e-08
 33.02551    164.8 1.772e+04 3.941e-08
 33.03847    164.2 1.873e+04 4.201e-08
 33.04842    155.2 1.801e+04 3.452e-08
 33.06026    154.1 1.871e+04 4.539e-08
 33.07016    146.6 2.018e+04 7.693e-08
 33.08010    131.5 3.420e+04 8.603e-08
 33.09004    109.8 4.717e+04 7.899e-08
 33.09561     84.3 3.670e+04 3.503e-07
 33.09661     74.0 3.342e+04 4.880e-07
 33.10099     84.9 4.012e+04 1.330e-07
 33.10993     67.3 3.075e+04 2.682e-07
 33.11987     59.1 2.475e+04 2.759e-07
 33.12982     55.7 2.213e+04 2.433e-07
 33.13976     54.6 2.086e+04 2.310e-07
 33.14869     54.5 2.058e+04 2.266e-07
 33.15366     58.0 2.060e+04 2.188e-07
 33.15965     57.3 2.060e+04 2.288e-07
 33.16959     56.5 2.076e+04 2.454e-07
 33.17953     55.8 2.088e+04 2.585e-07
 33.18947     54.9 2.079e+04 2.481e-07
 33.19942     53.9 2.030e+04 2.099e-07
 33.20634     52.9 1.953e+04 1.617e-07
 33.21131     55.0 2.044e+04 2.930e-07
 33.21930     53.9 1.973e+04 2.350e-07
 33.22925     53.1 1.899e+04 1.716e-07
 33.23740     52.5 1.846e+04 1.196e-07
 33.24237     52.4 1.855e+04 1.309e-07
 33.24913     51.9 1.820e+04 9.374e-08
 33.25901     50.8 1.775e+04 6.343e-08
 33.26398     52.0 1.878e+04 1.410e-07
 33.26902     51.0 1.841e+04 9.069e-08
 33.27896     49.5 1.746e+04 5.366e-08
 33.28891     47.8 1.583e+04 3.430e-08
 33.29885     46.1 1.403e+04 2.282e-08
 33.30879     45.5 1.318e+04 2.009e-08
 33.32376     44.9 1.300e+04 1.792e-08
 33.34369     44.4 1.271e+04 1.507e-08
 33.36358     43.5 1.157e+04 1.073e-08
 33.37440     42.5 1.056e+04 8.114e-09
 33.38017     43.1 1.248e+04 1.422e-08
 33.38924     43.5 1.294e+04 1.630e-08
 33.40335     42.4 1.289e+04 1.624e-08
 33.42324     40.0 1.337e+04 1.903e-08
 33.44312     36.9 1.429e+04 2.871e-08
 33.46301     35.7 1.448e+04 3.784e-08
 33.47974     35.5 1.459e+04 3.701e-08
 33.48964     35.8 1.450e+04 3.653e-08
 33.50273     35.8 1.502e+04 3.213e-08
 33.52267     32.8 1.477e+04 2.268e-08
 33.54255     28.3 1.388e+04 1.967e-08
 33.56244     25.3 1.421e+04 2.368e-08
 33.58233     22.8 1.556e+04 3.399e-08
 33.59498     23.1 1.622e+04 4.004e-08
 33.59991     24.2 1.620e+04 4.032e-08
 33.60709     24.0 1.639e+04 4.164e-08
 33.61703     22.9 1.669e+04 5.120e-08
 33.62697     22.2 1.694e+04 5.465e-08
 33.63692     21.1 1.650e+04 5.298e-08
 33.64686     20.7 1.608e+04 4.934e-08
 33.65258     19.7 1.534e+04 3.964e-08
 33.65755     20.2 1.616e+04 4.959e-08
 33.66675     19.6 1.557e+04 4.080e-08
 33.67273     16.4 1.540e+04 3.050e-08
 33.67770     20.6 1.571e+04 3.568e-08
 33.68663     16.2 1.795e+04 3.368e-08
 33.69658      1.9 2.672e+04 2.647e-08
 33.70525    -13.5 3.232e+04 4.537e-08
 33.71022    -15.2 3.280e+04 4.913e-08
 33.71646    -34.4 2.609e+04 1.314e-07
 33.72641    -46.2 2.238e+04 3.571e-07
 33.73635    -57.2 2.120e+04 6.701e-07
 33.74629    -68.2 2.132e+04 1.002e-06
 33.75623    -80.5 2.078e+04 1.313e-06
 33.76290    -91.4 2.011e+04 1.585e-06
 33.76787    -93.1 2.120e+04 7.776e-07
 33.77612   -101.2 2.141e+04 6.044e-07
 33.78606   -106.7 2.163e+04 4.973e-07
 33.79601   -111.0 2.190e+04 3.956e-07
 33.80595   -114.9 2.210e+04 2.863e-07
 33.81452   -118.3 2.200e+04 2.003e-07
 33.81917   -123.3 2.202e+04 1.814e-07
 33.82054   -123.5 2.168e+04 1.424e-07
 33.82584   -125.0 2.115e+04 1.341e-07
 33.83578   -125.7 2.073e+04 1.259e-07
 33.84572   -125.8 2.037e+04 1.119e-07
 33.86069   -125.4 1.996e+04 9.132e-08
 33.88062   -125.2 1.862e+04 6.857e-08
 33.90051   -124.8 1.664e+04 4.324e-08
 33.92039   -124.2 1.492e+04 2.694e-08
 33.93096   -123.7 1.346e+04 1.847e-08
 33.94090   -122.3 1.481e+04 2.613e-08
 33.95642   -121.7 1.354e+04 1.843e-08
 33.96636   -122.2 1.508e+04 2.950e-08
 33.98005   -121.5 1.392e+04 2.009e-08
 33.99994   -120.8 1.274e+04 1.432e-08
 34.01983   -119.9 1.187e+04 1.125e-08
 34.03630   -119.0 1.130e+04 9.577e-09
 34.04625   -117.9 1.209e+04 1.211e-08
 34.05960   -117.1 1.169e+04 1.077e-08
 34.07949   -116.3 1.151e+04 1.017e-08
 34.09937   -115.5 1.140e+04 9.772e-09
 34.11926   -114.7 1.124e+04 9.280e-09
 34.13914   -113.8 1.104e+04 8.618e-09
 34.15159   -112.9 1.083e+04 7.907e-09
 34.16154   -111.8 1.133e+04 1.033e-08
 34.17892   -110.9 1.113e+04 9.496e-09
 34.19880   -110.1 1.098e+04 8.823e-09
 34.21869   -109.3 1.089e+04 8.361e-09
 34.23858   -108.5 1.086e+04 8.097e-09
 34.24995   -107.7 1.085e+04 7.991e-09
 34.25837   -108.2 1.126e+04 1.002e-08
 34.26688   -107.1 1.158e+04 1.206e-08
 34.27835   -106.3 1.155e+04 1.184e-08
 34.29823   -105.6 1.152e+04 1.166e-08
 34.31812   -104.8 1.147e+04 1.143e-08
 34.33801   -103.9 1.141e+04 1.108e-08
 34.35789   -103.0 1.132e+04 1.059e-08
 34.37223   -102.2 1.122e+04 9.931e-09
 34.38217   -101.4 1.137e+04 1.100e-08
 34.39767   -100.5 1.124e+04 9.880e-09
 34.41755    -99.6 1.110e+04 8.652e-09
 34.43744    -98.8 1.097e+04 7.507e-09
 34.45732    -98.0 1.087e+04 6.643e-09
 34.47721    -97.1 1.084e+04 6.214e-09
 34.48752    -96.2 1.084e+04 6.125e-09
 34.49746    -95.4 1.090e+04 6.306e-09
 34.51698    -94.5 1.093e+04 6.289e-09
 34.53354    -93.7 1.122e+04 6.779e-09
 34.54348    -94.2 1.123e+04 6.790e-09
 34.55676    -93.4 1.156e+04 8.260e-09
 34.57664    -92.6 1.193e+04 1.030e-08
 34.59287    -91.8 1.239e+04 1.266e-08
 34.60281    -90.5 1.227e+04 1.219e-08
 34.61642    -90.0 1.272e+04 1.413e-08
 34.63630    -89.7 1.314e+04 1.562e-08
 34.65619    -89.5 1.349e+04 1.674e-08
 34.67607    -89.6 1.372e+04 1.772e-08
 34.69596    -89.4 1.386e+04 1.883e-08
 34.70815    -89.2 1.396e+04 2.007e-08
 34.71810    -87.6 1.402e+04 1.987e-08
 34.73573    -87.4 1.405e+04 2.146e-08
 34.75562    -86.9 1.405e+04 2.277e-08
 34.77551    -86.2 1.403e+04 2.388e-08
 34.79539    -85.6 1.396e+04 2.516e-08
 34.81350    -85.1 1.399e+04 2.678e-08
 34.82344    -83.8 1.435e+04 2.940e-08
 34.82707    -83.4 1.441e+04 3.168e-08
 34.83702    -85.3 1.395e+04 3.123e-08
 34.85505    -85.2 1.414e+04 3.427e-08
 34.87494    -85.1 1.433e+04 3.787e-08
 34.89482    -85.2 1.445e+04 4.075e-08
 34.91471    -85.5 1.448e+04 4.162e-08
 34.92879    -86.1 1.435e+04 4.050e-08
 34.93873    -85.3 1.425e+04 3.877e-08
 34.95448    -85.9 1.390e+04 3.525e-08
 34.97437    -86.8 1.344e+04 3.054e-08
 34.99426    -88.0 1.302e+04 2.636e-08
 35.01414    -89.6 1.275e+04 2.375e-08
 35.03403    -91.3 1.265e+04 2.265e-08
 35.04408    -93.0 1.259e+04 2.249e-08
 35.05402    -92.9 1.302e+04 2.506e-08
 35.07380    -94.5 1.309e+04 2.644e-08
 35.09369    -95.7 1.310e+04 2.693e-08
 35.11066    -96.5 1.300e+04 2.623e-08
 35.12061    -98.2 1.297e+04 2.612e-08
 35.13346    -98.4 1.250e+04 2.278e-08
 35.14943    -98.5 1.202e+04 1.936e-08
 35.15937    -99.1 1.289e+04 2.538e-08
 35.17323    -99.4 1.236e+04 2.119e-08
 35.19312    -99.6 1.201e+04 1.861e-08
 35.21300    -99.8 1.189e+04 1.759e-08
 35.23289    -99.7 1.186e+04 1.726e-08
 35.25278    -99.3 1.182e+04 1.673e-08
 35.26472    -98.7 1.168e+04 1.526e-08
 35.27466    -99.7 1.207e+04 1.806e-08
 35.29255    -99.0 1.176e+04 1.511e-08
 35.31244    -98.4 1.141e+04 1.218e-08
 35.33232    -97.9 1.110e+04 9.870e-09
 35.35221    -97.5 1.087e+04 8.368e-09
 35.37006    -97.1 1.076e+04 7.678e-09
 35.38000    -97.8 1.082e+04 7.816e-09
 35.39198    -97.3 1.078e+04 7.500e-09
 35.40420    -96.8 1.084e+04 7.635e-09
 35.41414    -97.2 1.122e+04 8.550e-09
 35.43175    -96.7 1.126e+04 8.481e-09
 35.45164    -96.0 1.134e+04 8.484e-09
 35.47153    -95.2 1.136e+04 8.409e-09
 35.48535    -94.4 1.141e+04 8.080e-09
 35.49529    -94.8 1.145e+04 7.836e-09
 35.51130    -93.8 1.151e+04 7.304e-09
 35.53119    -92.9 1.155e+04 6.530e-09
 35.55107    -92.0 1.160e+04 5.747e-09
 35.57096    -91.1 1.163e+04 5.061e-09
 35.59070    -90.3 1.167e+04 4.513e-09
 35.60064    -90.3 1.178e+04 5.249e-09
 35.61073    -89.6 1.182e+04 4.910e-09
 35.63062    -89.0 1.186e+04 4.789e-09
 35.65050    -88.7 1.200e+04 4.854e-09
 35.67039    -88.8 1.244e+04 6.450e-09
 35.68778    -88.7 1.281e+04 9.477e-09
 35.69773    -88.6 1.304e+04 1.240e-08
 35.70599    -88.4 1.351e+04 1.745e-08
 35.71593    -88.9 1.387e+04 2.265e-08
 35.73005    -88.9 1.427e+04 2.767e-08
 35.74994    -89.0 1.444e+04 2.944e-08
 35.76982    -89.4 1.446e+04 2.926e-08
 35.78971    -89.9 1.432e+04 2.640e-08
 35.80959    -90.6 1.413e+04 2.332e-08
 35.82128    -91.4 1.393e+04 2.140e-08
 35.83122    -92.2 1.388e+04 2.271e-08
 35.84937    -93.1 1.380e+04 2.261e-08
 35.86925    -93.9 1.370e+04 2.382e-08
 35.88914    -94.5 1.364e+04 2.424e-08
 35.90903    -95.1 1.357e+04 2.464e-08
 35.92662    -95.5 1.349e+04 2.475e-08
 35.93657    -96.1 1.321e+04 2.230e-08
 35.94880    -96.3 1.307e+04 2.152e-08
 35.96868    -96.4 1.293e+04 2.066e-08
 35.98132    -96.3 1.274e+04 1.932e-08
 35.99126    -95.7 1.226e+04 1.579e-08
 36.00846    -95.3 1.216e+04 1.534e-08
 36.02834    -95.0 1.202e+04 1.446e-08
 36.04191    -94.6 1.185e+04 1.302e-08
 36.05186    -94.8 1.159e+04 1.158e-08
 36.06812    -94.3 1.147e+04 1.110e-08
 36.08800    -93.7 1.143e+04 1.088e-08
 36.10789    -93.0 1.142e+04 1.087e-08
 36.12778    -92.4 1.149e+04 1.119e-08
 36.14726    -91.7 1.170e+04 1.246e-08
 36.15720    -91.7 1.166e+04 1.244e-08
 36.16755    -91.1 1.203e+04 1.488e-08
 36.18743    -90.5 1.248e+04 1.797e-08
 36.20732    -89.9 1.289e+04 2.121e-08
 36.22721    -89.5 1.315e+04 2.341e-08
 36.24709    -89.3 1.323e+04 2.398e-08
 36.26255    -89.1 1.319e+04 2.349e-08
 36.27042    -89.1 1.318e+04 2.364e-08
 36.27485    -89.3 1.320e+04 2.407e-08
 36.28687    -88.9 1.278e+04 2.017e-08
 36.30675    -88.6 1.224e+04 1.594e-08
 36.32664    -88.6 1.170e+04 1.235e-08
 36.34652    -88.7 1.123e+04 9.935e-09
 36.36641    -88.8 1.089e+04 8.699e-09
 36.37784    -88.8 1.067e+04 8.198e-09
 36.38778    -88.3 1.038e+04 7.217e-09
 36.40618    -88.3 1.026e+04 7.038e-09
 36.42607    -88.6 1.019e+04 7.034e-09
 36.44596    -89.8 1.021e+04 7.420e-09
 36.46584    -91.8 1.066e+04 8.443e-09
 36.48318    -94.4 1.185e+04 1.154e-08
 36.49313    -92.1 1.097e+04 8.743e-09
 36.50562    -94.7 1.218e+04 1.325e-08
 36.52550    -96.8 1.320e+04 2.237e-08
 36.54539    -98.0 1.391e+04 3.468e-08
 36.55839    -97.8 1.392e+04 3.768e-08
 36.56834    -98.0 1.377e+04 3.574e-08
 36.58014    -97.7 1.407e+04 3.983e-08
 36.59003    -97.9 1.434e+04 4.235e-08
 36.59838    -98.2 1.457e+04 4.477e-08
 36.60335    -97.7 1.453e+04 4.379e-08
 36.60992    -98.0 1.463e+04 4.466e-08
 36.61986    -98.6 1.465e+04 4.491e-08
 36.62981    -99.0 1.459e+04 4.284e-08
 36.64477    -99.5 1.423e+04 3.750e-08
 36.66471   -100.0 1.309e+04 2.537e-08
 36.68459   -100.5 1.180e+04 1.602e-08
 36.70382   -101.1 1.091e+04 1.101e-08
 36.71376   -100.7 1.091e+04 1.082e-08
 36.72436   -101.0 1.033e+04 8.086e-09
 36.74425   -101.0 9.916e+03 6.495e-09
 36.76414   -100.8 9.621e+03 5.576e-09
 36.78402   -100.2 9.439e+03 5.177e-09
 36.80391    -99.6 9.373e+03 5.099e-09
 36.81911    -98.9 9.338e+03 5.086e-09
 36.82905    -98.9 9.398e+03 5.259e-09
 36.84203    -98.1 9.374e+03 5.270e-09
 36.85197    -97.2 9.268e+03 4.820e-09
 36.86357    -96.2 9.102e+03 4.688e-09
 36.88346    -95.1 8.859e+03 4.285e-09
 36.90334    -93.8 8.636e+03 3.768e-09
 36.92323    -92.8 8.537e+03 3.355e-09
 36.93440    -92.3 8.542e+03 3.152e-09
 36.94434    -93.3 9.008e+03 4.149e-09
 36.96300    -94.8 1.062e+04 4.537e-09
 36.98289    -98.4 1.450e+04 6.965e-09
 37.00277   -101.6 1.665e+04 1.478e-08
 37.02266   -102.6 1.680e+04 2.953e-08
 37.03974   -102.8 1.620e+04 5.125e-08
 37.04969   -104.2 1.708e+04 8.841e-08
 37.06243   -106.6 1.867e+04 1.240e-07
 37.08232   -110.1 2.021e+04 1.273e-07
 37.10220   -114.8 2.153e+04 1.224e-07
 37.12209   -120.4 2.242e+04 9.684e-08
 37.13556   -125.4 2.188e+04 7.136e-08
 37.14551   -118.4 2.257e+04 1.451e-07
 37.15498   -125.1 2.190e+04 9.180e-08
 37.15991   -128.8 2.071e+04 8.204e-08
 37.16674   -131.9 1.910e+04 7.106e-08
 37.17668   -134.6 1.711e+04 6.477e-08
 37.18662   -136.4 1.596e+04 6.032e-08
 37.19657   -137.5 1.545e+04 5.633e-08
 37.20651   -138.1 1.523e+04 5.163e-08
 37.21258   -138.5 1.504e+04 4.749e-08
 37.21755   -139.5 1.499e+04 4.513e-08
 37.22640   -139.6 1.480e+04 4.255e-08
 37.24136   -139.3 1.463e+04 3.977e-08
 37.26038   -140.5 1.435e+04 3.371e-08
 37.27032   -144.9 1.400e+04 2.640e-08
 37.28118   -147.4 1.383e+04 2.531e-08
 37.30107   -149.6 1.397e+04 2.768e-08
 37.32095   -151.7 1.425e+04 3.127e-08
 37.34084   -153.3 1.451e+04 3.625e-08
 37.36073   -154.8 1.473e+04 4.080e-08
 37.37567   -156.1 1.484e+04 4.292e-08
 37.38561   -159.1 1.472e+04 4.140e-08
 37.40050   -160.5 1.458e+04 3.885e-08
 37.41915   -162.1 1.414e+04 3.231e-08
 37.42910   -161.5 1.417e+04 3.286e-08
 37.44027   -163.0 1.352e+04 2.623e-08
 37.46016   -164.4 1.288e+04 2.159e-08
 37.48004   -165.3 1.246e+04 1.945e-08
 37.49096   -165.8 1.235e+04 1.897e-08
 37.50090   -167.4 1.231e+04 1.901e-08
 37.51982   -167.3 1.231e+04 1.919e-08
 37.53970   -167.2 1.230e+04 1.917e-08
 37.55959   -166.9 1.219e+04 1.810e-08
 37.57948   -166.6 1.197e+04 1.596e-08
 37.59631   -166.1 1.169e+04 1.366e-08
 37.60625   -167.2 1.133e+04 1.102e-08
 37.61925   -166.8 1.112e+04 9.585e-09
 37.63913   -166.3 1.100e+04 8.770e-09
 37.65902   -165.7 1.099e+04 8.521e-09
 37.67891   -165.0 1.103e+04 8.527e-09
 37.69879   -164.2 1.104e+04 8.622e-09
 37.71159   -163.4 1.105e+04 8.604e-09
 37.71554   -164.4 1.124e+04 9.236e-09
 37.72263   -164.9 1.108e+04 8.640e-09
 37.73857   -164.0 1.118e+04 8.913e-09
 37.75845   -163.1 1.128e+04 9.216e-09
 37.77834   -162.1 1.138e+04 9.532e-09
 37.79823   -161.1 1.148e+04 9.825e-09
 37.81694   -160.1 1.159e+04 1.009e-08
 37.82688   -161.3 1.216e+04 1.274e-08
 37.83800   -160.3 1.225e+04 1.280e-08
 37.85788   -159.3 1.236e+04 1.286e-08
 37.87777   -158.2 1.247e+04 1.291e-08
 37.89766   -157.1 1.253e+04 1.289e-08
 37.91754   -155.9 1.261e+04 1.270e-08
 37.93223   -154.8 1.265e+04 1.260e-08
 37.94217   -156.1 1.298e+04 1.387e-08
 37.95732   -155.2 1.310e+04 1.446e-08
 37.97720   -154.4 1.329e+04 1.567e-08
 37.99628   -153.8 1.355e+04 1.775e-08
 38.00622   -153.7 1.339e+04 1.661e-08
 38.01697   -153.2 1.367e+04 1.912e-08
 38.03686   -152.7 1.394e+04 2.180e-08
 38.04752   -152.3 1.416e+04 2.384e-08
 38.05746   -154.0 1.417e+04 2.336e-08
 38.07663   -153.7 1.421e+04 2.353e-08
 38.09652   -153.4 1.414e+04 2.103e-08
 38.11641   -153.2 1.399e+04 1.754e-08
 38.13629   -153.0 1.376e+04 1.454e-08
 38.15287   -152.8 1.353e+04 1.281e-08
 38.16281   -154.1 1.289e+04 8.667e-09
 38.18611   -154.0 1.264e+04 7.639e-09
 38.22598   -153.5 1.267e+04 8.219e-09
 38.26575   -153.4 1.285e+04 1.079e-08
 38.29001   -153.2 1.282e+04 1.295e-08
 38.30989   -153.0 1.295e+04 1.325e-08
 38.34529   -152.7 1.278e+04 1.336e-08
 38.37370   -152.2 1.258e+04 1.287e-08
 38.39358   -151.3 1.283e+04 1.362e-08
 38.42484   -150.8 1.276e+04 1.363e-08
 38.46461   -150.4 1.244e+04 1.255e-08
 38.50438   -149.7 1.215e+04 1.124e-08
 38.54416   -148.6 1.191e+04 1.013e-08
 38.58393   -147.6 1.175e+04 9.370e-09
 38.60428   -146.4 1.157e+04 8.697e-09
 38.62416   -147.5 1.185e+04 9.648e-09
 38.66348   -145.7 1.161e+04 8.762e-09
 38.70325   -144.0 1.142e+04 8.040e-09
 38.74302   -142.4 1.127e+04 7.649e-09
 38.78279   -140.6 1.114e+04 7.323e-09
 38.81497   -138.8 1.101e+04 6.829e-09
 38.83485   -138.6 1.126e+04 7.742e-09
 38.85230   -136.6 1.106e+04 7.031e-09
 38.86693   -136.3 1.101e+04 6.988e-09
 38.87697   -135.9 1.103e+04 6.629e-09
 38.89207   -134.6 1.087e+04 6.375e-09
 38.91186   -134.0 1.080e+04 6.297e-09
 38.93006   -133.0 1.067e+04 6.183e-09
 38.94001   -133.0 1.077e+04 6.568e-09
 38.95163   -132.2 1.069e+04 6.387e-09
 38.97152   -131.4 1.058e+04 6.193e-09
 38.99140   -130.6 1.046e+04 5.931e-09
 39.01129   -129.7 1.033e+04 5.625e-09
 39.03118   -128.9 1.021e+04 5.356e-09
 39.04535   -128.0 1.010e+04 5.166e-09
 39.05530   -128.0 1.024e+04 5.477e-09
 39.07095   -127.0 1.016e+04 5.398e-09
 39.09084   -126.1 1.013e+04 5.384e-09
 39.11072   -125.3 1.011e+04 5.384e-09
 39.13061   -124.5 1.009e+04 5.370e-09
 39.15049   -123.7 1.004e+04 5.331e-09
 39.16064   -122.6 1.007e+04 5.409e-09
 39.17058   -122.7 1.034e+04 6.217e-09
 39.19027   -122.1 1.033e+04 6.240e-09
 39.21015   -121.4 1.023e+04 6.231e-09
 39.23004   -120.7 1.008e+04 6.000e-09
 39.24993   -119.9 9.917e+03 5.541e-09
 39.26599   -119.2 9.755e+03 4.993e-09
 39.27593   -119.4 9.803e+03 5.141e-09
 39.28970   -118.6 9.609e+03 4.491e-09
 39.30959   -117.8 9.454e+03 4.047e-09
 39.32947   -116.9 9.353e+03 3.817e-09
 39.34936   -115.8 9.328e+03 3.767e-09
 39.36924   -114.9 9.329e+03 3.772e-09
 39.38128   -114.6 9.425e+03 3.851e-09
 39.39122   -115.2 9.463e+03 3.903e-09
 39.40902   -116.4 9.859e+03 4.499e-09
 39.42890   -119.2 1.194e+04 1.065e-08
 39.44406   -120.7 1.412e+04 2.963e-08
 39.45400   -120.1 1.348e+04 2.092e-08
 39.46868   -121.1 1.502e+04 4.760e-08
 39.48662   -122.3 1.587e+04 7.131e-08
 39.49657   -122.6 1.569e+04 6.611e-08
 39.50845   -125.0 1.579e+04 6.840e-08
 39.52833   -127.6 1.506e+04 4.833e-08
 39.54822   -130.3 1.342e+04 2.136e-08
 39.56811   -133.3 1.119e+04 8.127e-09
 39.58799   -135.7 9.973e+03 4.654e-09
 39.60191   -136.4 9.622e+03 4.019e-09
 39.61186   -135.6 9.684e+03 4.186e-09
 39.62777   -135.6 9.638e+03 4.089e-09
 39.64765   -135.7 9.637e+03 4.138e-09
 39.66754   -136.4 9.668e+03 5.542e-09
 39.68743   -138.3 1.073e+04 9.545e-09
 39.70726   -141.3 1.416e+04 1.762e-08
 39.72715   -141.6 1.479e+04 2.655e-08
 39.73759   -147.0 1.801e+04 5.362e-08
 39.74753   -149.6 1.804e+04 4.218e-08
 39.76195   -155.3 1.936e+04 1.121e-07
 39.76978   -157.9 1.953e+04 1.969e-07
 39.77475   -156.3 1.927e+04 8.920e-08
 39.78179   -158.9 1.958e+04 1.448e-07
 39.79173   -161.7 1.946e+04 2.887e-07
 39.80167   -164.1 1.929e+04 5.121e-07
 39.81162   -166.2 1.919e+04 7.226e-07
 39.82156   -168.2 1.916e+04 8.084e-07
 39.82742   -170.3 1.914e+04 7.533e-07
 39.83239   -169.3 1.929e+04 5.495e-07
 39.84145   -171.3 1.918e+04 5.350e-07
 39.85139   -172.8 1.906e+04 4.395e-07
 39.86133   -174.2 1.896e+04 3.574e-07
 39.87128   -175.8 1.877e+04 2.761e-07
 39.87929   -177.5 1.847e+04 2.002e-07
 39.88313   -176.8 1.868e+04 2.549e-07
 39.88507   -176.2 1.899e+04 3.483e-07
 39.89116   -178.1 1.888e+04 2.960e-07
 39.90111   -180.3 1.872e+04 2.345e-07
 39.91105   -182.5 1.848e+04 1.801e-07
 39.92099   -184.8 1.819e+04 1.401e-07
 39.93093   -186.9 1.785e+04 1.147e-07
 39.93774   -188.8 1.752e+04 1.003e-07
 39.94271   -189.7 1.845e+04 1.822e-07
 39.95082   -191.4 1.808e+04 1.540e-07
 39.96076   -192.7 1.771e+04 1.355e-07
 39.97071   -193.8 1.736e+04 1.228e-07
 39.98065   -194.6 1.707e+04 1.124e-07
 39.99041   -195.3 1.681e+04 1.009e-07
 39.99538   -195.7 1.675e+04 9.671e-08
 40.00054   -196.4 1.643e+04 8.566e-08
 40.01048   -197.2 1.619e+04 7.752e-08
 40.02042   -198.0 1.597e+04 7.100e-08
 40.02605   -198.8 1.573e+04 6.567e-08
 40.03102   -198.3 1.577e+04 6.548e-08
 40.04031   -199.0 1.554e+04 6.227e-08
 40.04806   -199.3 1.546e+04 6.165e-08
 40.05308   -199.2 1.475e+04 4.384e-08
 40.06527   -199.7 1.455e+04 4.332e-08
 40.08515   -200.3 1.449e+04 4.341e-08
 40.10504   -200.7 1.420e+04 4.080e-08
 40.12492   -200.8 1.372e+04 3.353e-08
 40.14481   -200.8 1.308e+04 2.483e-08
 40.15847   -200.9 1.241e+04 1.763e-08
 40.16842   -200.5 1.194e+04 1.483e-08
 40.18458   -200.5 1.141e+04 1.057e-08
 40.20447   -200.6 1.093e+04 7.575e-09
 40.22436   -200.5 1.056e+04 5.662e-09
 40.24424   -200.4 1.030e+04 4.550e-09
 40.26382   -199.9 1.013e+04 3.961e-09
 40.27376   -199.5 9.761e+03 3.763e-09
 40.28401   -198.6 9.714e+03 3.725e-09
 40.30390   -197.6 9.816e+03 3.703e-09
 40.31471   -196.7 9.970e+03 3.734e-09
 40.32466   -196.1 9.860e+03 3.380e-09
 40.34367   -195.2 9.994e+03 3.636e-09
 40.36356   -194.5 1.007e+04 3.954e-09
 40.37911   -193.8 1.013e+04 4.244e-09
 40.38905   -193.3 1.026e+04 4.703e-09
 40.40333   -192.8 1.031e+04 5.008e-09
 40.42322   -192.4 1.033e+04 5.161e-09
 40.44311   -192.1 1.034e+04 5.191e-09
 40.46299   -191.9 1.030e+04 5.086e-09
 40.48288   -191.8 1.021e+04 4.849e-09
 40.49440   -191.7 1.008e+04 4.504e-09
 40.50434   -191.4 1.015e+04 4.826e-09
 40.52265   -191.2 9.989e+03 4.413e-09
 40.54254   -191.0 9.846e+03 3.978e-09
 40.56242   -190.8 9.710e+03 3.514e-09
 40.58231   -190.7 9.574e+03 3.096e-09
 40.59840   -190.8 9.425e+03 2.732e-09
 40.60599   -189.0 9.572e+03 2.979e-09
 40.61983   -188.4 9.628e+03 3.121e-09
 40.65211   -187.1 9.304e+03 2.494e-09
 40.69188   -185.6 8.788e+03 1.772e-09
 40.73165   -183.9 8.318e+03 1.213e-09
 40.77142   -182.1 8.145e+03 9.062e-10
 40.81063   -180.2 8.165e+03 8.223e-10
 40.83052   -179.2 8.137e+03 8.099e-10
 40.85097   -177.2 8.162e+03 7.912e-10
 40.89074   -175.5 8.271e+03 8.686e-10
 40.93051   -174.0 8.564e+03 1.232e-09
 40.97029   -172.7 8.858e+03 1.804e-09
 41.01006   -171.4 9.015e+03 2.312e-09
 41.04121   -170.2 9.043e+03 2.480e-09
 41.06110   -169.1 8.744e+03 1.945e-09
 41.08961   -167.7 8.676e+03 1.960e-09
 41.12938   -166.1 8.393e+03 1.665e-09
 41.16568   -164.5 8.365e+03 1.446e-09
 41.18556   -162.6 8.401e+03 1.448e-09
 41.20892   -161.1 8.405e+03 1.392e-09
 41.24870   -159.9 8.481e+03 1.431e-09
 41.27179   -158.9 9.062e+03 2.092e-09
 41.29168   -157.3 8.700e+03 1.636e-09
 41.32824   -156.1 9.083e+03 2.359e-09
 41.36801   -154.8 9.532e+03 3.394e-09
 41.40779   -153.4 9.987e+03 4.377e-09
 41.44756   -152.1 1.046e+04 5.193e-09
 41.46906   -150.9 1.052e+04 5.159e-09
 41.47890   -149.5 1.031e+04 4.764e-09
 41.49223   -149.5 1.043e+04 5.069e-09
 41.50217   -148.7 1.000e+04 4.733e-09
 41.51697   -148.2 1.011e+04 5.122e-09
 41.53685   -147.9 1.054e+04 5.853e-09
 41.55674   -149.9 1.300e+04 9.452e-09
 41.57662   -153.7 1.738e+04 2.578e-08
 41.59149   -157.4 2.044e+04 6.993e-08
 41.60139   -160.0 2.052e+04 2.105e-07
 41.60742   -162.1 1.958e+04 6.358e-07
 41.61172   -163.2 1.889e+04 1.242e-06
 41.61563   -161.4 1.949e+04 6.223e-07
 41.62127   -161.7 1.846e+04 1.800e-06
 41.63121   -161.9 1.796e+04 3.214e-06
 41.64116   -162.8 1.783e+04 3.823e-06
 41.65110   -164.9 1.809e+04 3.296e-06
 41.66010   -168.1 1.952e+04 1.220e-06
 41.66507   -169.9 1.959e+04 1.353e-06
 41.67099   -175.4 2.301e+04 1.773e-07
 41.68093   -182.6 2.410e+04 1.571e-08
 41.69087   -188.5 1.724e+04 6.311e-09
 41.70082   -190.1 1.451e+04 5.363e-09
 41.71282   -190.6 1.287e+04 4.252e-09
 41.72281   -189.9 1.425e+04 4.695e-09
 41.73572   -190.8 1.148e+04 3.177e-09
 41.75255   -190.5 1.129e+04 2.890e-09
 41.76249   -189.3 1.157e+04 3.120e-09
 41.77549   -188.9 1.134e+04 2.906e-09
 41.79537   -187.4 1.130e+04 2.828e-09
 41.81526   -185.9 1.130e+04 2.741e-09
 41.82816   -184.6 1.126e+04 2.624e-09
 41.83810   -184.6 1.132e+04 3.167e-09
 41.85503   -183.4 1.124e+04 3.070e-09
 41.87492   -182.1 1.118e+04 2.996e-09
 41.89481   -180.8 1.114e+04 2.940e-09
 41.91469   -179.5 1.110e+04 2.907e-09
 41.93350   -178.3 1.105e+04 2.912e-09
 41.94345   -178.9 1.106e+04 3.502e-09
 41.95446   -177.7 1.100e+04 3.432e-09
 41.97435   -176.5 1.093e+04 3.365e-09
 41.99424   -175.2 1.087e+04 3.269e-09
 42.01412   -173.6 1.083e+04 3.147e-09
 42.03401   -172.0 1.083e+04 3.040e-09
 42.04608   -171.0 1.080e+04 2.971e-09
 42.05092   -170.9 1.081e+04 3.037e-09
 42.05874   -171.4 1.079e+04 3.377e-09
 42.07378   -170.2 1.075e+04 3.257e-09
 42.09367   -168.9 1.069e+04 3.159e-09
 42.12360   -166.9 1.064e+04 2.903e-09
 42.15433   -164.7 1.058e+04 2.911e-09
 42.17412   -164.3 1.058e+04 3.216e-09
 42.19310   -162.8 1.056e+04 3.217e-09
 42.21299   -161.9 1.054e+04 3.210e-09
 42.23287   -160.3 1.052e+04 3.234e-09
 42.25276   -159.6 1.050e+04 3.209e-09
 42.28269   -158.1 1.044e+04 3.214e-09
 42.31992   -155.3 1.029e+04 3.062e-09
 42.33971   -154.0 1.055e+04 3.736e-09
 42.35219   -152.9 1.048e+04 3.605e-09
 42.37208   -151.5 1.045e+04 3.568e-09
 42.38481   -149.9 1.044e+04 3.559e-09
 42.40480   -149.8 1.024e+04 3.290e-09
 42.44187   -146.9 9.981e+03 2.758e-09
 42.48165   -144.0 9.738e+03 2.234e-09
 42.52142   -141.2 9.544e+03 1.761e-09
 42.56119   -138.4 9.398e+03 1.378e-09
 42.59560   -135.6 9.303e+03 1.109e-09
 42.61549   -135.5 9.223e+03 9.170e-10
 42.64074   -132.7 9.176e+03 7.783e-10
 42.68051   -129.9 9.132e+03 7.150e-10
 42.72028   -127.1 9.113e+03 7.005e-10
 42.76006   -124.3 9.111e+03 6.994e-10
 42.79983   -121.8 9.122e+03 7.764e-10
 42.82618   -119.3 9.204e+03 9.403e-10
 42.84607   -119.0 9.166e+03 9.368e-10
 42.87937   -116.7 9.276e+03 1.158e-09
 42.90699   -114.7 9.396e+03 1.427e-09
 42.92688   -114.0 9.368e+03 1.262e-09
 42.95892   -112.1 9.486e+03 1.554e-09
 42.99869   -110.4 9.611e+03 1.827e-09
 43.03688   -109.0 9.727e+03 2.041e-09
 43.05676   -108.9 9.705e+03 2.035e-09
 43.07824   -107.9 9.791e+03 2.112e-09
 43.11801   -107.1 9.886e+03 2.158e-09
 43.15778   -106.7 1.001e+04 2.271e-09
 43.19755   -106.6 1.015e+04 2.567e-09
 43.23733   -106.5 1.028e+04 2.964e-09
 43.26746   -106.5 1.036e+04 3.203e-09
 43.28734   -106.2 1.020e+04 2.997e-09
 43.31687   -106.4 1.022e+04 3.015e-09
 43.35665   -106.4 1.022e+04 2.894e-09
 43.39642   -106.4 1.023e+04 2.773e-09
 43.43619   -106.3 1.031e+04 2.761e-09
 43.47417   -106.5 1.061e+04 3.132e-09
 43.49406   -105.0 1.052e+04 2.580e-09
 43.49803   -105.8 1.101e+04 3.864e-09
 43.50788   -105.2 1.089e+04 3.678e-09
 43.52548   -105.8 1.098e+04 4.138e-09
 43.54537   -107.2 1.119e+04 4.929e-09
 43.56526   -108.3 1.127e+04 5.013e-09
 43.58514   -109.7 1.130e+04 4.965e-09
 43.60318   -111.0 1.129e+04 4.643e-09
 43.61313   -110.6 1.123e+04 4.558e-09
 43.62491   -111.8 1.117e+04 4.300e-09
 43.64480   -112.9 1.114e+04 4.246e-09
 43.66469   -113.8 1.116e+04 4.277e-09
 43.68457   -114.7 1.130e+04 4.406e-09
 43.70446   -115.6 1.141e+04 4.539e-09
 43.71847   -116.4 1.147e+04 4.619e-09
 43.72842   -115.8 1.150e+04 4.882e-09
 43.74423   -116.5 1.154e+04 4.930e-09
 43.76412   -117.1 1.154e+04 4.920e-09
 43.77745   -117.6 1.154e+04 4.705e-09
 43.78739   -116.8 1.149e+04 4.396e-09
 43.80389   -117.2 1.146e+04 4.177e-09
 43.82378   -117.5 1.146e+04 4.055e-09
 43.84366   -117.5 1.155e+04 4.361e-09
 43.86355   -118.0 1.173e+04 4.412e-09
 43.88344   -118.4 1.186e+04 4.805e-09
 43.90332   -118.8 1.199e+04 5.396e-09
 43.92321   -119.2 1.212e+04 6.047e-09
 43.93911   -119.5 1.226e+04 6.626e-09
 43.94905   -119.6 1.233e+04 7.248e-09
 43.96298   -120.0 1.242e+04 7.578e-09
 43.98287   -120.4 1.245e+04 7.654e-09
 44.00275   -120.6 1.245e+04 7.620e-09
 44.02264   -120.6 1.247e+04 6.824e-09
 44.04253   -120.5 1.245e+04 5.424e-09
 44.05440   -120.4 1.240e+04 4.033e-09
 44.06297   -120.6 1.248e+04 4.155e-09
 44.07098   -120.3 1.245e+04 4.136e-09
 44.08230   -120.0 1.231e+04 3.203e-09
 44.11223   -119.4 1.210e+04 2.511e-09
 44.15000   -119.0 1.190e+04 2.123e-09
 44.16988   -119.4 1.189e+04 2.014e-09
 44.19187   -118.0 1.159e+04 1.642e-09
 44.23164   -116.3 1.143e+04 1.481e-09
 44.27142   -114.6 1.137e+04 1.431e-09
 44.31119   -113.1 1.133e+04 1.418e-09
 44.35096   -111.8 1.126e+04 1.400e-09
 44.38058   -110.6 1.117e+04 1.338e-09
 44.40046   -110.6 1.121e+04 1.321e-09
 44.43051   -109.4 1.113e+04 1.247e-09
 44.47028   -108.2 1.110e+04 1.203e-09
 44.51005   -107.4 1.110e+04 1.196e-09
 44.54982   -107.0 1.114e+04 1.336e-09
 44.58960   -106.9 1.117e+04 1.847e-09
 44.61116   -106.9 1.129e+04 2.510e-09
 44.63009   -106.5 1.139e+04 2.619e-09
 44.64830   -105.8 1.120e+04 2.205e-09
 44.66914   -106.1 1.132e+04 2.939e-09
 44.70891   -106.9 1.138e+04 3.248e-09
 44.74869   -107.7 1.136e+04 3.256e-09
 44.78846   -108.0 1.122e+04 2.764e-09
 44.82185   -108.1 1.113e+04 2.066e-09
 44.84173   -108.4 1.117e+04 2.393e-09
 44.86800   -108.5 1.104e+04 1.734e-09
 44.90778   -108.4 1.091e+04 1.331e-09
 44.94755   -107.8 1.081e+04 1.126e-09
 44.98732   -107.1 1.078e+04 1.061e-09
 45.02710   -106.4 1.078e+04 1.055e-09
 45.05243   -105.8 1.084e+04 1.105e-09
 45.07231   -105.9 1.078e+04 9.303e-10
 45.10664   -105.4 1.086e+04 9.336e-10
 45.14641   -105.3 1.095e+04 9.316e-10
 45.18619   -105.2 1.107e+04 9.217e-10
 45.21548   -105.9 1.141e+04 1.179e-09
 45.23537   -105.3 1.123e+04 1.220e-09
 45.26312   -106.6 1.160e+04 2.233e-09
 45.28301   -106.2 1.154e+04 2.299e-09
 45.30550   -107.6 1.197e+04 4.070e-09
 45.34528   -109.9 1.227e+04 6.154e-09
 45.38505   -113.0 1.231e+04 7.422e-09
 45.42482   -116.3 1.225e+04 7.720e-09
 45.46459   -119.0 1.215e+04 7.799e-09
 45.49370   -120.7 1.202e+04 8.741e-09
 45.51358   -119.2 1.210e+04 7.956e-09
 45.54414   -120.4 1.222e+04 9.448e-09
 45.57387   -122.1 1.249e+04 1.168e-08
 45.59366   -123.0 1.251e+04 1.239e-08
 45.60879   -123.6 1.255e+04 1.289e-08
 45.61874   -123.0 1.258e+04 1.283e-08
 45.63343   -123.6 1.257e+04 1.303e-08
 45.65332   -124.1 1.252e+04 1.306e-08
 45.67321   -124.6 1.239e+04 1.258e-08
 45.69309   -125.0 1.227e+04 1.176e-08
 45.71298   -125.4 1.214e+04 1.079e-08
 45.72408   -125.7 1.201e+04 9.779e-09
 45.73403   -125.4 1.219e+04 1.041e-08
 45.75275   -125.7 1.207e+04 9.642e-09
 45.77264   -125.8 1.202e+04 9.271e-09
 45.79241   -125.8 1.201e+04 9.218e-09
 45.80235   -126.2 1.185e+04 7.834e-09
 45.81241   -126.2 1.185e+04 7.806e-09
 45.82943   -126.2 1.188e+04 7.830e-09
 45.83937   -126.0 1.211e+04 8.895e-09
 45.85218   -126.4 1.242e+04 9.670e-09
 45.87207   -127.3 1.291e+04 1.320e-08
 45.89195   -128.8 1.368e+04 2.082e-08
 45.91184   -131.0 1.469e+04 3.513e-08
 45.93173   -133.6 1.573e+04 5.659e-08
 45.94472   -136.9 1.651e+04 7.866e-08
 45.95466   -138.2 1.693e+04 9.058e-08
 45.97150   -142.5 1.702e+04 9.440e-08
 45.99139   -146.5 1.658e+04 8.414e-08
 46.01127   -149.6 1.571e+04 5.105e-08
 46.03116   -151.8 1.463e+04 2.430e-08
 46.05006   -153.5 1.374e+04 1.155e-08
 46.06001   -154.1 1.348e+04 9.184e-09
 46.07093   -154.9 1.317e+04 6.611e-09
 46.08594   -155.1 1.306e+04 6.105e-09
 46.09589   -155.3 1.311e+04 6.510e-09
 46.11070   -155.3 1.309e+04 6.414e-09
 46.13059   -155.3 1.311e+04 6.425e-09
 46.15048   -155.3 1.325e+04 6.734e-09
 46.16535   -155.5 1.336e+04 7.438e-09
 46.17530   -155.1 1.336e+04 7.432e-09
 46.19025   -155.3 1.338e+04 8.165e-09
 46.21014   -155.5 1.334e+04 8.682e-09
 46.23002   -155.8 1.331e+04 8.921e-09
 46.24991   -156.3 1.334e+04 9.042e-09
 46.26979   -157.9 1.349e+04 9.267e-09
 46.28064   -161.3 1.450e+04 1.085e-08
 46.29059   -163.0 1.545e+04 1.704e-08
 46.30957   -167.2 1.627e+04 3.916e-08
 46.32945   -170.5 1.679e+04 7.875e-08
 46.34934   -172.8 1.716e+04 1.140e-07
 46.36421   -174.9 1.743e+04 1.315e-07
 46.37410   -176.3 1.745e+04 1.337e-07
 46.37938   -177.5 1.725e+04 1.217e-07
 46.38435   -177.8 1.719e+04 1.347e-07
 46.39086   -178.5 1.701e+04 1.041e-07
 46.39583   -179.6 1.695e+04 9.320e-08
 46.40393   -180.6 1.647e+04 6.455e-08
 46.41387   -181.3 1.608e+04 4.921e-08
 46.42884   -181.6 1.577e+04 4.042e-08
 46.44877   -180.8 1.530e+04 2.850e-08
 46.46866   -179.7 1.479e+04 1.760e-08
 46.48854   -178.8 1.453e+04 1.167e-08
 46.50128   -177.8 1.443e+04 8.824e-09
 46.51122   -177.7 1.432e+04 7.685e-09
 46.52832   -176.4 1.426e+04 6.113e-09
 46.54820   -175.1 1.423e+04 4.812e-09
 46.56809   -174.0 1.427e+04 3.729e-09
 46.58798   -173.1 1.433e+04 3.103e-09
 46.60672   -172.1 1.430e+04 2.833e-09
 46.62671   -172.1 1.417e+04 2.354e-09
 46.65777   -169.2 1.394e+04 1.892e-09
 46.69755   -166.4 1.385e+04 1.511e-09
 46.73732   -163.5 1.384e+04 1.230e-09
 46.77709   -160.7 1.373e+04 1.075e-09
 46.81686   -157.9 1.372e+04 9.877e-10
 46.83740   -155.2 1.375e+04 9.369e-10
 46.85729   -154.7 1.364e+04 9.280e-10
 46.89641   -152.0 1.364e+04 8.883e-10
 46.93618   -149.4 1.367e+04 8.644e-10
 46.95679   -146.8 1.365e+04 8.630e-10
 46.97668   -146.8 1.372e+04 7.119e-10
 47.01573   -144.3 1.369e+04 7.319e-10
 47.04809   -141.7 1.364e+04 7.495e-10
 47.06798   -141.4 1.358e+04 6.782e-10
 47.09527   -138.9 1.357e+04 6.604e-10
 47.13504   -136.4 1.357e+04 6.353e-10
 47.17482   -133.9 1.357e+04 6.065e-10
 47.21459   -131.4 1.359e+04 5.780e-10
 47.25436   -128.9 1.362e+04 5.526e-10
 47.27867   -126.5 1.365e+04 5.314e-10
 47.29856   -125.9 1.351e+04 4.711e-10
 47.33391   -123.4 1.351e+04 4.681e-10
 47.37368   -121.0 1.357e+04 4.701e-10
 47.41345   -118.6 1.365e+04 5.057e-10
 47.45323   -116.3 1.367e+04 5.752e-10
 47.48936   -113.9 1.365e+04 6.680e-10
 47.50925   -113.3 1.354e+04 7.105e-10
 47.52397   -111.0 1.350e+04 8.483e-10
 47.54386   -111.1 1.346e+04 1.106e-09
 47.57254   -108.7 1.350e+04 1.209e-09
 47.61232   -106.4 1.360e+04 1.252e-09
 47.65209   -104.1 1.365e+04 1.259e-09
 47.69186   -101.6 1.367e+04 1.256e-09
 47.71994    -99.1 1.377e+04 1.201e-09
 47.73983    -98.9 1.374e+04 1.301e-09
 47.77141    -96.3 1.378e+04 1.208e-09
 47.81118    -93.6 1.380e+04 1.124e-09
 47.85095    -91.0 1.383e+04 1.058e-09
 47.89072    -88.2 1.386e+04 1.006e-09
 47.93050    -85.4 1.390e+04 9.590e-10
 47.97027    -82.5 1.387e+04 1.028e-09
 48.01004    -79.7 1.391e+04 9.793e-10
 48.04981    -76.9 1.395e+04 9.318e-10
 48.08959    -74.0 1.399e+04 8.974e-10
 48.11104    -71.3 1.403e+04 8.856e-10
 48.13093    -71.2 1.401e+04 1.040e-09
 48.16121    -68.4 1.406e+04 1.066e-09
 48.18110    -68.6 1.398e+04 1.183e-09
 48.20891    -65.9 1.398e+04 1.280e-09
 48.24868    -63.2 1.398e+04 1.382e-09
 48.28845    -60.4 1.394e+04 1.479e-09
 48.32822    -57.6 1.390e+04 1.553e-09
 48.36800    -54.8 1.387e+04 1.587e-09
 48.39179    -52.1 1.385e+04 1.595e-09
 48.41168    -52.2 1.380e+04 1.775e-09
 48.44754    -49.5 1.376e+04 1.711e-09
 48.48731    -46.8 1.378e+04 1.576e-09
 48.52709    -44.2 1.384e+04 1.454e-09
 48.56686    -41.6 1.387e+04 1.350e-09
 48.60248    -38.9 1.388e+04 1.255e-09
 48.62237    -39.0 1.374e+04 1.288e-09
 48.64640    -36.3 1.379e+04 1.115e-09
 48.67822    -33.4 1.380e+04 9.652e-10
 48.69811    -33.2 1.388e+04 9.701e-10
 48.72595    -30.3 1.390e+04 8.145e-10
 48.76572    -27.4 1.393e+04 7.186e-10
 48.80549    -24.5 1.397e+04 6.709e-10
 48.83306    -21.5 1.402e+04 6.570e-10
 48.85295    -21.4 1.396e+04 6.655e-10
 48.88504    -18.6 1.405e+04 6.721e-10
 48.92481    -16.0 1.410e+04 7.570e-10
 48.96459    -13.5 1.409e+04 9.240e-10
 49.00436    -11.1 1.409e+04 1.172e-09
 49.04376     -8.8 1.410e+04 1.528e-09
 49.06364     -8.8 1.407e+04 1.669e-09
 49.08390     -6.7 1.407e+04 2.115e-09
 49.12368     -4.9 1.397e+04 2.526e-09
 49.16345     -3.2 1.386e+04 2.720e-09
 49.20322     -1.6 1.370e+04 2.615e-09
 49.24299      0.2 1.367e+04 2.018e-09
 49.26529      2.0 1.367e+04 1.416e-09
 49.27674      2.5 1.373e+04 1.102e-09
 49.29422      2.5 1.376e+04 9.780e-10
 49.32254      4.4 1.364e+04 8.356e-10
 49.36231      6.4 1.359e+04 7.989e-10
 49.40208      8.4 1.350e+04 8.461e-10
 49.44186     10.3 1.332e+04 1.025e-09
 49.48163     12.2 1.316e+04 1.302e-09
 49.50491     13.9 1.309e+04 1.737e-09
 49.52480     14.1 1.294e+04 1.524e-09
 49.56117     15.9 1.276e+04 2.129e-09
 49.60095     17.8 1.259e+04 3.036e-09
 49.64072     19.8 1.258e+04 3.643e-09
 49.68049     21.3 1.251e+04 3.643e-09
 49.71561     22.8 1.247e+04 3.063e-09
 49.73549     23.2 1.247e+04 2.836e-09
 49.76004     24.5 1.246e+04 2.455e-09
 49.79981     25.7 1.228e+04 2.324e-09
 49.83247     27.0 1.210e+04 2.204e-09
 49.85235     28.2 1.235e+04 3.304e-09
 49.87936     29.5 1.223e+04 2.523e-09
 49.91913     31.0 1.195e+04 1.989e-09
 49.94619     32.7 1.184e+04 1.512e-09
 49.96607     33.0 1.187e+04 1.507e-09
 49.99867     34.9 1.179e+04 1.300e-09
 50.03845     37.0 1.172e+04 1.248e-09
 50.07822     39.2 1.164e+04 1.251e-09
 50.11799     41.0 1.161e+04 1.400e-09
 50.15688     42.8 1.144e+04 1.843e-09
 50.17676     42.9 1.151e+04 2.047e-09
 50.19754     44.9 1.137e+04 2.645e-09
 50.23731     46.3 1.138e+04 2.695e-09
 50.27708     47.9 1.130e+04 2.394e-09
 50.31685     49.2 1.136e+04 1.802e-09
 50.35663     50.3 1.140e+04 1.376e-09
 50.38746     51.3 1.122e+04 1.283e-09
 50.40734     51.1 1.123e+04 1.280e-09
 50.41953     52.6 1.118e+04 1.298e-09
 50.43942     52.3 1.127e+04 1.434e-09
 50.47594     53.7 1.113e+04 1.550e-09
 50.51572     55.3 1.102e+04 1.678e-09
 50.55549     56.9 1.091e+04 1.766e-09
 50.59526     58.5 1.084e+04 1.837e-09
 50.61804     60.0 1.079e+04 1.918e-09
 50.63792     59.9 1.101e+04 2.352e-09
 50.67481     61.4 1.097e+04 2.343e-09
 50.71458     62.8 1.086e+04 2.202e-09
 50.75435     64.0 1.084e+04 1.883e-09
 50.79413     64.9 1.081e+04 1.748e-09
 50.82873     65.7 1.084e+04 1.842e-09
 50.84861     65.3 1.092e+04 1.921e-09
 50.87367     65.9 1.094e+04 2.361e-09
 50.91344     66.8 1.093e+04 3.205e-09
 50.95322     67.7 1.093e+04 3.491e-09
 50.98671     68.6 1.087e+04 3.491e-09
 51.00660     68.7 1.094e+04 3.185e-09
 51.02272     69.1 1.092e+04 3.692e-09
 51.04251     69.8 1.092e+04 4.197e-09
 51.05911     70.2 1.104e+04 5.088e-09
 51.06905     70.3 1.103e+04 4.985e-09
 51.08228     70.8 1.111e+04 6.089e-09
 51.10217     71.4 1.131e+04 7.279e-09
 51.12205     71.9 1.152e+04 8.329e-09
 51.14194     72.3 1.172e+04 9.071e-09
 51.16183     72.5 1.187e+04 9.301e-09
 51.17440     72.7 1.185e+04 9.211e-09
 51.18434     72.7 1.189e+04 9.081e-09
 51.20160     72.7 1.190e+04 8.701e-09
 51.23153     73.0 1.190e+04 8.297e-09
 51.27000     73.3 1.178e+04 6.622e-09
 51.28989     73.2 1.166e+04 5.150e-09
 51.31117     73.4 1.146e+04 3.805e-09
 51.35094     73.7 1.109e+04 3.165e-09
 51.39072     74.2 1.094e+04 3.212e-09
 51.43049     74.6 1.085e+04 3.780e-09
 51.47026     74.8 1.083e+04 4.724e-09
 51.49999     75.1 1.080e+04 5.460e-09
 51.51033     75.3 1.081e+04 6.001e-09
 51.52027     75.7 1.076e+04 5.513e-09
 51.53967     75.7 1.091e+04 6.883e-09
 51.55955     75.7 1.092e+04 7.019e-09
 51.57358     75.7 1.111e+04 8.044e-09
 51.59357     76.8 1.130e+04 9.863e-09
 51.62935     76.2 1.156e+04 1.251e-08
 51.66912     74.7 1.152e+04 1.199e-08
 51.70890     72.7 1.138e+04 1.121e-08
 51.73116     71.1 1.109e+04 1.002e-08
 51.75104     71.7 1.143e+04 1.231e-08
 51.78844     70.8 1.110e+04 1.089e-08
 51.82821     70.9 1.067e+04 7.583e-09
 51.86799     70.6 1.036e+04 4.784e-09
 51.90776     70.4 1.027e+04 4.251e-09
 51.94185     70.0 1.038e+04 4.665e-09
 51.96174     70.6 1.057e+04 4.878e-09
 51.98730     69.7 1.107e+04 6.609e-09
 52.02708     68.7 1.166e+04 9.274e-09
 52.05681     66.8 1.208e+04 1.191e-08
 52.06689     64.9 1.256e+04 1.590e-08
 52.07683     65.6 1.252e+04 1.541e-08
 52.09648     63.7 1.302e+04 2.431e-08
 52.11637     62.6 1.347e+04 3.759e-08
 52.13626     62.1 1.344e+04 3.817e-08
 52.15071     62.3 1.299e+04 3.077e-08
 52.16065     61.6 1.302e+04 1.852e-08
 52.17223     61.5 1.215e+04 1.302e-08
 52.18218     61.7 1.233e+04 1.345e-08
 52.19592     60.8 1.176e+04 9.988e-09
 52.21580     61.0 1.120e+04 7.454e-09
 52.23569     61.5 1.088e+04 5.727e-09
 52.25557     62.2 1.070e+04 4.073e-09
 52.27546     62.4 1.064e+04 3.078e-09
 52.30539     63.5 1.079e+04 2.876e-09
 52.34526     64.9 1.066e+04 2.501e-09
 52.38312     66.4 1.054e+04 2.207e-09
 52.40301     67.0 1.081e+04 2.544e-09
 52.42480     68.3 1.072e+04 2.031e-09
 52.46458     69.3 1.070e+04 1.578e-09
 52.50435     70.2 1.067e+04 1.451e-09
 52.54412     71.0 1.072e+04 1.519e-09
 52.58389     71.7 1.087e+04 1.856e-09
 52.61370     72.5 1.117e+04 2.373e-09
 52.63359     72.8 1.137e+04 2.761e-09
 52.66344     73.4 1.157e+04 3.269e-09
 52.70321     74.0 1.169e+04 3.476e-09
 52.72802     74.6 1.173e+04 3.404e-09
 52.74791     75.5 1.164e+04 3.277e-09
 52.78276     76.4 1.165e+04 2.948e-09
 52.82253     77.5 1.154e+04 2.279e-09
 52.84428     78.5 1.138e+04 1.731e-09
 52.86417     78.7 1.137e+04 1.748e-09
 52.90208     79.9 1.119e+04 1.637e-09
 52.94185     81.4 1.124e+04 1.730e-09
 52.98162     82.6 1.139e+04 2.153e-09
 53.01135     83.0 1.146e+04 2.829e-09
 53.02136     83.4 1.153e+04 3.292e-09
 53.03131     83.5 1.156e+04 3.321e-09
 53.05487     83.7 1.164e+04 4.801e-09
 53.07486     83.8 1.157e+04 4.897e-09
 53.10094     83.8 1.175e+04 7.842e-09
 53.14071     83.1 1.188e+04 1.019e-08
 53.18048     81.7 1.182e+04 1.030e-08
 53.22026     80.7 1.157e+04 9.639e-09
 53.26003     80.2 1.123e+04 8.423e-09
 53.28555     80.1 1.087e+04 7.002e-09
 53.30084     79.3 1.086e+04 7.742e-09
 53.31509     79.7 1.090e+04 7.126e-09
 53.33957     79.6 1.059e+04 5.851e-09
 53.37935     79.9 1.021e+04 4.385e-09
 53.41912     80.2 9.862e+03 3.115e-09
 53.45889     80.6 9.590e+03 2.395e-09
 53.49624     81.0 9.412e+03 2.081e-09
 53.51613     80.5 9.258e+03 1.884e-09
 53.53844     81.4 9.129e+03 1.657e-09
 53.57821     82.4 9.030e+03 1.308e-09
 53.61798     83.4 8.993e+03 9.677e-10
 53.65775     84.4 8.908e+03 7.860e-10
 53.69753     85.6 8.782e+03 7.874e-10
 53.72682     87.2 8.802e+03 8.168e-10
 53.74671     87.6 8.788e+03 8.195e-10
 53.77707     89.3 8.870e+03 8.656e-10
 53.81685     90.9 8.947e+03 8.836e-10
 53.85662     92.4 8.994e+03 8.705e-10
 53.88227     93.9 9.038e+03 8.598e-10
 53.90216     94.7 9.039e+03 9.088e-10
 53.93616     96.3 9.068e+03 9.107e-10
 53.95740     97.7 9.143e+03 9.495e-10
 53.97729     98.0 9.088e+03 1.010e-09
 54.01571     99.3 9.221e+03 1.152e-09
 54.05548    100.3 9.452e+03 1.576e-09
 54.09525    100.8 9.761e+03 2.568e-09
 54.13503    100.8 1.018e+04 4.181e-09
 54.16809    100.5 1.063e+04 5.050e-09
 54.18798    100.5 1.044e+04 4.176e-09
 54.21457     99.7 1.045e+04 3.893e-09
 54.25434     99.6 1.034e+04 2.801e-09
 54.29412     99.6 1.026e+04 1.684e-09
 54.33389     99.7 1.015e+04 1.184e-09
 54.37366    100.3 1.009e+04 1.146e-09
 54.39867    101.7 1.013e+04 1.180e-09
 54.41856    102.4 1.012e+04 1.182e-09
 54.44945    103.9 1.024e+04 1.276e-09
 54.46934    104.0 1.025e+04 1.264e-09
 54.49298    105.7 1.039e+04 1.343e-09
 54.53275    107.1 1.053e+04 1.474e-09
 54.57253    108.5 1.081e+04 2.087e-09
 54.60936    108.9 1.104e+04 3.033e-09
 54.62915    109.3 1.102e+04 3.267e-09
 54.64193    109.3 1.118e+04 4.219e-09
 54.66182    109.3 1.136e+04 5.064e-09
 54.68170    109.0 1.168e+04 5.747e-09
 54.70159    108.3 1.186e+04 5.804e-09
 54.73152    107.4 1.189e+04 5.355e-09
 54.77139    107.3 1.174e+04 3.329e-09
 54.81116    107.5 1.173e+04 1.619e-09
 54.83994    107.6 1.174e+04 9.054e-10
 54.85983    108.0 1.171e+04 9.111e-10
 54.89071    109.1 1.162e+04 8.696e-10
 54.93048    110.6 1.164e+04 9.208e-10
 54.97025    112.1 1.171e+04 1.112e-09
 55.01002    113.6 1.189e+04 1.377e-09
 55.03652    115.0 1.216e+04 1.537e-09
 55.05640    115.2 1.219e+04 1.237e-09
 55.07052    116.6 1.228e+04 1.303e-09
 55.09041    117.1 1.230e+04 1.324e-09
 55.12934    118.4 1.229e+04 1.310e-09
 55.16911    119.8 1.225e+04 1.229e-09
 55.20889    121.1 1.216e+04 1.150e-09
 55.24866    122.6 1.210e+04 1.150e-09
 55.28121    124.0 1.206e+04 1.208e-09
 55.30110    124.3 1.201e+04 1.237e-09
 55.32821    125.8 1.195e+04 1.427e-09
 55.36798    127.3 1.213e+04 1.986e-09
 55.39641    127.5 1.228e+04 2.471e-09
 55.40625    127.7 1.222e+04 2.406e-09
 55.41750    127.8 1.229e+04 3.094e-09
 55.43738    128.0 1.227e+04 4.247e-09
 55.45727    128.4 1.231e+04 5.680e-09
 55.47716    128.7 1.243e+04 7.013e-09
 55.49704    128.8 1.254e+04 8.011e-09
 55.51160    128.7 1.269e+04 8.915e-09
 55.52154    129.0 1.260e+04 8.528e-09
 55.53682    128.8 1.264e+04 8.540e-09
 55.55670    128.4 1.264e+04 8.044e-09
 55.57659    127.9 1.258e+04 7.213e-09
 55.59648    127.3 1.251e+04 6.803e-09
 55.61344    126.7 1.251e+04 6.877e-09
 55.62339    126.5 1.234e+04 5.153e-09
 55.62689    126.1 1.233e+04 5.669e-09
 55.63683    126.3 1.221e+04 4.379e-09
 55.65613    125.9 1.220e+04 5.437e-09
 55.67602    126.0 1.222e+04 6.843e-09
 55.69591    126.2 1.220e+04 8.011e-09
 55.71579    126.5 1.217e+04 8.108e-09
 55.73223    126.7 1.217e+04 7.946e-09
 55.74218    127.1 1.204e+04 7.253e-09
 55.75557    127.4 1.200e+04 7.104e-09
 55.77545    127.9 1.192e+04 7.003e-09
 55.79534    128.3 1.186e+04 6.957e-09
 55.81522    128.8 1.179e+04 6.837e-09
 55.83511    129.4 1.179e+04 6.748e-09
 55.84752    130.0 1.183e+04 6.777e-09
 55.85747    130.3 1.172e+04 6.285e-09
 55.87488    131.0 1.181e+04 6.395e-09
 55.89477    131.6 1.194e+04 6.711e-09
 55.90698    132.1 1.205e+04 7.105e-09
 55.91692    132.2 1.182e+04 5.945e-09
 55.93454    132.8 1.186e+04 6.330e-09
 55.95287    133.5 1.186e+04 6.622e-09
 55.96281    133.7 1.184e+04 6.359e-09
 55.97431    134.3 1.184e+04 6.743e-09
 55.99420    135.0 1.180e+04 6.816e-09
 56.01409    135.5 1.174e+04 6.550e-09
 56.03397    136.2 1.163e+04 5.992e-09
 56.05386    136.8 1.152e+04 5.414e-09
 56.06816    137.5 1.141e+04 5.047e-09
 56.07810    137.0 1.159e+04 5.814e-09
 56.09363    137.7 1.150e+04 5.585e-09
 56.11352    138.4 1.142e+04 5.520e-09
 56.13341    139.3 1.139e+04 5.535e-09
 56.15329    140.5 1.141e+04 5.591e-09
 56.17318    141.6 1.155e+04 5.876e-09
 56.18345    141.6 1.202e+04 7.053e-09
 56.19089    139.4 1.212e+04 8.630e-09
 56.20051    140.5 1.195e+04 7.810e-09
 56.21295    139.7 1.274e+04 1.296e-08
 56.23284    137.4 1.439e+04 3.215e-08
 56.25272    129.8 1.847e+04 6.213e-08
 56.26759    120.3 2.162e+04 7.975e-08
 56.27748    106.1 2.672e+04 1.038e-07
 56.28743     88.8 2.491e+04 3.560e-07
 56.29367     78.8 2.036e+04 9.592e-07
 56.29864     84.2 2.317e+04 3.090e-07
 56.30731     78.8 2.044e+04 4.813e-07
 56.31726     75.6 2.012e+04 4.912e-07
 56.32720     73.7 2.048e+04 3.294e-07
 56.33714     70.5 2.063e+04 2.252e-07
 56.35211     69.0 1.959e+04 1.235e-07
 56.37204     66.6 1.718e+04 8.084e-08
 56.39193     66.3 1.521e+04 4.892e-08
 56.40408     66.9 1.406e+04 3.051e-08
 56.41403     68.0 1.498e+04 4.593e-08
 56.43170     68.6 1.433e+04 3.535e-08
 56.45159     69.2 1.378e+04 2.831e-08
 56.47147     69.9 1.308e+04 2.291e-08
 56.48410     71.0 1.242e+04 1.873e-08
 56.49404     71.6 1.279e+04 2.118e-08
 56.50943     72.5 1.221e+04 1.765e-08
 56.51937     72.9 1.272e+04 2.107e-08
 56.53113     73.8 1.205e+04 1.681e-08
 56.55102     74.8 1.146e+04 1.322e-08
 56.57090     75.9 1.094e+04 1.029e-08
 56.59079     77.1 1.056e+04 8.118e-09
 56.61068     78.2 1.026e+04 6.483e-09
 56.62472     79.1 9.986e+03 5.261e-09
 56.63466     79.3 1.016e+04 6.132e-09
 56.65045     80.2 9.925e+03 5.318e-09
 56.67034     81.1 9.837e+03 5.157e-09
 56.69022     81.8 9.846e+03 5.318e-09
 56.71011     83.0 9.775e+03 5.413e-09
 56.72999     83.7 9.793e+03 5.721e-09
 56.75785     85.5 9.594e+03 5.502e-09
 56.77783     85.6 9.817e+03 6.495e-09
 56.79979     87.4 9.559e+03 5.858e-09
 56.83561     89.3 9.352e+03 5.204e-09
 56.85549     89.2 9.452e+03 5.425e-09
 56.87934     91.0 9.432e+03 5.399e-09
 56.90907     92.0 9.413e+03 5.173e-09
 56.92886     92.6 9.409e+03 4.976e-09
 56.94874     93.4 9.372e+03 4.749e-09
 56.96065     94.1 9.379e+03 4.661e-09
 56.97059     94.0 9.582e+03 5.688e-09
 56.98852     94.6 9.595e+03 5.654e-09
 57.00840     95.2 9.611e+03 5.591e-09
 57.02829     95.7 9.664e+03 5.570e-09
 57.04818     96.0 9.730e+03 5.554e-09
 57.06122     96.3 9.784e+03 5.504e-09
 57.06910     96.4 9.916e+03 6.164e-09
 57.07593     96.2 9.977e+03 6.500e-09
 57.08795     96.2 9.962e+03 6.139e-09
 57.10783     96.3 9.909e+03 5.686e-09
 57.12772     96.3 9.839e+03 5.191e-09
 57.14761     96.2 9.802e+03 4.882e-09
 57.16749     96.2 9.806e+03 4.894e-09
 57.18128     96.0 9.864e+03 5.055e-09
 57.19122     95.7 9.942e+03 5.439e-09
 57.20727     95.4 1.007e+04 5.987e-09
 57.22715     95.1 1.023e+04 6.793e-09
 57.24704     94.5 1.045e+04 7.769e-09
 57.26693     93.4 1.082e+04 9.469e-09
 57.28663     91.6 1.147e+04 1.345e-08
 57.29657     91.5 1.154e+04 1.382e-08
 57.30670     89.8 1.238e+04 2.128e-08
 57.32658     88.3 1.284e+04 2.606e-08
 57.34481     86.9 1.271e+04 2.464e-08
 57.35476     86.5 1.269e+04 2.430e-08
 57.36636     85.1 1.214e+04 1.826e-08
 57.38624     83.0 1.146e+04 1.186e-08
 57.40192     80.4 1.075e+04 8.271e-09
 57.41186     80.4 1.091e+04 9.827e-09
 57.42602     78.7 1.039e+04 7.941e-09
 57.44590     78.0 1.013e+04 6.781e-09
 57.46579     77.5 1.004e+04 5.780e-09
 57.48567     76.6 1.000e+04 4.920e-09
 57.50556     75.3 9.999e+03 4.808e-09
 57.51721     73.8 1.008e+04 5.080e-09
 57.52715     73.3 1.017e+04 5.564e-09
 57.54533     71.7 1.044e+04 6.866e-09
 57.56522     70.4 1.076e+04 9.156e-09
 57.58511     69.4 1.111e+04 1.147e-08
 57.60499     68.2 1.134e+04 1.195e-08
 57.62255     67.0 1.128e+04 1.127e-08
 57.63250     66.3 1.118e+04 1.067e-08
 57.63835     65.0 1.101e+04 8.730e-09
 57.64829     64.7 1.084e+04 7.271e-09
 57.66465     63.3 1.059e+04 5.753e-09
 57.68454     62.2 1.031e+04 5.077e-09
 57.70442     61.9 1.019e+04 4.656e-09
 57.72431     61.7 1.021e+04 4.407e-09
 57.73784     61.6 1.020e+04 4.412e-09
 57.74779     61.3 1.031e+04 4.956e-09
 57.76408     61.4 1.035e+04 5.158e-09
 57.78397     61.6 1.040e+04 5.329e-09
 57.80386     61.9 1.050e+04 5.495e-09
 57.82374     62.1 1.056e+04 5.477e-09
 57.84319     62.5 1.057e+04 5.248e-09
 57.85313     61.9 1.073e+04 5.593e-09
 57.86351     62.1 1.071e+04 5.177e-09
 57.88340     62.5 1.067e+04 4.736e-09
 57.90329     62.8 1.062e+04 4.317e-09
 57.92194     63.1 1.063e+04 4.056e-09
 57.93188     63.1 1.048e+04 3.146e-09
 57.94306     63.7 1.049e+04 3.070e-09
 57.95848     64.0 1.057e+04 3.124e-09
 57.96842     63.3 1.067e+04 3.424e-09
 57.98283     64.0 1.065e+04 3.422e-09
 58.00272     64.4 1.078e+04 3.554e-09
 58.02261     65.3 1.074e+04 3.484e-09
 58.04249     65.7 1.084e+04 3.543e-09
 58.06238     66.3 1.091e+04 3.641e-09
 58.07377     66.9 1.099e+04 3.767e-09
 58.08371     66.3 1.105e+04 3.935e-09
 58.10215     66.9 1.113e+04 4.109e-09
 58.12204     67.5 1.121e+04 4.390e-09
 58.14192     68.3 1.126e+04 4.661e-09
 58.16181     69.0 1.132e+04 4.761e-09
 58.17921     70.7 1.127e+04 4.073e-09
 58.19919     69.6 1.154e+04 4.440e-09
 58.23161     71.2 1.170e+04 4.151e-09
 58.27138     72.8 1.184e+04 4.051e-09
 58.31115     74.5 1.197e+04 4.112e-09
 58.35092     76.0 1.205e+04 4.556e-09
 58.39000     77.7 1.197e+04 5.038e-09
 58.40989     76.5 1.176e+04 3.837e-09
 58.43047     78.4 1.154e+04 3.573e-09
 58.47024     80.3 1.130e+04 2.991e-09
 58.49925     82.1 1.099e+04 2.231e-09
 58.51914     82.3 1.114e+04 2.592e-09
 58.54979     83.9 1.111e+04 2.327e-09
 58.57952     85.1 1.090e+04 2.060e-09
 58.59931     85.7 1.096e+04 2.062e-09
 58.61919     86.5 1.112e+04 2.238e-09
 58.63033     87.1 1.114e+04 2.490e-09
 58.64027     87.5 1.104e+04 2.364e-09
 58.65897     88.5 1.106e+04 2.725e-09
 58.67885     89.2 1.111e+04 3.036e-09
 58.69874     90.3 1.110e+04 3.311e-09
 58.71863     91.0 1.112e+04 3.331e-09
 58.73567     92.2 1.108e+04 3.179e-09
 58.74562     92.5 1.109e+04 3.387e-09
 58.75840     93.2 1.109e+04 3.174e-09
 58.77829     94.2 1.110e+04 2.773e-09
 58.79259     94.6 1.113e+04 2.602e-09
 58.80254     94.6 1.122e+04 2.710e-09
 58.82810     96.1 1.109e+04 2.122e-09
 58.85116     98.2 1.093e+04 1.648e-09
 58.87105     98.6 1.107e+04 1.965e-09
 58.90774    100.8 1.100e+04 1.752e-09
 58.94751    103.3 1.104e+04 1.787e-09
 58.98729    105.8 1.127e+04 2.032e-09
 59.02706    107.7 1.150e+04 2.562e-09
 59.05679    108.7 1.157e+04 3.085e-09
 59.07160    110.0 1.171e+04 3.734e-09
 59.08115    110.2 1.177e+04 3.865e-09
 59.08613    110.0 1.187e+04 3.920e-09
 59.09647    111.3 1.201e+04 4.387e-09
 59.11635    112.3 1.211e+04 4.737e-09
 59.13624    113.2 1.219e+04 5.071e-09
 59.15612    114.1 1.230e+04 5.382e-09
 59.17601    114.8 1.240e+04 5.595e-09
 59.18689    115.5 1.247e+04 5.721e-09
 59.19683    115.6 1.251e+04 5.740e-09
 59.21578    116.1 1.257e+04 5.831e-09
 59.23567    116.6 1.262e+04 5.923e-09
 59.25556    117.1 1.272e+04 6.107e-09
 59.27544    117.3 1.293e+04 6.551e-09
 59.29224    117.2 1.319e+04 7.571e-09
 59.30218    117.5 1.318e+04 7.688e-09
 59.31522    117.4 1.341e+04 9.745e-09
 59.33510    117.2 1.356e+04 1.359e-08
 59.35499    117.4 1.369e+04 1.811e-08
 59.36972    117.5 1.364e+04 1.932e-08
 59.37966    117.7 1.391e+04 2.157e-08
 59.39476    117.9 1.380e+04 2.174e-08
 59.40752    118.2 1.351e+04 1.920e-08
 59.41747    118.6 1.367e+04 2.141e-08
 59.43453    119.0 1.340e+04 1.724e-08
 59.45442    119.0 1.318e+04 1.288e-08
 59.47431    118.9 1.298e+04 1.014e-08
 59.49419    119.0 1.287e+04 9.806e-09
 59.51287    119.2 1.285e+04 1.017e-08
 59.52281    119.3 1.304e+04 1.328e-08
 59.53396    119.4 1.310e+04 1.534e-08
 59.55385    119.6 1.341e+04 1.835e-08
 59.57374    119.8 1.364e+04 2.031e-08
 59.59362    119.7 1.370e+04 2.019e-08
 59.61351    119.6 1.377e+04 1.813e-08
 59.62816    119.5 1.381e+04 1.405e-08
 59.63810    118.7 1.404e+04 1.707e-08
 59.65328    118.1 1.398e+04 1.144e-08
 59.67317    117.2 1.398e+04 7.581e-09
 59.69306    117.1 1.390e+04 6.011e-09
 59.71294    117.2 1.384e+04 4.839e-09
 59.73360    118.5 1.374e+04 3.858e-09
 59.75359    115.8 1.421e+04 3.388e-09
 59.78274    117.0 1.416e+04 2.255e-09
 59.82251    118.8 1.391e+04 1.815e-09
 59.86228    121.0 1.357e+04 1.776e-09
 59.90206    123.5 1.354e+04 1.787e-09
 59.94183    126.1 1.354e+04 1.887e-09
 59.96428    128.8 1.351e+04 2.126e-09
 59.98417    127.7 1.373e+04 2.437e-09
 60.02137    130.7 1.365e+04 2.730e-09
 60.06115    133.2 1.372e+04 3.445e-09
 60.10092    135.1 1.386e+04 4.500e-09
 60.14069    136.7 1.405e+04 5.937e-09
 60.17497    138.0 1.425e+04 7.451e-09
 60.19486    136.6 1.465e+04 8.763e-09
 60.22024    137.2 1.467e+04 8.651e-09
 60.24057    137.6 1.461e+04 7.727e-09
 60.26045    138.7 1.494e+04 9.555e-09
 60.29978    139.2 1.473e+04 8.266e-09
 60.33956    139.8 1.452e+04 6.888e-09
 60.37933    140.3 1.457e+04 6.200e-09
 60.40555    140.8 1.463e+04 6.425e-09
 60.42544    139.2 1.483e+04 7.275e-09
 60.45887    139.3 1.488e+04 7.541e-09
 60.49865    139.3 1.490e+04 7.997e-09
 60.53842    139.1 1.493e+04 8.448e-09
 60.57819    139.0 1.494e+04 8.729e-09
 60.61624    139.0 1.492e+04 8.876e-09
 60.63613    137.6 1.468e+04 7.105e-09
 60.65774    137.8 1.458e+04 7.723e-09
 60.69751    138.2 1.443e+04 8.343e-09
 60.73728    138.8 1.431e+04 8.851e-09
 60.77705    139.4 1.431e+04 9.548e-09
 60.80775    140.0 1.449e+04 1.053e-08
 60.82763    138.0 1.436e+04 1.016e-08
 60.84682    138.3 1.444e+04 1.191e-08
 60.86671    134.9 1.422e+04 1.086e-08
 60.89637    134.6 1.420e+04 1.160e-08
 60.93615    133.5 1.416e+04 1.025e-08
 60.97592    131.7 1.404e+04 6.067e-09
 61.01569    129.1 1.384e+04 3.282e-09
 61.05546    126.9 1.351e+04 3.066e-09
 61.07740    125.5 1.338e+04 3.377e-09
 61.09729    124.0 1.287e+04 2.433e-09
 61.13501    122.6 1.275e+04 2.865e-09
 61.17478    120.9 1.266e+04 3.941e-09
 61.21455    118.9 1.255e+04 5.091e-09
 61.25433    116.7 1.249e+04 5.100e-09
 61.28809    114.8 1.217e+04 4.345e-09
 61.30798    114.8 1.199e+04 3.137e-09
 61.33387    113.5 1.169e+04 2.563e-09
 61.37364    112.5 1.150e+04 1.942e-09
 61.39481    112.1 1.135e+04 1.498e-09
 61.41470    112.5 1.134e+04 1.427e-09
 61.45319    112.5 1.124e+04 1.242e-09
 61.49296    112.7 1.115e+04 1.140e-09
 61.51867    113.4 1.105e+04 1.086e-09
 61.53856    113.3 1.109e+04 1.059e-09
 61.57251    114.1 1.094e+04 1.032e-09
 61.61228    115.2 1.090e+04 1.041e-09
 61.65205    116.4 1.083e+04 1.068e-09
 61.69183    117.8 1.078e+04 1.091e-09
 61.72937    119.2 1.070e+04 1.106e-09
 61.74925    119.0 1.067e+04 1.084e-09
 61.77137    120.4 1.063e+04 1.128e-09
 61.81114    121.6 1.060e+04 1.183e-09
 61.85092    122.8 1.058e+04 1.266e-09
 61.89069    123.8 1.058e+04 1.371e-09
 61.93046    124.7 1.055e+04 1.470e-09
 61.95995    125.6 1.050e+04 1.537e-09
 61.97159    124.8 1.046e+04 1.660e-09
 61.98188    125.0 1.046e+04 1.671e-09
 62.01001    125.8 1.045e+04 1.754e-09
 62.04978    126.6 1.046e+04 1.816e-09
 62.08955    127.4 1.049e+04 1.881e-09
 62.12932    128.3 1.053e+04 1.974e-09
 62.16910    129.1 1.055e+04 2.169e-09
 62.19052    130.1 1.055e+04 2.443e-09
 62.21041    128.6 1.055e+04 2.523e-09
 62.24864    129.5 1.050e+04 2.639e-09
 62.28841    130.3 1.044e+04 2.630e-09
 62.32819    131.3 1.031e+04 2.595e-09
 62.36796    132.5 1.026e+04 2.593e-09
 62.40122    133.6 1.025e+04 2.661e-09
 62.42110    131.8 1.020e+04 2.701e-09
 62.44750    132.7 1.021e+04 2.740e-09
 62.48728    133.3 1.020e+04 2.646e-09
 62.52705    133.6 1.014e+04 2.324e-09
 62.54906    133.7 1.009e+04 1.983e-09
 62.56895    134.2 1.042e+04 2.799e-09
 62.60660    134.2 1.045e+04 2.555e-09
 62.63180    133.9 1.051e+04 2.522e-09
 62.65168    132.0 1.037e+04 2.287e-09
 62.67610    131.9 1.043e+04 2.414e-09
 62.69589    131.7 1.049e+04 2.593e-09
 62.71577    131.2 1.066e+04 3.114e-09
 62.73566    130.5 1.095e+04 4.049e-09
 62.74689    129.4 1.132e+04 5.405e-09
 62.75683    128.5 1.142e+04 5.741e-09
 62.77543    127.0 1.179e+04 7.467e-09
 62.79532    125.2 1.204e+04 8.929e-09
 62.81521    122.8 1.227e+04 1.003e-08
 62.83245    118.8 1.276e+04 1.239e-08
 62.84240    118.3 1.296e+04 1.321e-08
 62.85224    112.7 1.388e+04 2.243e-08
 62.86218    112.1 1.400e+04 2.524e-08
 62.87487    107.5 1.442e+04 3.680e-08
 62.89475    103.7 1.432e+04 3.683e-08
 62.91464    101.0 1.371e+04 3.011e-08
 62.93452     98.8 1.269e+04 1.742e-08
 62.95441     96.4 1.188e+04 9.413e-09
 62.96753     94.0 1.117e+04 6.339e-09
 62.97747     93.9 1.106e+04 6.108e-09
 63.00422     90.7 1.047e+04 5.025e-09
 63.04409     89.7 1.036e+04 5.015e-09
 63.07307     89.8 1.036e+04 5.428e-09
 63.09295     89.6 1.005e+04 4.312e-09
 63.11624     90.0 1.014e+04 4.901e-09
 63.13613     90.4 9.784e+03 3.867e-09
 63.16341     91.4 9.961e+03 4.458e-09
 63.20318     92.5 1.005e+04 4.606e-09
 63.24296     93.6 1.007e+04 4.571e-09
 63.28273     95.0 1.015e+04 4.676e-09
 63.30355     95.3 1.012e+04 4.563e-09
 63.32343     94.9 9.834e+03 3.489e-09
 63.35223     95.1 1.005e+04 4.154e-09
 63.37202     95.3 1.024e+04 4.912e-09
 63.39191     95.5 1.051e+04 6.119e-09
 63.40880     95.5 1.083e+04 7.737e-09
 63.41652     94.5 1.043e+04 5.942e-09
 63.41952     94.1 1.026e+04 5.276e-09
 63.43168     93.9 1.049e+04 6.276e-09
 63.45157     93.5 1.072e+04 6.830e-09
 63.47145     92.6 1.080e+04 6.733e-09
 63.49134     91.2 1.084e+04 6.458e-09
 63.51123     88.9 1.098e+04 6.654e-09
 63.52409     85.6 1.151e+04 8.380e-09
 63.53403     85.3 1.121e+04 7.344e-09
 63.55100     82.3 1.194e+04 1.096e-08
 63.57089     76.9 1.374e+04 2.380e-08
 63.59077     67.1 1.706e+04 7.479e-08
 63.60564     61.2 1.834e+04 1.382e-07
 63.61553     56.7 1.906e+04 2.316e-07
 63.62548     50.1 2.002e+04 4.051e-07
 63.63431     44.7 1.962e+04 3.750e-07
 63.63928     44.3 1.948e+04 3.716e-07
 63.65038     40.2 1.785e+04 1.689e-07
 63.67032     31.6 1.651e+04 4.519e-08
 63.69020     18.7 1.305e+04 1.422e-08
 63.70311     12.9 1.009e+04 8.728e-09
 63.71305     14.2 1.024e+04 8.726e-09
 63.72998     13.6 1.027e+04 9.046e-09
 63.74472     12.2 1.029e+04 8.122e-09
 63.76471     13.9 1.078e+04 1.055e-08
 63.79977     12.7 1.046e+04 8.346e-09
 63.83955     10.6 1.007e+04 7.231e-09
 63.87932      9.8 1.049e+04 9.178e-09
 63.91909      9.6 1.097e+04 1.117e-08
 63.95561      9.1 1.104e+04 1.105e-08
 63.97550     10.6 1.073e+04 9.180e-09
 63.99864     10.5 1.050e+04 7.978e-09
 64.03841     10.8 1.023e+04 6.504e-09
 64.07818     11.4 9.998e+03 5.341e-09
 64.11796     12.2 9.636e+03 4.083e-09
 64.15773     13.3 9.409e+03 3.455e-09
 64.18619     15.0 9.311e+03 3.214e-09
 64.20607     15.9 9.513e+03 3.767e-09
 64.23727     17.7 9.390e+03 3.366e-09
 64.27049     19.6 9.118e+03 2.568e-09
 64.29037     19.2 9.506e+03 3.326e-09
 64.31682     21.0 9.286e+03 2.525e-09
 64.35659     22.6 9.070e+03 1.876e-09
 64.39636     23.9 8.916e+03 1.544e-09
 64.41677     25.5 8.938e+03 1.465e-09
 64.43665     26.3 9.035e+03 1.541e-09
 64.47591     27.7 9.129e+03 1.701e-09
 64.51568     29.4 9.235e+03 1.999e-09
 64.55545     31.4 9.394e+03 2.269e-09
 64.59523     33.1 9.675e+03 2.297e-09
 64.62746     34.5 9.861e+03 2.342e-09
 64.64735     35.1 1.001e+04 2.528e-09
 64.67477     36.3 1.014e+04 2.598e-09
 64.71454     37.3 1.023e+04 2.791e-09
 64.75432     38.5 1.021e+04 3.074e-09
 64.79409     40.1 1.004e+04 2.820e-09
 64.83386     41.6 1.001e+04 2.506e-09
 64.85755     43.3 9.973e+03 2.125e-09
 64.86184     42.2 1.001e+04 3.030e-09
 64.87793     42.2 1.027e+04 3.683e-09
 64.91341     44.0 1.010e+04 2.641e-09
 64.95318     45.7 1.004e+04 1.910e-09
 64.99295     47.4 9.985e+03 1.521e-09
 65.03273     49.3 1.007e+04 1.338e-09
 65.06873     51.2 1.016e+04 1.214e-09
 65.08862     51.1 1.021e+04 1.189e-09
 65.11227     53.1 1.027e+04 1.046e-09
 65.15204     55.1 1.031e+04 1.013e-09
 65.19182     57.0 1.041e+04 1.096e-09
 65.23159     58.9 1.050e+04 1.317e-09
 65.27136     61.1 1.063e+04 1.620e-09
 65.29931     63.3 1.079e+04 1.696e-09
 65.31920     63.5 1.075e+04 1.453e-09
 65.35091     66.0 1.085e+04 1.461e-09
 65.39068     68.7 1.095e+04 1.315e-09
 65.42473     71.3 1.112e+04 1.105e-09
 65.44462     70.2 1.123e+04 1.407e-09
 65.47022     72.9 1.127e+04 1.438e-09
 65.51000     75.5 1.137e+04 1.628e-09
 65.54977     78.5 1.162e+04 2.170e-09
 65.58954     81.2 1.173e+04 2.612e-09
 65.62931     83.7 1.189e+04 3.054e-09
 65.66909     86.1 1.220e+04 3.156e-09
 65.70886     88.3 1.228e+04 3.099e-09
 65.74058     90.5 1.244e+04 2.868e-09
 65.76047     90.9 1.249e+04 2.307e-09
 65.78841     93.1 1.256e+04 2.033e-09
 65.82818     95.4 1.256e+04 1.856e-09
 65.86795     97.7 1.254e+04 1.849e-09
 65.90772    100.0 1.249e+04 1.934e-09
 65.94750    102.5 1.244e+04 2.109e-09
 65.97116    104.9 1.243e+04 2.247e-09
 65.99105    105.5 1.230e+04 2.162e-09
 66.01180    108.0 1.235e+04 2.224e-09
 66.03168    107.3 1.228e+04 2.907e-09
 66.06681    109.7 1.236e+04 2.857e-09
 66.10659    112.1 1.242e+04 2.864e-09
 66.14636    114.6 1.255e+04 2.987e-09
 66.18185    116.9 1.271e+04 3.245e-09
 66.20174    117.5 1.253e+04 2.382e-09
 66.22590    119.7 1.270e+04 2.559e-09
 66.26568    121.4 1.288e+04 2.798e-09
 66.29529    122.2 1.283e+04 3.117e-09
 66.30514    121.8 1.309e+04 3.294e-09
 66.30689    122.5 1.311e+04 3.773e-09
 66.31683    122.9 1.306e+04 3.163e-09
 66.33508    123.6 1.302e+04 3.662e-09
 66.35497    124.4 1.294e+04 4.088e-09
 66.37486    125.2 1.277e+04 4.414e-09
 66.39474    126.0 1.270e+04 4.459e-09
 66.41224    126.8 1.263e+04 4.439e-09
 66.42218    127.3 1.266e+04 4.344e-09
 66.43452    128.0 1.264e+04 4.268e-09
 66.45440    128.6 1.266e+04 4.208e-09
 66.47429    129.1 1.269e+04 4.228e-09
 66.49417    129.4 1.277e+04 4.378e-09
 66.51406    129.4 1.288e+04 4.926e-09
 66.52753    129.4 1.293e+04 6.062e-09
 66.53747    129.5 1.300e+04 6.068e-09
 66.55383    129.5 1.305e+04 7.974e-09
 66.57372    129.6 1.307e+04 1.025e-08
 66.58873    129.9 1.314e+04 1.137e-08
 66.59867    129.0 1.328e+04 1.182e-08
 66.61349    129.0 1.328e+04 1.111e-08
 66.63287    128.9 1.322e+04 9.953e-09
 66.64282    128.9 1.342e+04 1.030e-08
 66.66331    128.2 1.319e+04 7.933e-09
 66.70318    128.5 1.288e+04 6.827e-09
 66.74295    129.2 1.276e+04 6.193e-09
 66.77268    129.1 1.274e+04 6.522e-09
 66.79247    129.4 1.270e+04 6.530e-09
 66.81236    129.8 1.268e+04 6.483e-09
 66.83224    130.1 1.268e+04 6.347e-09
 66.85213    130.4 1.270e+04 6.112e-09
 66.86345    130.7 1.264e+04 5.622e-09
 66.87339    130.1 1.257e+04 5.210e-09
 66.88226    130.6 1.246e+04 4.422e-09
 66.89220    130.1 1.238e+04 3.370e-09
 66.91179    130.5 1.229e+04 2.848e-09
 66.94171    131.6 1.213e+04 2.524e-09
 66.98158    132.9 1.204e+04 2.276e-09
 67.02136    134.5 1.204e+04 2.289e-09
 67.06113    135.7 1.205e+04 2.361e-09
 67.08418    136.0 1.202e+04 2.361e-09
 67.09403    136.1 1.204e+04 2.467e-09
 67.11065    136.8 1.196e+04 2.408e-09
 67.13054    137.4 1.195e+04 2.439e-09
 67.15042    137.7 1.194e+04 2.542e-09
 67.16585    138.0 1.190e+04 2.720e-09
 67.17579    136.9 1.187e+04 2.722e-09
 67.18943    137.2 1.184e+04 3.005e-09
 67.19938    137.2 1.190e+04 2.935e-09
 67.21008    137.6 1.187e+04 3.252e-09
 67.22997    137.9 1.185e+04 3.558e-09
 67.24985    138.2 1.185e+04 3.835e-09
 67.26974    138.4 1.188e+04 4.137e-09
 67.28963    138.3 1.190e+04 4.556e-09
 67.30472    138.1 1.194e+04 5.271e-09
 67.31467    138.2 1.196e+04 4.817e-09
 67.32940    137.8 1.203e+04 5.813e-09
 67.34929    137.3 1.215e+04 7.440e-09
 67.36917    136.8 1.232e+04 9.421e-09
 67.38906    136.3 1.245e+04 1.046e-08
 67.40894    135.8 1.243e+04 1.035e-08
 67.42001    135.3 1.228e+04 9.362e-09
 67.42996    135.4 1.239e+04 9.839e-09
 67.44872    135.1 1.214e+04 8.126e-09
 67.45938    134.8 1.188e+04 6.138e-09
 67.46932    134.5 1.205e+04 8.028e-09
 67.48849    134.3 1.179e+04 6.054e-09
 67.50838    134.3 1.157e+04 4.758e-09
 67.52536    134.3 1.129e+04 4.345e-09
 67.53530    134.4 1.144e+04 4.922e-09
 67.54815    134.7 1.138e+04 4.917e-09
 67.56804    135.3 1.139e+04 4.995e-09
 67.58792    136.0 1.148e+04 5.412e-09
 67.60781    136.5 1.171e+04 6.383e-09
 67.62769    136.7 1.206e+04 8.159e-09
 67.64065    136.5 1.253e+04 1.144e-08
 67.65059    135.7 1.290e+04 1.420e-08
 67.66747    135.3 1.358e+04 2.148e-08
 67.68735    134.8 1.432e+04 3.229e-08
 67.70724    134.1 1.499e+04 4.379e-08
 67.72713    133.1 1.529e+04 4.663e-08
 67.74297    131.9 1.520e+04 4.382e-08
 67.75190    131.2 1.508e+04 4.170e-08
 67.75594    130.2 1.421e+04 2.798e-08
 67.76690    129.2 1.396e+04 2.439e-08
 67.78678    128.2 1.372e+04 2.180e-08
 67.80667    127.6 1.357e+04 2.139e-08
 67.82656    127.3 1.355e+04 2.196e-08
 67.84644    127.3 1.347e+04 2.244e-08
 67.86128    127.6 1.338e+04 2.236e-08
 67.87123    127.0 1.270e+04 1.655e-08
 67.88622    127.5 1.246e+04 1.524e-08
 67.90610    128.0 1.221e+04 1.356e-08
 67.92599    128.5 1.202e+04 1.186e-08
 67.94588    128.4 1.193e+04 1.034e-08
 67.96576    128.0 1.205e+04 9.764e-09
 67.97657    127.4 1.222e+04 1.022e-08
 67.98652    126.6 1.212e+04 9.615e-09
 68.00553    126.1 1.269e+04 1.327e-08
 68.02542    125.6 1.337e+04 1.905e-08
 68.03650    124.6 1.425e+04 2.857e-08
 68.04645    124.2 1.482e+04 4.978e-08
 68.06519    123.1 1.563e+04 6.894e-08
 68.08006    121.9 1.632e+04 8.955e-08
 68.08679    120.9 1.683e+04 1.113e-07
 68.09176    121.1 1.693e+04 1.148e-07
 68.09990    119.9 1.762e+04 1.556e-07
 68.10984    118.2 1.839e+04 2.285e-07
 68.11978    116.1 1.897e+04 3.364e-07
 68.12973    113.3 1.925e+04 4.155e-07
 68.13947    110.6 1.921e+04 4.058e-07
 68.14444    110.2 1.928e+04 3.925e-07
 68.14961    108.3 1.924e+04 2.958e-07
 68.15956    106.4 1.943e+04 1.910e-07
 68.16950    104.4 1.965e+04 1.085e-07
 68.17820    102.5 1.921e+04 8.185e-08
 68.18317    102.2 1.937e+04 1.294e-07
 68.18938    100.5 1.900e+04 7.954e-08
 68.19716     96.3 1.672e+04 2.007e-08
 68.20715     96.1 1.608e+04 1.996e-08
 68.22428     92.5 1.205e+04 1.226e-08
 68.24417     92.1 1.131e+04 1.019e-08
 68.26406     92.4 1.112e+04 8.473e-09
 68.28394     92.7 1.101e+04 7.061e-09
 68.30255     92.9 1.087e+04 6.135e-09
 68.31250     93.3 1.075e+04 5.582e-09
 68.32009     93.4 1.054e+04 5.676e-09
 68.33004     92.6 1.127e+04 9.684e-09
 68.34360     93.0 1.116e+04 9.588e-09
 68.36349     93.4 1.109e+04 9.478e-09
 68.38337     93.9 1.105e+04 9.499e-09
 68.40326     94.5 1.104e+04 9.617e-09
 68.41784     95.1 1.105e+04 9.798e-09
 68.42779     95.5 1.122e+04 1.059e-08
 68.44303     96.2 1.126e+04 1.075e-08
 68.46292     96.9 1.131e+04 1.081e-08
 68.48281     97.5 1.132e+04 1.059e-08
 68.50269     98.0 1.132e+04 1.026e-08
 68.52258     98.5 1.126e+04 9.392e-09
 68.53313     98.7 1.123e+04 9.089e-09
 68.54308     99.1 1.145e+04 9.877e-09
 68.57239     99.9 1.114e+04 8.246e-09
 68.61226    100.9 1.086e+04 6.680e-09
 68.63858    101.4 1.068e+04 5.834e-09
 68.64842    101.5 1.084e+04 6.134e-09
 68.66178    102.2 1.058e+04 5.284e-09
 68.68167    103.0 1.046e+04 4.903e-09
 68.70155    104.0 1.045e+04 4.895e-09
 68.72144    104.9 1.047e+04 4.935e-09
 68.74133    105.9 1.055e+04 5.156e-09
 68.75377    106.8 1.068e+04 5.667e-09
 68.76371    106.7 1.067e+04 5.502e-09
 68.78110    107.5 1.084e+04 6.195e-09
 68.80099    108.4 1.105e+04 7.224e-09
 68.82087    109.3 1.134e+04 8.698e-09
 68.84076    110.0 1.166e+04 1.050e-08
 68.85912    110.8 1.196e+04 1.233e-08
 68.86906    110.7 1.193e+04 1.201e-08
 68.88053    111.4 1.219e+04 1.360e-08
 68.89722    112.1 1.239e+04 1.491e-08
 68.90716    111.5 1.219e+04 1.397e-08
 68.92030    112.3 1.215e+04 1.349e-08
 68.94019    113.1 1.207e+04 1.245e-08
 68.96008    113.9 1.197e+04 1.132e-08
 68.97441    114.6 1.190e+04 1.049e-08
 68.98435    114.5 1.191e+04 1.019e-08
 68.99985    115.4 1.191e+04 1.000e-08
 69.01974    116.3 1.193e+04 1.003e-08
 69.03962    117.2 1.200e+04 1.023e-08
 69.05951    118.2 1.212e+04 1.076e-08
 69.07939    119.1 1.226e+04 1.155e-08
 69.08969    120.0 1.241e+04 1.242e-08
 69.09964    119.7 1.240e+04 1.192e-08
 69.11917    120.6 1.257e+04 1.304e-08
 69.13905    121.5 1.276e+04 1.425e-08
 69.15894    122.4 1.297e+04 1.560e-08
 69.17883    123.4 1.316e+04 1.683e-08
 69.19075    124.3 1.335e+04 1.775e-08
 69.19702    124.6 1.319e+04 1.676e-08
 69.20498    124.2 1.336e+04 1.766e-08
 69.21860    125.1 1.376e+04 2.102e-08
 69.23849    126.0 1.418e+04 2.521e-08
 69.25837    126.9 1.459e+04 3.013e-08
 69.27826    127.8 1.494e+04 3.466e-08
 69.29814    128.6 1.516e+04 3.706e-08
 69.31033    129.4 1.522e+04 3.685e-08
 69.32027    128.4 1.556e+04 3.949e-08
 69.33792    129.1 1.533e+04 3.401e-08
 69.35780    130.0 1.504e+04 2.797e-08
 69.37769    130.8 1.472e+04 2.219e-08
 69.39758    131.5 1.436e+04 1.719e-08
 69.41568    132.2 1.398e+04 1.347e-08
 69.42562    130.8 1.388e+04 1.351e-08
 69.43735    131.3 1.367e+04 1.282e-08
 69.45723    131.7 1.367e+04 1.338e-08
 69.47434    131.9 1.382e+04 1.579e-08
 69.48428    131.6 1.530e+04 3.380e-08
 69.49701    131.4 1.530e+04 3.840e-08
 69.51689    131.3 1.527e+04 4.339e-08
 69.53097    131.4 1.511e+04 4.312e-08
 69.54091    130.8 1.493e+04 4.153e-08
 69.55667    131.3 1.457e+04 3.375e-08
 69.57655    131.9 1.414e+04 2.371e-08
 69.59644    132.4 1.368e+04 1.488e-08
 69.61633    132.9 1.316e+04 9.388e-09
 69.63621    133.3 1.265e+04 6.695e-09
 69.64626    133.8 1.236e+04 5.447e-09
 69.65620    133.1 1.192e+04 4.675e-09
 69.68603    135.0 1.190e+04 4.491e-09
 69.72590    137.6 1.175e+04 5.073e-09
 69.75180    140.4 1.168e+04 5.614e-09
 69.77168    140.2 1.140e+04 5.050e-09
 69.80544    143.1 1.140e+04 5.450e-09
 69.84521    146.1 1.143e+04 6.152e-09
 69.88499    149.7 1.170e+04 7.296e-09
 69.91472    151.4 1.184e+04 7.855e-09
 69.93451    152.9 1.200e+04 8.561e-09
 69.95439    154.1 1.217e+04 9.412e-09
 69.97224    155.3 1.231e+04 1.036e-08
 69.98218    155.3 1.216e+04 9.728e-09
 69.99417    156.4 1.233e+04 1.093e-08
 70.01405    157.4 1.255e+04 1.277e-08
 70.03394    158.4 1.286e+04 1.569e-08
 70.05146    159.3 1.331e+04 2.027e-08
 70.06141    159.5 1.344e+04 2.275e-08
 70.07371    160.1 1.409e+04 3.125e-08
 70.08753    160.3 1.474e+04 4.212e-08
 70.09747    159.2 1.441e+04 3.491e-08
 70.11348    159.0 1.488e+04 4.318e-08
 70.13337    158.7 1.526e+04 4.967e-08
 70.15326    157.8 1.538e+04 5.057e-08
 70.17314    156.6 1.532e+04 4.926e-08
 70.19287    155.4 1.499e+04 4.385e-08
 70.20282    154.1 1.406e+04 3.102e-08
 70.21291    152.9 1.360e+04 2.656e-08
 70.23280    151.4 1.321e+04 2.346e-08
 70.25269    149.7 1.293e+04 2.190e-08
 70.27257    148.0 1.265e+04 2.076e-08
 70.29246    146.9 1.224e+04 1.883e-08
 70.30816    146.6 1.170e+04 1.577e-08
 70.31811    146.3 1.161e+04 1.498e-08
 70.33223    146.2 1.102e+04 1.143e-08
 70.34500    146.1 1.041e+04 8.159e-09
 70.35494    144.9 1.028e+04 7.190e-09
 70.37201    144.6 9.604e+03 4.644e-09
 70.39189    144.4 9.076e+03 3.291e-09
 70.41178    144.3 8.658e+03 2.782e-09
 70.42345    144.7 8.447e+03 2.662e-09
 70.43340    144.6 8.449e+03 2.702e-09
 70.45155    145.5 8.420e+03 2.704e-09
 70.47144    146.4 8.419e+03 2.732e-09
 70.49132    147.4 8.424e+03 2.801e-09
 70.51121    148.3 8.424e+03 2.888e-09
 70.52880    149.0 8.480e+03 2.976e-09
 70.53874    148.4 8.638e+03 3.583e-09
 70.55098    148.3 8.963e+03 4.638e-09
 70.57087    147.8 1.011e+04 7.063e-09
 70.59075    146.8 1.172e+04 1.291e-08
 70.61064    145.9 1.331e+04 2.414e-08
 70.62859    145.2 1.449e+04 4.052e-08
 70.63853    142.7 1.583e+04 6.074e-08
 70.64409    141.8 1.596e+04 6.011e-08
 70.65403    141.6 1.512e+04 4.316e-08
 70.67030    140.0 1.509e+04 3.177e-08
 70.69019    137.6 1.459e+04 1.909e-08
 70.71007    134.2 1.351e+04 1.014e-08
 70.72996    130.7 1.190e+04 5.986e-09
 70.74943    128.2 1.086e+04 4.759e-09
 70.75938    128.3 1.046e+04 4.463e-09
 70.76973    128.2 1.051e+04 4.549e-09
 70.78962    128.2 1.080e+04 4.792e-09
 70.80950    128.1 1.125e+04 5.658e-09
 70.82939    128.0 1.170e+04 7.211e-09
 70.84928    127.9 1.212e+04 9.393e-09
 70.86472    127.8 1.250e+04 1.205e-08
 70.87467    128.4 1.254e+04 1.285e-08
 70.88905    128.1 1.301e+04 1.577e-08
 70.90894    127.4 1.372e+04 2.033e-08
 70.92212    125.9 1.500e+04 3.042e-08
 70.93206    122.8 1.561e+04 4.005e-08
 70.94871    120.8 1.669e+04 6.483e-08
 70.96859    119.1 1.756e+04 9.605e-08
 70.97996    118.8 1.803e+04 1.217e-07
 70.98991    117.6 1.834e+04 1.345e-07
 71.00335    116.2 1.886e+04 1.869e-07
 71.01324    114.3 1.925e+04 2.432e-07
 71.02318    111.8 1.957e+04 2.871e-07
 71.03259    108.6 1.977e+04 3.038e-07
 71.03756    109.7 1.976e+04 3.007e-07
 71.04307    106.1 1.980e+04 3.209e-07
 71.05301    102.4 1.978e+04 3.042e-07
 71.06296     98.7 1.966e+04 2.615e-07
 71.06879     95.3 1.942e+04 2.081e-07
 71.07376     94.1 1.894e+04 1.523e-07
 71.08284     91.2 1.834e+04 1.154e-07
 71.09023     88.6 1.757e+04 8.512e-08
 71.09520     89.6 1.853e+04 1.280e-07
 71.10273     87.1 1.775e+04 9.112e-08
 71.11267     84.8 1.679e+04 6.523e-08
 71.12262     82.7 1.572e+04 4.758e-08
 71.13256     81.0 1.474e+04 3.777e-08
 71.14250     79.9 1.435e+04 3.441e-08
 71.14788     79.8 1.431e+04 3.351e-08
 71.15285     80.1 1.465e+04 3.770e-08
 71.16239     79.4 1.416e+04 3.098e-08
 71.17233     79.1 1.389e+04 2.862e-08
 71.18730     78.2 1.348e+04 2.441e-08
 71.20065     76.6 1.292e+04 2.199e-08
 71.20907     77.5 1.383e+04 2.701e-08
 71.21565     76.4 1.263e+04 2.146e-08
 71.22712     74.9 1.281e+04 2.308e-08
 71.24700     73.3 1.332e+04 2.882e-08
 71.26689     71.8 1.380e+04 3.585e-08
 71.28678     70.3 1.382e+04 3.647e-08
 71.30599     69.0 1.353e+04 3.319e-08
 71.31594     69.3 1.361e+04 3.328e-08
 71.32655     68.3 1.271e+04 2.259e-08
 71.34643     66.7 1.150e+04 1.181e-08
 71.36632     63.5 1.005e+04 5.849e-09
 71.38621     60.3 9.240e+03 4.604e-09
 71.40609     58.4 9.194e+03 4.619e-09
 71.42128     57.2 9.330e+03 5.149e-09
 71.43123     57.8 9.288e+03 5.040e-09
 71.44587     57.0 9.597e+03 6.073e-09
 71.46575     56.4 9.905e+03 7.480e-09
 71.48564     56.0 1.010e+04 8.378e-09
 71.49924     55.6 1.011e+04 8.403e-09
 71.50919     55.7 1.011e+04 8.515e-09
 71.52541     55.4 9.973e+03 7.846e-09
 71.53657     54.9 9.888e+03 7.117e-09
 71.54652     56.0 9.873e+03 7.203e-09
 71.56518     55.3 9.935e+03 6.949e-09
 71.58507     54.0 1.017e+04 7.373e-09
 71.60496     52.7 1.069e+04 9.075e-09
 71.62484     51.9 1.109e+04 1.187e-08
 71.64192     52.0 1.124e+04 1.394e-08
 71.65186     53.2 1.094e+04 1.142e-08
 71.66462     53.5 1.102e+04 1.268e-08
 71.68450     54.0 1.093e+04 1.229e-08
 71.70439     54.7 1.070e+04 1.100e-08
 71.72427     55.5 1.042e+04 8.647e-09
 71.74416     56.1 1.010e+04 6.525e-09
 71.75721     56.8 9.829e+03 5.107e-09
 71.76715     58.1 9.940e+03 5.716e-09
 71.78283     58.7 9.675e+03 4.501e-09
 71.79278     58.4 9.765e+03 4.620e-09
 71.80382     59.0 9.598e+03 4.083e-09
 71.82371     59.8 9.587e+03 4.001e-09
 71.84359     60.5 9.605e+03 4.037e-09
 71.87352     62.1 9.677e+03 4.307e-09
 71.91339     63.8 9.653e+03 4.350e-09
 71.95316     65.6 9.560e+03 4.192e-09
 71.97804     67.5 9.400e+03 3.912e-09
 71.98789     67.9 9.428e+03 4.099e-09
 72.00268     68.4 9.376e+03 3.995e-09
 72.02257     69.7 9.282e+03 3.828e-09
 72.04246     70.2 9.244e+03 3.751e-09
 72.06234     71.1 9.145e+03 3.628e-09
 72.07637     72.2 9.053e+03 3.595e-09
 72.08631     72.4 9.221e+03 3.932e-09
 72.09313     73.4 9.197e+03 3.907e-09
 72.10308     74.0 9.221e+03 4.030e-09
 72.12200     75.0 9.221e+03 3.993e-09
 72.14189     75.9 9.244e+03 4.033e-09
 72.16177     76.8 9.264e+03 4.261e-09
 72.18166     77.6 9.340e+03 4.649e-09
 72.19848     78.6 9.462e+03 5.115e-09
 72.20842     79.1 9.529e+03 5.333e-09
 72.22143     80.0 9.674e+03 5.897e-09
 72.24132     81.0 9.812e+03 6.422e-09
 72.26120     82.0 9.946e+03 6.903e-09
 72.28109     83.0 1.007e+04 7.370e-09
 72.30098     83.9 1.017e+04 7.781e-09
 72.31377     84.8 1.027e+04 8.191e-09
 72.32371     85.6 1.023e+04 8.058e-09
 72.34075     86.5 1.026e+04 8.187e-09
 72.35996     87.3 1.034e+04 8.432e-09
 72.36990     86.5 1.059e+04 9.093e-09
 72.38052     86.8 1.071e+04 9.329e-09
 72.40041     86.6 1.120e+04 1.075e-08
 72.41912     85.6 1.234e+04 1.571e-08
 72.42906     87.4 1.150e+04 1.179e-08
 72.44018     86.2 1.289e+04 1.868e-08
 72.46007     84.7 1.444e+04 3.397e-08
 72.47995     83.2 1.543e+04 5.478e-08
 72.49482     83.4 1.551e+04 5.780e-08
 72.50471     82.9 1.572e+04 6.335e-08
 72.51160     82.4 1.576e+04 6.479e-08
 72.51657     81.8 1.569e+04 6.461e-08
 72.52460     81.4 1.541e+04 6.017e-08
 72.53431     81.2 1.478e+04 4.821e-08
 72.53928     81.9 1.502e+04 5.277e-08
 72.54449     81.6 1.468e+04 4.736e-08
 72.55945     82.3 1.450e+04 4.210e-08
 72.57939     82.3 1.388e+04 2.923e-08
 72.59927     81.5 1.311e+04 1.888e-08
 72.61916     80.2 1.239e+04 1.447e-08
 72.63904     79.3 1.233e+04 1.481e-08
 72.64970     78.5 1.255e+04 1.746e-08
 72.65420     79.4 1.289e+04 1.936e-08
 72.66343     79.3 1.225e+04 1.587e-08
 72.67882     78.6 1.297e+04 2.254e-08
 72.69870     78.4 1.389e+04 3.411e-08
 72.71859     78.3 1.459e+04 4.385e-08
 72.73848     77.9 1.463e+04 4.364e-08
 72.75504     77.7 1.433e+04 3.871e-08
 72.76498     77.8 1.436e+04 3.887e-08
 72.77825     77.6 1.365e+04 2.806e-08
 72.79814     77.2 1.267e+04 1.746e-08
 72.81802     76.5 1.167e+04 1.094e-08
 72.83791     75.9 1.097e+04 8.017e-09
 72.85779     75.9 1.060e+04 6.639e-09
 72.87033     76.1 1.034e+04 5.924e-09
 72.88027     76.2 1.029e+04 5.813e-09
 72.89757     76.9 1.011e+04 5.507e-09
 72.91745     77.7 9.982e+03 5.414e-09
 72.93708     78.6 9.935e+03 5.417e-09
 72.94702     79.3 9.939e+03 5.345e-09
 72.95723     80.2 9.915e+03 5.417e-09
 72.97568     81.2 9.880e+03 5.597e-09
 72.98562     81.1 9.871e+03 5.546e-09
 72.99700     82.1 9.874e+03 5.769e-09
 73.01688     83.0 9.915e+03 6.056e-09
 73.03677     84.0 9.969e+03 6.392e-09
 73.05666     85.0 1.003e+04 6.728e-09
 73.07654     86.0 1.010e+04 7.004e-09
 73.09097     86.9 1.014e+04 7.196e-09
 73.10091     86.6 1.011e+04 7.092e-09
 73.11632     87.5 1.014e+04 7.241e-09
 73.13620     88.3 1.013e+04 7.212e-09
 73.15609     89.2 1.007e+04 7.006e-09
 73.17598     90.2 9.941e+03 6.560e-09
 73.19586     91.2 9.770e+03 5.980e-09
 73.20626     92.3 9.588e+03 5.374e-09
 73.21620     92.0 9.597e+03 5.521e-09
 73.23061     93.1 9.415e+03 4.957e-09
 73.24055     93.7 9.693e+03 5.857e-09
 73.25552     94.8 9.531e+03 5.263e-09
 73.27541     95.9 9.422e+03 4.850e-09
 73.29529     97.0 9.347e+03 4.784e-09
 73.31160     98.1 9.333e+03 4.787e-09
 73.32155     97.8 9.391e+03 5.187e-09
 73.33507     99.0 9.379e+03 5.225e-09
 73.35495    100.1 9.381e+03 5.372e-09
 73.37484    101.3 9.396e+03 5.528e-09
 73.39472    102.6 9.396e+03 5.571e-09
 73.41461    103.9 9.377e+03 5.507e-09
 73.42689    105.1 9.336e+03 5.309e-09
 73.43684    104.9 9.305e+03 5.326e-09
 73.45438    106.1 9.234e+03 5.012e-09
 73.47427    107.3 9.152e+03 4.681e-09
 73.49416    108.5 9.048e+03 4.386e-09
 73.51404    109.8 8.959e+03 4.167e-09
 73.52414    111.1 8.898e+03 4.051e-09
 73.53240    111.7 9.225e+03 4.753e-09
 73.54218    111.3 9.253e+03 4.944e-09
 73.55382    112.6 9.203e+03 4.846e-09
 73.57370    114.0 9.167e+03 4.793e-09
 73.59359    115.5 9.170e+03 4.811e-09
 73.61347    117.0 9.212e+03 4.907e-09
 73.63336    118.3 9.285e+03 5.085e-09
 73.64753    119.7 9.377e+03 5.346e-09
 73.65747    119.5 9.472e+03 5.691e-09
 73.67313    120.9 9.624e+03 6.132e-09
 73.69302    122.3 9.841e+03 6.816e-09
 73.71291    123.6 1.009e+04 7.727e-09
 73.73279    125.0 1.037e+04 8.909e-09
 73.75268    126.4 1.073e+04 1.048e-08
 73.76282    127.7 1.113e+04 1.247e-08
 73.77276    127.3 1.122e+04 1.299e-08
 73.79245    128.5 1.160e+04 1.519e-08
 73.80773    129.8 1.194e+04 1.723e-08
 73.81768    130.3 1.206e+04 1.779e-08
 73.83222    131.5 1.233e+04 1.952e-08
 73.85211    132.5 1.250e+04 2.055e-08
 73.86816    133.5 1.253e+04 2.051e-08
 73.87811    133.0 1.250e+04 2.044e-08
 73.89188    134.0 1.240e+04 1.927e-08
 73.91177    135.0 1.219e+04 1.709e-08
 73.93166    135.9 1.192e+04 1.444e-08
 73.95154    136.7 1.164e+04 1.188e-08
 73.97143    137.3 1.137e+04 9.896e-09
 73.98345    138.0 1.112e+04 8.721e-09
 73.99340    137.4 1.113e+04 8.826e-09
 74.01120    138.1 1.096e+04 8.426e-09
 74.03109    139.2 1.093e+04 8.437e-09
 74.05097    140.4 1.098e+04 8.728e-09
 74.07086    141.5 1.112e+04 9.295e-09
 74.08880    142.7 1.130e+04 9.996e-09
 74.09874    142.1 1.168e+04 1.216e-08
 74.10127    143.2 1.193e+04 1.330e-08
 74.11121    143.4 1.243e+04 1.580e-08
 74.13052    144.3 1.261e+04 1.658e-08
 74.15040    145.2 1.275e+04 1.739e-08
 74.17029    145.9 1.286e+04 1.842e-08
 74.19018    146.7 1.297e+04 1.995e-08
 74.20409    147.5 1.318e+04 2.222e-08
 74.21403    146.7 1.349e+04 2.575e-08
 74.22995    147.5 1.368e+04 2.726e-08
 74.24984    148.3 1.387e+04 2.867e-08
 74.26972    148.8 1.405e+04 2.988e-08
 74.28961    149.0 1.406e+04 2.938e-08
 74.30943    149.2 1.388e+04 2.693e-08
 74.32932    149.0 1.276e+04 1.797e-08
 74.34927    149.7 1.219e+04 1.425e-08
 74.36915    150.1 1.168e+04 1.107e-08
 74.38486    150.2 1.109e+04 8.153e-09
 74.39480    150.7 1.136e+04 9.593e-09
 74.40893    150.7 1.086e+04 7.178e-09
 74.42472    151.2 1.018e+04 5.504e-09
 74.43477    150.8 1.018e+04 5.611e-09
 74.44880    151.8 9.662e+03 4.591e-09
 74.46859    153.3 9.253e+03 3.880e-09
 74.48847    155.1 9.006e+03 3.429e-09
 74.50836    157.1 8.876e+03 3.133e-09
 74.52824    158.9 8.837e+03 2.938e-09
 74.54001    159.9 8.868e+03 2.911e-09
 74.54996    160.3 8.817e+03 2.883e-09
 74.57806    162.1 8.890e+03 2.892e-09
 74.61793    164.9 8.884e+03 2.837e-09
 74.64546    166.8 8.838e+03 2.759e-09
 74.65530    166.9 8.747e+03 2.764e-09
 74.66745    167.9 8.734e+03 2.755e-09
 74.67839    169.8 8.689e+03 2.753e-09
 74.68833    169.3 8.669e+03 2.637e-09
 74.70722    171.5 8.632e+03 2.663e-09
 74.72711    173.6 8.654e+03 2.815e-09
 74.74699    175.3 8.789e+03 3.061e-09
 74.76065    176.7 8.989e+03 3.396e-09
 74.77059    176.9 8.959e+03 3.407e-09
 74.78677    178.4 9.169e+03 3.854e-09
 74.80665    179.8 9.442e+03 4.419e-09
 74.82654    181.2 9.769e+03 5.174e-09
 74.84643    182.6 1.009e+04 6.067e-09
 74.86600    183.9 1.036e+04 6.971e-09
 74.87594    184.4 1.019e+04 6.415e-09
 74.88620    185.8 1.042e+04 7.125e-09
 74.90608    187.2 1.062e+04 7.772e-09
 74.92597    188.6 1.077e+04 8.299e-09
 74.94586    190.2 1.089e+04 8.695e-09
 74.96198    191.8 1.099e+04 9.008e-09
 74.97192    190.9 1.103e+04 9.222e-09
 74.98129    192.6 1.115e+04 9.548e-09
 74.99123    193.4 1.115e+04 9.592e-09
 75.00552    195.2 1.128e+04 9.901e-09
 75.02540    197.1 1.142e+04 1.026e-08
 75.04529    198.9 1.163e+04 1.081e-08
 75.06517    200.8 1.188e+04 1.160e-08
 75.08506    202.7 1.214e+04 1.265e-08
 75.09657    204.4 1.263e+04 1.445e-08
 75.10652    205.7 1.246e+04 1.317e-08
 75.12483    207.4 1.392e+04 1.780e-08
 75.14472    208.7 1.534e+04 2.556e-08
 75.15959    208.7 1.596e+04 2.949e-08
 75.16948    208.9 1.649e+04 3.263e-08
 75.17942    209.1 1.723e+04 3.960e-08
 75.18937    209.3 1.806e+04 5.272e-08
 75.19931    209.8 1.871e+04 7.362e-08
 75.20679    210.5 1.918e+04 1.026e-07
 75.21177    210.8 1.925e+04 1.023e-07
 75.21920    211.6 1.967e+04 1.393e-07
 75.22914    212.3 2.002e+04 1.818e-07
 75.23908    212.8 2.030e+04 2.232e-07
 75.24903    213.1 2.059e+04 2.523e-07
 75.25542    213.0 2.100e+04 2.558e-07
 75.26039    211.0 2.055e+04 2.566e-07
 75.26444    211.0 2.042e+04 2.440e-07
 75.26941    210.9 2.050e+04 2.484e-07
 75.27886    211.0 2.029e+04 2.190e-07
 75.28880    211.4 2.007e+04 1.851e-07
 75.29874    211.9 1.990e+04 1.558e-07
 75.30868    212.2 1.977e+04 1.320e-07
 75.31711    212.5 1.966e+04 1.114e-07
 75.32208    211.8 1.966e+04 1.070e-07
 75.32857    211.7 1.952e+04 8.994e-08
 75.33851    211.5 1.936e+04 7.713e-08
 75.34846    211.3 1.919e+04 6.800e-08
 75.35840    211.2 1.900e+04 6.147e-08
 75.36834    211.4 1.879e+04 5.670e-08
 75.37476    211.8 1.859e+04 5.300e-08
 75.37973    210.6 1.861e+04 5.832e-08
 75.38823    211.2 1.849e+04 5.514e-08
 75.39721    212.0 1.837e+04 5.166e-08
 75.40218    210.3 1.715e+04 3.407e-08
 75.40812    211.0 1.721e+04 3.282e-08
 75.41806    211.6 1.731e+04 3.182e-08
 75.42743    212.1 1.746e+04 3.096e-08
 75.43240    210.0 1.755e+04 3.218e-08
 75.43795    209.9 1.778e+04 3.151e-08
 75.44789    209.5 1.810e+04 3.128e-08
 75.45783    208.8 1.848e+04 3.156e-08
 75.46778    207.9 1.881e+04 3.236e-08
 75.47772    206.5 1.913e+04 3.392e-08
 75.48508    204.5 1.961e+04 3.657e-08
 75.49005    198.5 1.956e+04 3.729e-08
 75.49760    195.8 1.982e+04 4.137e-08
 75.50755    191.8 2.133e+04 5.295e-08
 75.51749    174.8 2.873e+04 1.601e-07
 75.52743    138.2 2.743e+04 1.539e-06
 75.53738    101.2 3.275e+04 1.523e-06
 75.54272     68.4 4.539e+04 2.689e-07
 75.54435     48.4 5.336e+04 5.737e-08
 75.54895     63.8 4.861e+04 1.596e-07
 75.55726     37.8 4.054e+04 5.813e-08
 75.56721     22.8 2.145e+04 4.988e-08
 75.58217     12.2 2.280e+04 2.508e-08
 75.60211     -4.9 2.744e+04 6.958e-09
 75.62199    -15.0 1.570e+05 3.905e-10
 75.64188    -34.7 4.354e+04 5.355e-09
 75.65314    -48.8 6.847e+04 3.999e-09
 75.66308    -33.5 3.977e+04 7.436e-09
 75.68165    -44.6 6.810e+04 4.831e-09
 75.69652    -53.3 6.413e+04 8.304e-09
 75.70571    -53.3 5.913e+04 8.309e-09
 75.71068    -52.6 6.177e+04 8.307e-09
 75.71635    -45.0 5.649e+04 8.658e-09
 75.72630    -40.6 3.626e+04 1.474e-08
 75.73624    -39.9 3.149e+04 1.776e-08
 75.74618    -54.4 6.493e+04 1.003e-08
 75.75613    -63.0 3.636e+04 4.240e-07
 75.76336    -68.7 2.046e+04 7.644e-06
 75.76833    -63.8 3.739e+04 3.802e-07
 75.77601    -68.0 2.101e+04 6.616e-06
 75.78596    -72.2 1.972e+04 9.316e-06
 75.79590    -77.7 2.037e+04 8.090e-06
 75.80584    -84.1 2.151e+04 4.320e-06
 75.81579    -91.1 2.260e+04 1.245e-06
 75.82100    -97.3 2.215e+04 2.997e-07
 75.82597    -88.5 2.289e+04 1.894e-06
 75.83254    -95.4 2.328e+04 5.683e-07
 75.83751   -104.5 2.236e+04 1.265e-07
 75.84562   -106.7 2.166e+04 1.107e-07
 75.85556   -108.2 2.152e+04 1.080e-07
 75.86550   -109.3 2.168e+04 1.175e-07
 75.87367   -110.0 2.193e+04 1.417e-07
 75.87864   -111.2 2.198e+04 2.105e-07
 75.88539   -112.4 2.180e+04 2.350e-07
 75.89533   -113.7 2.205e+04 2.733e-07
 75.90527   -115.0 2.223e+04 3.021e-07
 75.91522   -115.9 2.240e+04 2.958e-07
 75.92516   -116.4 2.260e+04 2.492e-07
 75.93132   -116.3 2.267e+04 1.949e-07
 75.93629   -118.1 2.296e+04 1.583e-07
 75.94505   -117.7 2.273e+04 1.275e-07
 75.95499   -117.1 2.242e+04 1.065e-07
 75.96493   -116.4 2.210e+04 9.156e-08
 75.97433   -115.6 2.175e+04 7.991e-08
 75.97931   -117.1 2.133e+04 1.008e-07
 75.98399   -116.1 2.091e+04 8.542e-08
 75.98896   -116.7 2.100e+04 8.714e-08
 75.99476   -115.5 2.056e+04 7.597e-08
 76.00471   -114.2 2.015e+04 6.758e-08
 76.01465   -113.1 1.976e+04 6.138e-08
 76.02459   -112.1 1.943e+04 5.677e-08
 76.03453   -111.1 1.928e+04 5.313e-08
 76.04164   -109.9 1.923e+04 5.197e-08
 76.04661   -109.5 1.932e+04 5.497e-08
 76.05944   -108.2 1.871e+04 5.019e-08
 76.07938   -105.7 1.784e+04 4.579e-08
 76.09441   -103.5 1.753e+04 4.322e-08
 76.10435   -103.7 1.777e+04 4.190e-08
 76.11623   -101.7 1.736e+04 3.977e-08
 76.12617   -102.0 1.789e+04 4.926e-08
 76.13904   -100.1 1.749e+04 4.738e-08
 76.15892    -98.5 1.732e+04 4.714e-08
 76.17881    -96.9 1.723e+04 4.794e-08
 76.19869    -95.5 1.735e+04 5.018e-08
 76.20970    -94.3 1.749e+04 5.148e-08
 76.21964    -94.3 1.728e+04 4.725e-08
 76.23847    -93.2 1.734e+04 4.720e-08
 76.25835    -92.3 1.733e+04 4.588e-08
 76.27824    -91.5 1.720e+04 4.340e-08
 76.29813    -90.9 1.704e+04 4.097e-08
 76.31504    -90.5 1.687e+04 3.925e-08
 76.32499    -90.2 1.684e+04 3.667e-08
 76.33790    -89.8 1.682e+04 3.662e-08
 76.35779    -89.5 1.693e+04 3.731e-08
 76.37767    -89.5 1.727e+04 4.009e-08
 76.39756    -89.7 1.787e+04 4.720e-08
 76.40976    -89.9 1.845e+04 5.896e-08
 76.41970    -91.4 1.856e+04 7.073e-08
 76.43033    -91.7 1.885e+04 8.322e-08
 76.44028    -90.9 1.929e+04 8.825e-08
 76.45722    -91.5 1.937e+04 9.289e-08
 76.47710    -92.1 1.907e+04 8.903e-08
 76.49699    -92.3 1.853e+04 7.510e-08
 76.51688    -92.6 1.797e+04 6.153e-08
 76.53568    -93.0 1.746e+04 5.261e-08
 76.54562    -91.7 1.748e+04 5.170e-08
 76.55665    -92.0 1.709e+04 4.733e-08
 76.57653    -92.5 1.692e+04 4.622e-08
 76.59642    -93.2 1.690e+04 4.728e-08
 76.61631    -94.2 1.710e+04 5.398e-08
 76.63619    -95.1 1.717e+04 6.060e-08
 76.65097    -95.8 1.711e+04 6.237e-08
 76.66091    -93.1 1.727e+04 6.749e-08
 76.67597    -93.7 1.711e+04 6.734e-08
 76.69335    -94.4 1.651e+04 5.417e-08
 76.70329    -95.9 1.561e+04 3.729e-08
 76.71574    -96.1 1.503e+04 2.897e-08
 76.73563    -96.5 1.437e+04 2.296e-08
 76.75551    -97.8 1.356e+04 1.975e-08
 76.76626    -98.6 1.313e+04 1.869e-08
 76.77620    -95.7 1.420e+04 2.346e-08
 76.79528    -96.7 1.432e+04 2.602e-08
 76.81517    -97.2 1.552e+04 3.958e-08
 76.83506    -97.5 1.654e+04 5.779e-08
 76.85494    -98.1 1.701e+04 6.865e-08
 76.86981    -98.4 1.697e+04 6.595e-08
 76.87648    -98.5 1.698e+04 6.575e-08
 76.88145    -97.3 1.749e+04 8.112e-08
 76.88965    -98.0 1.736e+04 7.770e-08
 76.89959    -98.6 1.716e+04 7.101e-08
 76.90953    -99.4 1.692e+04 6.372e-08
 76.91948   -100.2 1.677e+04 5.766e-08
 76.92915   -101.0 1.663e+04 5.272e-08
 76.93412   -100.1 1.719e+04 6.490e-08
 76.93936   -101.2 1.712e+04 6.055e-08
 76.94931   -102.2 1.710e+04 5.704e-08
 76.95925   -103.3 1.705e+04 5.521e-08
 76.96919   -104.4 1.703e+04 5.465e-08
 76.97913   -105.4 1.705e+04 5.446e-08
 76.98679   -106.5 1.713e+04 5.432e-08
 76.99176   -105.7 1.754e+04 6.572e-08
 76.99902   -106.7 1.745e+04 6.519e-08
 77.00896   -107.6 1.730e+04 6.308e-08
 77.01891   -108.6 1.720e+04 6.085e-08
 77.02885   -109.5 1.713e+04 5.910e-08
 77.03879   -110.4 1.709e+04 5.775e-08
 77.04444   -111.3 1.707e+04 5.659e-08
 77.04941   -111.1 1.744e+04 6.367e-08
 77.05868   -112.0 1.730e+04 6.008e-08
 77.06862   -112.7 1.707e+04 5.556e-08
 77.07857   -113.2 1.683e+04 5.077e-08
 77.08851   -113.4 1.665e+04 4.634e-08
 77.09711   -113.6 1.659e+04 4.252e-08
 77.10208   -113.8 1.665e+04 4.379e-08
 77.10840   -113.9 1.667e+04 4.038e-08
 77.11834   -114.0 1.682e+04 3.743e-08
 77.13330   -114.4 1.705e+04 3.490e-08
 77.15324   -115.2 1.701e+04 2.895e-08
 77.17312   -115.9 1.663e+04 2.330e-08
 77.18799   -116.2 1.602e+04 2.157e-08
 77.19788   -115.9 1.594e+04 2.135e-08
 77.20743   -114.4 1.572e+04 2.048e-08
 77.21240   -116.1 1.565e+04 2.358e-08
 77.21777   -114.9 1.552e+04 2.356e-08
 77.22771   -113.2 1.534e+04 2.366e-08
 77.23766   -112.4 1.587e+04 2.402e-08
 77.24760   -114.1 1.898e+04 3.049e-08
 77.25754   -119.5 2.969e+04 6.319e-08
 77.26508   -126.3 3.299e+04 1.705e-07
 77.27005   -134.9 2.589e+04 3.324e-07
 77.27535   -145.2 2.613e+04 6.222e-07
 77.28032   -139.8 2.332e+04 4.057e-07
 77.28737   -147.8 2.264e+04 6.239e-07
 77.29732   -155.7 2.219e+04 8.002e-07
 77.30726   -164.2 2.225e+04 8.773e-07
 77.31720   -173.9 2.274e+04 8.469e-07
 77.32272   -183.4 2.185e+04 9.821e-07
 77.32769   -180.9 2.093e+04 4.030e-07
 77.33709   -186.8 1.996e+04 6.019e-07
 77.34703   -190.8 1.937e+04 1.064e-06
 77.35697   -193.3 1.916e+04 1.693e-06
 77.36692   -194.3 1.904e+04 2.287e-06
 77.37539   -194.3 1.896e+04 2.661e-06
 77.38036   -190.0 1.906e+04 2.061e-06
 77.38680   -189.9 1.888e+04 2.475e-06
 77.39675   -189.5 1.874e+04 2.740e-06
 77.40669   -188.6 1.893e+04 2.268e-06
 77.41663   -187.4 1.929e+04 1.710e-06
 77.42211   -185.9 1.973e+04 1.258e-06
 77.42709   -184.3 1.961e+04 1.267e-06
 77.43304   -183.4 2.008e+04 9.734e-07
 77.43801   -181.0 1.906e+04 1.668e-06
 77.44646   -180.3 1.943e+04 1.368e-06
 77.45641   -179.8 1.997e+04 9.993e-07
 77.46635   -179.3 2.034e+04 7.465e-07
 77.47629   -178.9 2.077e+04 5.432e-07
 77.48571   -178.5 2.118e+04 3.991e-07
 77.49068   -176.7 2.020e+04 7.650e-07
 77.49618   -176.6 2.072e+04 5.479e-07
 77.50612   -176.5 2.123e+04 3.963e-07
 77.51607   -176.3 2.166e+04 2.934e-07
 77.52601   -175.9 2.197e+04 2.177e-07
 77.53595   -175.1 2.218e+04 1.673e-07
 77.54336   -174.3 2.249e+04 1.302e-07
 77.54833   -173.7 2.183e+04 2.112e-07
 77.55584   -173.2 2.244e+04 1.493e-07
 77.56391   -172.9 2.349e+04 9.173e-08
 77.56888   -172.1 2.099e+04 3.174e-07
 77.57572   -171.8 2.154e+04 2.256e-07
 77.58567   -171.4 2.228e+04 1.383e-07
 77.59561   -171.2 2.313e+04 7.675e-08
 77.60100   -171.0 2.382e+04 4.599e-08
 77.60597   -170.3 2.339e+04 7.716e-08
 77.61550   -170.2 2.360e+04 4.264e-08
 77.63046   -170.1 2.293e+04 3.997e-08
 77.64880   -169.8 2.260e+04 1.358e-08
 77.65874   -168.0 2.284e+04 3.523e-08
 77.67028   -167.7 2.203e+04 1.475e-08
 77.69017   -167.7 1.800e+04 9.657e-09
 77.71005   -167.3 1.481e+04 1.062e-08
 77.72994   -166.4 1.277e+04 1.133e-08
 77.74983   -165.0 1.195e+04 1.172e-08
 77.76409   -163.5 1.138e+04 1.156e-08
 77.77403   -162.3 1.264e+04 1.490e-08
 77.78960   -160.9 1.220e+04 1.507e-08
 77.80949   -159.5 1.203e+04 1.578e-08
 77.82937   -158.2 1.207e+04 1.650e-08
 77.84760   -156.7 1.216e+04 1.687e-08
 77.85754   -157.2 1.283e+04 2.203e-08
 77.86914   -155.8 1.264e+04 2.076e-08
 77.87938   -154.3 1.245e+04 1.950e-08
 77.88932   -153.6 1.314e+04 2.481e-08
 77.90892   -152.2 1.283e+04 2.265e-08
 77.92880   -150.9 1.259e+04 2.123e-08
 77.94869   -149.4 1.242e+04 2.031e-08
 77.96858   -147.7 1.230e+04 1.974e-08
 77.98472   -146.1 1.221e+04 1.920e-08
 77.99467   -145.7 1.238e+04 1.982e-08
 78.00835   -144.3 1.215e+04 1.827e-08
 78.02824   -142.7 1.196e+04 1.694e-08
 78.04812   -141.1 1.180e+04 1.580e-08
 78.06801   -139.7 1.167e+04 1.473e-08
 78.08789   -138.3 1.154e+04 1.371e-08
 78.10001   -137.0 1.145e+04 1.288e-08
 78.10996   -136.6 1.131e+04 1.186e-08
 78.12767   -135.3 1.127e+04 1.118e-08
 78.14113   -134.3 1.126e+04 1.069e-08
 78.15107   -134.2 1.161e+04 1.303e-08
 78.16744   -133.2 1.170e+04 1.320e-08
 78.18733   -132.4 1.183e+04 1.360e-08
 78.20536   -131.9 1.198e+04 1.420e-08
 78.21530   -131.4 1.180e+04 1.253e-08
 78.22710   -131.1 1.186e+04 1.282e-08
 78.24698   -131.0 1.192e+04 1.339e-08
 78.26687   -131.0 1.201e+04 1.438e-08
 78.28676   -131.1 1.216e+04 1.577e-08
 78.30664   -131.2 1.232e+04 1.694e-08
 78.32065   -131.2 1.250e+04 1.812e-08
 78.33059   -130.8 1.226e+04 1.642e-08
 78.34642   -130.9 1.246e+04 1.763e-08
 78.36630   -131.0 1.262e+04 1.826e-08
 78.38619   -131.2 1.267e+04 1.831e-08
 78.40608   -131.5 1.265e+04 1.762e-08
 78.42472   -131.7 1.260e+04 1.724e-08
 78.43466   -134.2 1.346e+04 2.108e-08
 78.44585   -134.3 1.336e+04 2.067e-08
 78.46573   -134.3 1.345e+04 2.219e-08
 78.48562   -134.3 1.367e+04 2.492e-08
 78.50551   -134.1 1.406e+04 2.886e-08
 78.52539   -134.0 1.460e+04 3.488e-08
 78.54129   -133.7 1.512e+04 4.201e-08
 78.55123   -133.9 1.418e+04 3.071e-08
 78.56517   -133.6 1.455e+04 3.554e-08
 78.58505   -133.2 1.473e+04 3.903e-08
 78.60494   -132.8 1.477e+04 4.059e-08
 78.62482   -132.3 1.473e+04 4.093e-08
 78.64471   -131.8 1.468e+04 4.092e-08
 78.65658   -131.7 1.468e+04 4.209e-08
 78.66652   -131.1 1.385e+04 3.029e-08
 78.68448   -131.0 1.398e+04 3.152e-08
 78.70437   -131.0 1.418e+04 3.369e-08
 78.71825   -131.3 1.439e+04 3.639e-08
 78.72820   -133.4 1.318e+04 2.208e-08
 78.74414   -133.8 1.343e+04 2.492e-08
 78.76192   -134.2 1.361e+04 2.828e-08
 78.77186   -133.8 1.244e+04 1.725e-08
 78.78392   -134.0 1.280e+04 2.152e-08
 78.80380   -134.1 1.309e+04 2.570e-08
 78.82369   -134.1 1.326e+04 2.848e-08
 78.84357   -134.1 1.329e+04 2.912e-08
 78.86346   -134.1 1.320e+04 2.814e-08
 78.87721   -134.1 1.296e+04 2.619e-08
 78.88715   -133.3 1.268e+04 2.395e-08
 78.90323   -133.2 1.242e+04 2.189e-08
 78.92312   -132.9 1.220e+04 2.034e-08
 78.94301   -132.6 1.211e+04 1.967e-08
 78.96289   -132.4 1.210e+04 1.958e-08
 78.98256   -132.3 1.215e+04 2.003e-08
 78.99250   -131.7 1.172e+04 1.722e-08
 79.00184   -132.2 1.214e+04 2.001e-08
 79.01179   -132.4 1.143e+04 1.549e-08
 79.02255   -132.7 1.187e+04 1.818e-08
 79.04244   -133.1 1.242e+04 2.211e-08
 79.06232   -133.4 1.302e+04 2.734e-08
 79.08221   -133.8 1.356e+04 3.356e-08
 79.09785   -134.2 1.396e+04 3.969e-08
 79.10779   -133.8 1.353e+04 3.410e-08
 79.12198   -134.1 1.372e+04 3.813e-08
 79.14187   -134.2 1.374e+04 4.000e-08
 79.16176   -134.1 1.336e+04 3.554e-08
 79.18164   -133.9 1.266e+04 2.772e-08
 79.20153   -133.6 1.184e+04 2.107e-08
 79.21314   -133.1 1.106e+04 1.552e-08
 79.22308   -132.8 1.081e+04 1.425e-08
 79.24130   -132.1 1.008e+04 1.011e-08
 79.26119   -131.4 9.385e+03 6.879e-09
 79.28107   -130.8 8.775e+03 4.638e-09
 79.29538   -130.5 8.327e+03 3.339e-09
 79.30532   -129.7 8.673e+03 4.137e-09
 79.31848   -129.7 8.291e+03 3.136e-09
 79.32843   -129.5 8.196e+03 3.000e-09
 79.35077   -128.9 8.012e+03 2.672e-09
 79.39064   -127.1 7.566e+03 2.238e-09
 79.43042   -125.3 7.251e+03 1.949e-09
 79.47019   -123.4 7.041e+03 1.745e-09
 79.50996   -121.3 6.915e+03 1.616e-09
 79.53931   -118.9 6.863e+03 1.573e-09
 79.55920   -118.4 6.870e+03 1.578e-09
 79.58951   -116.0 6.874e+03 1.582e-09
 79.62928   -113.7 6.951e+03 1.644e-09
 79.66905   -111.5 7.095e+03 1.782e-09
 79.70882   -109.4 7.320e+03 1.990e-09
 79.74860   -107.7 7.676e+03 2.297e-09
 79.76989   -106.4 8.064e+03 2.712e-09
 79.78978   -106.1 8.277e+03 2.967e-09
 79.81810   -105.8 8.184e+03 3.223e-09
 79.83789   -106.3 8.372e+03 3.972e-09
 79.85778   -106.8 8.778e+03 5.300e-09
 79.87250   -107.1 9.349e+03 7.250e-09
 79.87982   -106.9 9.373e+03 7.313e-09
 79.88499   -107.2 9.691e+03 8.541e-09
 79.89755   -107.4 1.047e+04 1.228e-08
 79.91744   -107.6 1.116e+04 1.648e-08
 79.93732   -107.9 1.160e+04 1.943e-08
 79.95721   -108.6 1.170e+04 2.014e-08
 79.97709   -109.2 1.164e+04 1.977e-08
 79.99033   -109.6 1.122e+04 1.660e-08
 80.00028   -110.0 1.126e+04 1.665e-08
 80.01687   -110.4 1.062e+04 1.273e-08
 80.03675   -110.7 1.014e+04 1.024e-08
 80.05664   -110.9 9.858e+03 8.850e-09
 80.07653   -110.9 9.682e+03 7.983e-09
 80.09568   -111.0 9.566e+03 7.423e-09
 80.10562   -111.1 9.285e+03 6.337e-09
 80.11630   -111.1 9.188e+03 5.934e-09
 80.13618   -111.0 9.116e+03 5.683e-09
 80.15607   -110.9 9.040e+03 5.465e-09
 80.17596   -109.7 8.814e+03 4.478e-09
 80.19584   -109.3 8.740e+03 4.274e-09
 80.21097   -108.9 8.666e+03 4.068e-09
 80.22091   -108.5 8.565e+03 3.378e-09
 80.23562   -108.3 8.566e+03 3.387e-09
 80.25550   -108.1 8.562e+03 3.606e-09
 80.27539   -108.0 8.570e+03 3.734e-09
 80.29528   -108.3 8.698e+03 4.133e-09
 80.31516   -108.7 9.137e+03 5.236e-09
 80.32626   -109.1 9.736e+03 7.352e-09
 80.33620   -109.3 9.850e+03 7.949e-09
 80.35493   -109.5 1.055e+04 1.140e-08
 80.37482   -109.6 1.113e+04 1.504e-08
 80.39471   -109.9 1.148e+04 1.733e-08
 80.41459   -110.4 1.157e+04 1.786e-08
 80.43160   -111.1 1.152e+04 1.659e-08
 80.44155   -111.8 1.173e+04 1.753e-08
 80.44962   -112.6 1.131e+04 1.420e-08
 80.45956   -111.0 1.131e+04 1.426e-08
 80.47425   -111.8 1.092e+04 1.178e-08
 80.49414   -112.2 1.060e+04 1.008e-08
 80.51402   -112.3 1.037e+04 8.819e-09
 80.53391   -112.0 1.017e+04 7.537e-09
 80.54689   -111.5 9.969e+03 6.192e-09
 80.55684   -112.1 1.012e+04 6.236e-09
 80.57368   -111.8 9.918e+03 4.834e-09
 80.59357   -111.6 9.807e+03 3.916e-09
 80.61346   -111.5 9.736e+03 3.448e-09
 80.63334   -111.1 9.685e+03 3.233e-09
 80.65224   -110.5 9.670e+03 3.181e-09
 80.66218   -111.8 9.843e+03 3.640e-09
 80.67312   -111.1 9.841e+03 3.709e-09
 80.69300   -110.3 9.863e+03 3.770e-09
 80.71289   -109.5 9.896e+03 3.797e-09
 80.73277   -108.8 9.938e+03 3.771e-09
 80.74315   -108.0 9.982e+03 3.714e-09
 80.75310   -106.8 9.931e+03 3.627e-09
 80.76753   -106.1 1.002e+04 3.573e-09
 80.77747   -106.8 1.006e+04 3.549e-09
 80.79243   -106.0 1.014e+04 3.374e-09
 80.82236   -105.3 1.017e+04 3.210e-09
 80.86223   -103.4 1.012e+04 2.847e-09
 80.88301   -101.3 1.002e+04 2.399e-09
 80.90290   -102.4 9.861e+03 1.891e-09
 80.94178   -100.1 9.823e+03 1.544e-09
 80.98155    -97.7 9.845e+03 1.326e-09
 81.01700    -95.1 9.863e+03 1.195e-09
 81.03688    -94.4 9.864e+03 1.186e-09
 81.06109    -91.9 9.907e+03 1.100e-09
 81.09371    -89.2 9.957e+03 1.058e-09
 81.11359    -89.3 9.954e+03 1.061e-09
 81.14064    -86.5 9.972e+03 1.055e-09
 81.18041    -84.1 1.008e+04 1.062e-09
 81.22018    -82.3 1.051e+04 1.325e-09
 81.25996    -80.8 1.081e+04 2.302e-09
 81.29973    -79.4 1.130e+04 3.882e-09
 81.32038    -78.4 1.160e+04 4.781e-09
 81.32495    -79.4 1.171e+04 5.565e-09
 81.33403    -79.9 1.195e+04 7.386e-09
 81.34925    -79.9 1.229e+04 9.531e-09
 81.36914    -80.1 1.254e+04 1.180e-08
 81.38902    -80.4 1.269e+04 1.409e-08
 81.40891    -80.5 1.279e+04 1.632e-08
 81.42879    -80.2 1.280e+04 1.797e-08
 81.43938    -79.7 1.276e+04 1.802e-08
 81.44932    -80.7 1.269e+04 1.681e-08
 81.46857    -80.5 1.252e+04 1.498e-08
 81.48845    -80.4 1.227e+04 1.275e-08
 81.50834    -80.3 1.197e+04 1.080e-08
 81.52823    -80.0 1.170e+04 9.421e-09
 81.54473    -79.7 1.148e+04 8.625e-09
 81.55467    -80.7 1.132e+04 8.323e-09
 81.56800    -79.9 1.120e+04 7.876e-09
 81.58789    -79.0 1.112e+04 7.539e-09
 81.60387    -78.1 1.106e+04 7.300e-09
 81.61381    -78.6 1.076e+04 5.805e-09
 81.62766    -77.5 1.075e+04 5.725e-09
 81.64754    -76.5 1.077e+04 5.723e-09
 81.66002    -75.4 1.079e+04 5.750e-09
 81.66996    -76.0 1.074e+04 5.140e-09
 81.68732    -74.9 1.079e+04 5.257e-09
 81.70720    -73.8 1.084e+04 5.477e-09
 81.72709    -72.7 1.088e+04 5.752e-09
 81.74698    -71.6 1.091e+04 6.071e-09
 81.76536    -70.5 1.095e+04 6.308e-09
 81.77530    -71.0 1.109e+04 6.595e-09
 81.78675    -70.0 1.120e+04 6.890e-09
 81.80663    -69.1 1.129e+04 7.113e-09
 81.82652    -68.3 1.138e+04 7.266e-09
 81.84641    -67.7 1.146e+04 7.354e-09
 81.86629    -67.1 1.152e+04 7.467e-09
 81.88065    -66.5 1.155e+04 7.634e-09
 81.89059    -67.2 1.191e+04 9.428e-09
 81.89740    -66.7 1.191e+04 9.725e-09
 81.90734    -67.2 1.182e+04 1.009e-08
 81.92595    -66.6 1.186e+04 1.025e-08
 81.94584    -65.7 1.176e+04 1.066e-08
 81.96573    -64.8 1.163e+04 1.086e-08
 81.98561    -63.7 1.154e+04 1.068e-08
 81.99594    -62.6 1.144e+04 1.020e-08
 82.00588    -63.2 1.157e+04 1.125e-08
 82.02538    -62.1 1.146e+04 1.018e-08
 82.04527    -61.2 1.133e+04 9.323e-09
 82.06516    -60.3 1.124e+04 8.777e-09
 82.08504    -59.3 1.123e+04 8.640e-09
 82.10129    -58.5 1.130e+04 8.784e-09
 82.11123    -59.2 1.141e+04 9.506e-09
 82.12482    -58.4 1.153e+04 1.004e-08
 82.14470    -57.6 1.164e+04 1.063e-08
 82.16459    -56.9 1.178e+04 1.137e-08
 82.18099    -56.4 1.190e+04 1.214e-08
 82.19093    -56.3 1.141e+04 9.587e-09
 82.20436    -55.7 1.152e+04 1.037e-08
 82.21658    -55.0 1.165e+04 1.115e-08
 82.22652    -55.5 1.168e+04 1.165e-08
 82.24413    -54.7 1.177e+04 1.203e-08
 82.26402    -53.9 1.185e+04 1.201e-08
 82.28391    -53.2 1.196e+04 1.139e-08
 82.30379    -52.7 1.195e+04 1.054e-08
 82.32192    -52.3 1.189e+04 9.759e-09
 82.33187    -52.7 1.187e+04 9.726e-09
 82.34357    -52.3 1.180e+04 9.123e-09
 82.36345    -51.8 1.170e+04 8.644e-09
 82.38334    -51.1 1.160e+04 8.255e-09
 82.40322    -50.2 1.154e+04 8.002e-09
 82.42311    -49.4 1.152e+04 7.876e-09
 82.43721    -48.5 1.151e+04 7.833e-09
 82.44715    -48.6 1.142e+04 7.760e-09
 82.46288    -47.6 1.142e+04 7.783e-09
 82.47452    -46.7 1.142e+04 7.807e-09
 82.48447    -46.5 1.102e+04 7.139e-09
 82.50266    -45.6 1.099e+04 6.984e-09
 82.52254    -44.6 1.098e+04 6.670e-09
 82.54243    -43.7 1.100e+04 6.255e-09
 82.55250    -42.9 1.100e+04 5.727e-09
 82.56244    -42.8 1.080e+04 5.233e-09
 82.58220    -42.0 1.088e+04 4.791e-09
 82.60209    -41.5 1.098e+04 4.487e-09
 82.62197    -40.9 1.103e+04 4.338e-09
 82.64186    -40.3 1.114e+04 4.297e-09
 82.65785    -39.8 1.116e+04 4.268e-09
 82.66789    -39.9 1.111e+04 4.080e-09
 82.69177    -38.5 1.114e+04 4.045e-09
 82.73154    -37.1 1.136e+04 4.129e-09
 82.75821    -35.8 1.156e+04 4.680e-09
 82.77810    -35.7 1.126e+04 4.493e-09
 82.80105    -34.2 1.145e+04 5.123e-09
 82.82084    -33.9 1.149e+04 5.565e-09
 82.84072    -32.6 1.158e+04 7.203e-09
 82.86061    -31.5 1.174e+04 8.053e-09
 82.87848    -30.5 1.185e+04 8.785e-09
 82.88843    -30.3 1.180e+04 8.896e-09
 82.90038    -29.3 1.193e+04 9.636e-09
 82.92027    -28.4 1.200e+04 9.957e-09
 82.94015    -27.5 1.202e+04 1.001e-08
 82.96004    -26.7 1.206e+04 1.011e-08
 82.97993    -25.8 1.211e+04 1.026e-08
 82.99377    -25.0 1.212e+04 1.016e-08
 83.00372    -24.7 1.205e+04 1.050e-08
 83.01970    -23.9 1.204e+04 9.991e-09
 83.03959    -23.3 1.202e+04 9.661e-09
 83.05165    -22.8 1.211e+04 9.740e-09
 83.06159    -22.8 1.154e+04 8.546e-09
 83.07936    -22.7 1.190e+04 9.095e-09
 83.09912    -23.2 1.234e+04 1.152e-08
 83.10906    -22.2 1.197e+04 9.086e-09
 83.11913    -22.7 1.236e+04 1.229e-08
 83.13902    -22.7 1.279e+04 1.760e-08
 83.15890    -22.1 1.319e+04 2.260e-08
 83.17879    -21.4 1.329e+04 2.388e-08
 83.19868    -20.9 1.297e+04 1.878e-08
 83.21441    -20.8 1.262e+04 1.236e-08
 83.22435    -19.8 1.253e+04 1.272e-08
 83.23845    -19.7 1.230e+04 8.505e-09
 83.25834    -19.6 1.204e+04 5.895e-09
 83.27822    -19.1 1.175e+04 4.558e-09
 83.29811    -18.1 1.154e+04 3.768e-09
 83.31799    -17.0 1.152e+04 3.353e-09
 83.32970    -16.0 1.167e+04 3.222e-09
 83.33700    -14.7 1.156e+04 3.253e-09
 83.34518    -13.9 1.144e+04 3.111e-09
 83.35777    -12.8 1.150e+04 3.042e-09
 83.37765    -12.0 1.187e+04 3.155e-09
 83.39754    -11.7 1.226e+04 4.161e-09
 83.41743    -11.5 1.243e+04 6.956e-09
 83.43504    -11.0 1.259e+04 1.235e-08
 83.44499     -9.9 1.279e+04 1.013e-08
 83.45720     -9.2 1.307e+04 1.785e-08
 83.47709     -8.2 1.383e+04 2.411e-08
 83.49697     -7.7 1.429e+04 2.614e-08
 83.51686     -8.1 1.510e+04 2.231e-08
 83.53674     -9.5 1.532e+04 1.500e-08
 83.55033    -11.8 1.612e+04 9.904e-09
 83.56028     -9.1 1.557e+04 1.214e-08
 83.57652    -11.3 1.524e+04 8.553e-09
 83.59640    -12.7 1.530e+04 9.856e-09
 83.61629    -12.8 1.516e+04 1.215e-08
 83.62877    -12.5 1.596e+04 1.538e-08
 83.63871    -10.9 1.531e+04 1.215e-08
 83.65568    -11.1 1.508e+04 1.356e-08
 83.66562    -10.4 1.419e+04 1.112e-08
 83.67595    -11.0 1.436e+04 1.111e-08
 83.69583    -10.9 1.456e+04 1.311e-08
 83.71572    -10.3 1.591e+04 1.863e-08
 83.73561     -9.7 1.691e+04 3.050e-08
 83.75549     -8.9 1.764e+04 5.003e-08
 83.77097     -8.6 1.829e+04 8.157e-08
 83.78091     -9.2 1.729e+04 3.617e-08
 83.79527     -9.2 1.808e+04 5.096e-08
 83.81515    -10.5 1.862e+04 7.268e-08
 83.82857    -11.4 1.887e+04 8.939e-08
 83.83349    -11.5 1.821e+04 5.206e-08
 83.83991    -12.2 1.831e+04 5.603e-08
 83.84986    -13.4 1.828e+04 5.900e-08
 83.85980    -13.8 1.843e+04 6.140e-08
 83.86974    -15.2 1.840e+04 7.331e-08
 83.87969    -15.7 1.860e+04 7.904e-08
 83.88616    -16.9 1.871e+04 1.006e-07
 83.89615    -16.8 1.806e+04 6.307e-08
 83.91236    -18.2 1.830e+04 9.228e-08
 83.92230    -17.4 1.745e+04 5.985e-08
 83.93447    -18.4 1.796e+04 9.758e-08
 83.95436    -19.0 1.835e+04 1.368e-07
 83.97424    -19.5 1.849e+04 1.521e-07
 83.99160    -20.0 1.825e+04 1.431e-07
 84.00155    -19.1 1.766e+04 1.172e-07
 84.01402    -19.3 1.762e+04 1.166e-07
 84.03390    -19.4 1.726e+04 9.533e-08
 84.05379    -19.3 1.646e+04 6.569e-08
 84.07367    -19.1 1.552e+04 4.169e-08
 84.09356    -19.0 1.463e+04 2.813e-08
 84.10689    -18.8 1.394e+04 2.143e-08
 84.11684    -19.0 1.414e+04 2.677e-08
 84.13333    -18.7 1.397e+04 2.421e-08
 84.15322    -18.4 1.398e+04 2.397e-08
 84.17311    -18.5 1.409e+04 2.603e-08
 84.19299    -18.7 1.434e+04 3.059e-08
 84.20589    -19.0 1.461e+04 3.578e-08
 84.21520    -19.3 1.431e+04 3.459e-08
 84.22218    -20.6 1.451e+04 3.640e-08
 84.23276    -21.5 1.457e+04 3.759e-08
 84.25265    -22.7 1.430e+04 3.353e-08
 84.27254    -24.1 1.367e+04 2.541e-08
 84.29242    -25.6 1.286e+04 1.803e-08
 84.31231    -26.9 1.207e+04 1.243e-08
 84.32753    -28.2 1.139e+04 8.535e-09
 84.33747    -30.3 1.121e+04 6.816e-09
 84.35208    -32.4 1.118e+04 6.410e-09
 84.37197    -36.0 1.180e+04 7.729e-09
 84.39186    -40.4 1.302e+04 1.567e-08
 84.41174    -42.5 1.400e+04 3.242e-08
 84.43163    -43.2 1.480e+04 4.586e-08
 84.44282    -44.3 1.497e+04 4.896e-08
 84.45276    -46.9 1.522e+04 4.403e-08
 84.47140    -52.3 1.553e+04 3.681e-08
 84.48627    -55.6 1.499e+04 3.130e-08
 84.49436    -56.8 1.514e+04 3.156e-08
 84.49938    -55.2 1.494e+04 2.889e-08
 84.50615    -61.3 1.484e+04 3.061e-08
 84.51605    -63.7 1.567e+04 3.628e-08
 84.52599    -67.3 1.637e+04 4.501e-08
 84.53593    -70.3 1.720e+04 5.875e-08
 84.54588    -73.5 1.747e+04 7.420e-08
 84.55304    -76.1 1.750e+04 8.115e-08
 84.55801    -78.1 1.755e+04 9.568e-08
 84.56576    -80.5 1.702e+04 7.831e-08
 84.57571    -82.9 1.635e+04 6.077e-08
 84.58565    -85.1 1.559e+04 4.571e-08
 84.59559    -86.7 1.499e+04 3.603e-08
 84.61056    -88.2 1.440e+04 2.778e-08
 84.63049    -91.8 1.308e+04 1.837e-08
 84.65038    -94.8 1.180e+04 1.426e-08
 84.66346    -96.0 1.145e+04 1.321e-08
 84.67340    -97.1 1.145e+04 1.299e-08
 84.69015    -97.6 1.140e+04 1.264e-08
 84.71004    -98.5 1.138e+04 1.217e-08
 84.72992    -99.6 1.133e+04 1.161e-08
 84.74981   -100.7 1.121e+04 1.110e-08
 84.76880   -101.7 1.102e+04 1.066e-08
 84.77874   -102.2 1.125e+04 1.155e-08
 84.78302   -102.9 1.106e+04 1.111e-08
 84.79296   -100.4 1.104e+04 1.061e-08
 84.80947   -101.1 1.083e+04 9.992e-09
 84.82935   -101.5 1.063e+04 9.352e-09
 84.84924   -101.7 1.047e+04 8.830e-09
 84.86913   -101.8 1.038e+04 8.488e-09
 84.88409   -101.7 1.035e+04 8.309e-09
 84.89403   -102.6 1.060e+04 9.149e-09
 84.90890   -102.4 1.058e+04 9.124e-09
 84.92879   -102.1 1.061e+04 9.341e-09
 84.94867   -101.6 1.074e+04 9.841e-09
 84.96856   -101.0 1.091e+04 1.061e-08
 84.98844   -100.4 1.113e+04 1.174e-08
 84.99938    -99.6 1.140e+04 1.325e-08
 85.00932    -99.9 1.171e+04 1.519e-08
 85.02822    -99.1 1.201e+04 1.702e-08
 85.04810    -98.5 1.232e+04 1.904e-08
 85.06661    -97.9 1.263e+04 2.103e-08
 85.07655    -96.4 1.214e+04 1.766e-08
 85.08788    -95.7 1.237e+04 1.904e-08
 85.10473    -95.2 1.261e+04 2.037e-08
 85.11467    -95.4 1.292e+04 2.260e-08
 85.12765    -94.8 1.318e+04 2.480e-08
 85.14754    -94.1 1.340e+04 2.628e-08
 85.16742    -93.4 1.354e+04 2.692e-08
 85.18731    -92.6 1.362e+04 2.701e-08
 85.20719    -91.7 1.365e+04 2.685e-08
 85.22002    -90.8 1.371e+04 2.679e-08
 85.22996    -90.7 1.382e+04 2.774e-08
 85.24697    -89.8 1.384e+04 2.713e-08
 85.26685    -89.0 1.389e+04 2.691e-08
 85.28674    -88.2 1.407e+04 2.738e-08
 85.30663    -87.9 1.443e+04 3.076e-08
 85.32536    -87.7 1.482e+04 3.649e-08
 85.33531    -87.4 1.436e+04 3.002e-08
 85.34640    -87.2 1.474e+04 3.531e-08
 85.36014    -87.1 1.515e+04 4.063e-08
 85.37008    -84.8 1.541e+04 4.676e-08
 85.38617    -84.7 1.583e+04 5.571e-08
 85.40606    -84.8 1.627e+04 6.359e-08
 85.42594    -85.4 1.672e+04 6.809e-08
 85.44065    -86.5 1.703e+04 6.887e-08
 85.45059    -86.6 1.650e+04 5.192e-08
 85.46572    -88.3 1.664e+04 5.469e-08
 85.48560    -90.2 1.656e+04 5.604e-08
 85.50549    -92.2 1.616e+04 5.624e-08
 85.52538    -94.1 1.546e+04 4.941e-08
 85.54526    -96.1 1.459e+04 3.415e-08
 85.55594    -98.4 1.337e+04 1.913e-08
 85.56588    -98.7 1.286e+04 1.540e-08
 85.58503   -101.3 1.131e+04 8.276e-09
 85.60492   -103.2 1.031e+04 5.506e-09
 85.62481   -104.1 1.003e+04 4.619e-09
 85.64373   -104.4 9.970e+03 4.163e-09
 85.65367   -103.4 1.004e+04 4.545e-09
 85.66129   -103.8 1.002e+04 4.163e-09
 85.67123   -103.3 9.656e+03 2.971e-09
 85.68447   -103.9 9.774e+03 2.675e-09
 85.70435   -104.6 9.873e+03 2.610e-09
 85.72424   -105.5 1.021e+04 2.922e-09
 85.75417   -107.0 1.058e+04 3.652e-09
 85.77677   -109.7 1.122e+04 5.128e-09
 85.79666   -106.6 1.002e+04 1.723e-09
 85.83381   -108.8 1.115e+04 4.363e-09
 85.86354   -111.1 1.178e+04 9.842e-09
 85.88192   -111.8 1.213e+04 1.338e-08
 85.89187   -110.0 1.174e+04 9.773e-09
 85.90322   -110.6 1.206e+04 1.300e-08
 85.92310   -111.1 1.251e+04 1.686e-08
 85.93726   -111.7 1.294e+04 2.030e-08
 85.94720   -111.4 1.344e+04 2.495e-08
 85.96287   -111.9 1.374e+04 2.856e-08
 85.98276   -112.6 1.387e+04 2.992e-08
 85.99721   -113.4 1.384e+04 3.012e-08
 86.00716   -111.1 1.391e+04 2.963e-08
 86.02253   -112.1 1.390e+04 2.964e-08
 86.04242   -112.9 1.378e+04 2.949e-08
 86.06231   -113.7 1.369e+04 2.967e-08
 86.08219   -114.4 1.361e+04 3.016e-08
 86.10208   -114.9 1.352e+04 2.993e-08
 86.11250   -115.5 1.333e+04 2.810e-08
 86.12245   -113.8 1.390e+04 3.401e-08
 86.14185   -114.5 1.369e+04 3.226e-08
 86.16174   -115.2 1.335e+04 2.806e-08
 86.18162   -115.9 1.297e+04 2.368e-08
 86.20151   -116.5 1.264e+04 2.048e-08
 86.21785   -117.0 1.241e+04 1.853e-08
 86.22725   -116.1 1.285e+04 2.237e-08
 86.23079   -116.3 1.315e+04 2.490e-08
 86.24128   -117.0 1.276e+04 2.081e-08
 86.26117   -117.4 1.248e+04 1.806e-08
 86.28106   -117.6 1.226e+04 1.606e-08
 86.30094   -117.7 1.207e+04 1.439e-08
 86.32083   -117.8 1.188e+04 1.287e-08
 86.33314   -117.7 1.168e+04 1.146e-08
 86.34308   -117.4 1.194e+04 1.293e-08
 86.36060   -117.3 1.177e+04 1.182e-08
 86.38049   -117.1 1.164e+04 1.097e-08
 86.40037   -116.9 1.156e+04 1.045e-08
 86.42026   -116.6 1.155e+04 1.031e-08
 86.43848   -116.4 1.156e+04 1.033e-08
 86.44843   -116.2 1.198e+04 1.301e-08
 86.46003   -116.0 1.203e+04 1.324e-08
 86.47992   -115.9 1.205e+04 1.335e-08
 86.49980   -115.7 1.205e+04 1.331e-08
 86.51438   -115.6 1.198e+04 1.286e-08
 86.52433   -115.4 1.201e+04 1.340e-08
 86.53958   -115.1 1.195e+04 1.292e-08
 86.55377   -114.9 1.189e+04 1.227e-08
 86.56372   -114.8 1.214e+04 1.376e-08
 86.57935   -114.5 1.205e+04 1.257e-08
 86.59924   -114.3 1.193e+04 1.121e-08
 86.61912   -114.2 1.178e+04 9.722e-09
 86.63901   -114.0 1.158e+04 8.250e-09
 86.65890   -113.8 1.133e+04 6.967e-09
 86.66906   -113.5 1.107e+04 5.986e-09
 86.67901   -113.5 1.103e+04 6.016e-09
 86.69867   -113.1 1.070e+04 5.362e-09
 86.71855   -112.5 1.042e+04 4.933e-09
 86.73844   -111.9 1.021e+04 4.615e-09
 86.75833   -111.3 1.003e+04 4.332e-09
 86.77441   -110.7 9.888e+03 4.035e-09
 86.78435   -110.4 9.730e+03 4.041e-09
 86.79797   -109.6 9.694e+03 3.730e-09
 86.80792   -110.3 9.527e+03 3.664e-09
 86.81799   -109.7 9.413e+03 3.249e-09
 86.83787   -109.1 9.350e+03 2.944e-09
 86.85776   -108.4 9.342e+03 2.802e-09
 86.87764   -107.9 9.346e+03 2.775e-09
 86.88970   -107.7 9.356e+03 2.783e-09
 86.89964   -107.1 9.294e+03 2.794e-09
 86.91742   -107.1 9.551e+03 2.838e-09
 86.93730   -107.6 9.950e+03 3.396e-09
 86.95719   -108.0 1.034e+04 4.775e-09
 86.97708   -108.4 1.084e+04 6.867e-09
 86.99504   -108.7 1.129e+04 9.250e-09
 87.00499   -108.4 1.135e+04 9.874e-09
 87.01685   -108.9 1.163e+04 1.162e-08
 87.03673   -109.7 1.169e+04 1.200e-08
 87.05662   -110.4 1.155e+04 1.147e-08
 87.07651   -110.9 1.112e+04 8.915e-09
 87.09151   -111.5 1.063e+04 6.498e-09
 87.10145   -111.8 1.054e+04 6.562e-09
 87.11033   -112.1 1.022e+04 5.150e-09
 87.12028   -112.0 1.024e+04 5.248e-09
 87.13617   -112.4 1.001e+04 4.368e-09
 87.15605   -112.5 9.850e+03 3.921e-09
 87.17594   -112.3 9.738e+03 3.595e-09
 87.19583   -111.7 9.663e+03 3.264e-09
 87.22575   -110.7 9.659e+03 2.985e-09
 87.26562   -110.3 9.664e+03 2.657e-09
 87.30540   -109.9 9.634e+03 2.284e-09
 87.33117   -109.3 9.634e+03 2.127e-09
 87.35105   -108.5 9.564e+03 2.387e-09
 87.37529   -108.1 9.590e+03 2.317e-09
 87.39518   -108.4 9.419e+03 2.155e-09
 87.42471   -108.3 9.488e+03 2.145e-09
 87.46449   -108.8 9.967e+03 2.476e-09
 87.49422   -109.2 1.023e+04 3.136e-09
 87.51401   -110.2 1.044e+04 3.724e-09
 87.53389   -111.1 1.065e+04 4.457e-09
 87.55161   -112.0 1.084e+04 4.831e-09
 87.56155   -111.8 1.085e+04 5.034e-09
 87.57367   -112.9 1.098e+04 5.106e-09
 87.59355   -114.1 1.115e+04 5.144e-09
 87.61344   -115.6 1.144e+04 5.340e-09
 87.63332   -117.1 1.183e+04 5.950e-09
 87.65321   -118.7 1.215e+04 7.027e-09
 87.66690   -120.1 1.232e+04 8.094e-09
 87.67237   -119.5 1.227e+04 8.129e-09
 87.67857   -120.0 1.210e+04 7.257e-09
 87.69298   -121.1 1.215e+04 7.417e-09
 87.71287   -122.0 1.214e+04 7.334e-09
 87.73276   -122.5 1.204e+04 6.809e-09
 87.75264   -122.6 1.191e+04 6.210e-09
 87.77224   -122.6 1.179e+04 5.656e-09
 87.78218   -121.9 1.182e+04 5.718e-09
 87.79241   -121.8 1.166e+04 5.083e-09
 87.81230   -121.2 1.143e+04 4.333e-09
 87.83219   -120.0 1.124e+04 3.589e-09
 87.85207   -118.9 1.119e+04 3.043e-09
 87.87196   -118.2 1.123e+04 2.795e-09
 87.90189   -117.5 1.125e+04 2.590e-09
 87.94176   -115.7 1.112e+04 2.261e-09
 87.96236   -113.5 1.105e+04 2.141e-09
 87.98225   -113.2 1.089e+04 2.126e-09
 88.00302   -111.0 1.090e+04 2.144e-09
 88.02290   -110.1 1.096e+04 2.156e-09
 88.06108   -108.1 1.098e+04 2.196e-09
 88.10085   -106.1 1.101e+04 2.220e-09
 88.14062   -104.1 1.103e+04 2.217e-09
 88.18039   -102.0 1.105e+04 2.216e-09
 88.21371    -99.8 1.112e+04 2.270e-09
 88.23359    -99.0 1.098e+04 1.751e-09
 88.25994    -97.0 1.115e+04 1.931e-09
 88.29971    -95.2 1.132e+04 2.380e-09
 88.33948    -93.5 1.147e+04 2.872e-09
 88.37926    -91.9 1.155e+04 3.117e-09
 88.41903    -90.1 1.155e+04 3.102e-09
 88.44429    -88.3 1.152e+04 2.753e-09
 88.46417    -87.4 1.151e+04 2.953e-09
 88.49857    -85.8 1.144e+04 2.565e-09
 88.52954    -84.0 1.132e+04 2.252e-09
 88.54943    -83.9 1.155e+04 2.451e-09
 88.57812    -82.5 1.157e+04 2.518e-09
 88.60785    -81.6 1.157e+04 2.498e-09
 88.62764    -81.3 1.151e+04 2.868e-09
 88.64753    -80.8 1.146e+04 3.588e-09
 88.66473    -80.1 1.146e+04 4.452e-09
 88.67467    -79.9 1.140e+04 4.778e-09
 88.68730    -79.3 1.147e+04 5.558e-09
 88.70719    -78.8 1.153e+04 6.212e-09
 88.72707    -78.5 1.158e+04 6.751e-09
 88.74696    -78.0 1.161e+04 7.286e-09
 88.76684    -77.6 1.159e+04 7.874e-09
 88.78002    -77.0 1.160e+04 8.739e-09
 88.78996    -76.9 1.158e+04 9.206e-09
 88.80662    -76.2 1.159e+04 9.608e-09
 88.82288    -75.4 1.163e+04 9.840e-09
 88.83282    -75.5 1.140e+04 8.446e-09
 88.84639    -74.8 1.143e+04 8.737e-09
 88.86628    -74.2 1.145e+04 8.992e-09
 88.88546    -73.4 1.154e+04 9.314e-09
 88.90544    -73.0 1.119e+04 7.832e-09
 88.93607    -71.2 1.098e+04 7.033e-09
 88.97585    -69.3 1.072e+04 5.790e-09
 89.01562    -67.3 1.046e+04 4.390e-09
 89.05539    -65.2 1.023e+04 3.258e-09
 89.09516    -63.0 1.001e+04 2.531e-09
 89.11614    -60.7 9.951e+03 2.085e-09
 89.11769    -59.9 9.879e+03 2.216e-09
 89.13649    -59.9 9.881e+03 2.116e-09
 89.17471    -57.7 9.866e+03 1.859e-09
 89.21448    -55.5 9.843e+03 1.725e-09
 89.25425    -53.4 9.872e+03 1.653e-09
 89.29403    -51.4 9.922e+03 1.637e-09
 89.32683    -49.5 1.003e+04 1.665e-09
 89.34672    -48.6 9.936e+03 1.643e-09
 89.37357    -46.7 1.011e+04 1.782e-09
 89.41334    -45.0 1.022e+04 1.958e-09
 89.45312    -43.2 1.027e+04 2.075e-09
 89.49289    -41.3 1.030e+04 2.072e-09
 89.53266    -39.4 1.032e+04 1.896e-09
 89.55741    -37.2 1.035e+04 1.586e-09
 89.57729    -36.6 1.044e+04 1.997e-09
 89.61221    -34.5 1.045e+04 1.564e-09
 89.65198    -32.3 1.047e+04 1.303e-09
 89.68379    -30.0 1.047e+04 1.178e-09
 89.70367    -30.0 1.052e+04 1.121e-09
 89.73153    -27.7 1.052e+04 1.079e-09
 89.76810    -25.4 1.055e+04 1.046e-09
 89.78799    -25.1 1.055e+04 1.293e-09
 89.81107    -23.0 1.056e+04 1.215e-09
 89.85084    -20.8 1.058e+04 1.185e-09
 89.89062    -18.8 1.064e+04 1.199e-09
 89.93039    -17.0 1.075e+04 1.260e-09
 89.97016    -15.1 1.088e+04 1.299e-09
 89.99868    -13.4 1.102e+04 1.273e-09
 90.01857    -13.3 1.113e+04 1.564e-09
 90.04971    -11.8 1.129e+04 1.383e-09
 90.08948    -10.3 1.145e+04 1.230e-09
 90.12925     -8.9 1.151e+04 1.156e-09
 90.16902     -7.8 1.157e+04 1.201e-09
 90.20880     -7.0 1.154e+04 1.572e-09
 90.22926     -6.2 1.161e+04 2.188e-09
 90.24915     -6.2 1.162e+04 2.606e-09
 90.27075     -5.6 1.166e+04 2.871e-09
 90.28060     -5.5 1.173e+04 2.992e-09
 90.29809     -5.4 1.169e+04 2.964e-09
 90.32802     -4.7 1.159e+04 2.777e-09
 90.36789     -4.2 1.159e+04 2.217e-09
 90.40766     -3.4 1.148e+04 1.706e-09
 90.43995     -2.5 1.143e+04 1.524e-09
 90.45984     -2.3 1.143e+04 1.542e-09
 90.48721     -1.0 1.147e+04 1.520e-09
 90.52698     -0.0 1.170e+04 1.830e-09
 90.56675      0.6 1.196e+04 2.527e-09
 90.59648      1.3 1.191e+04 2.287e-09
 90.61627      0.4 1.258e+04 3.348e-09
 90.63616     -3.2 1.383e+04 8.342e-09
 90.65604     -5.9 1.478e+04 2.594e-08
 90.67034     -6.6 1.584e+04 5.653e-08
 90.68028     -6.1 1.565e+04 4.580e-08
 90.69582     -7.8 1.620e+04 5.588e-08
 90.71570    -10.8 1.573e+04 3.963e-08
 90.73559    -14.2 1.426e+04 1.798e-08
 90.75548    -16.1 1.330e+04 1.246e-08
 90.77536    -16.3 1.291e+04 1.069e-08
 90.78562    -16.2 1.263e+04 9.013e-09
 90.79557    -16.0 1.287e+04 1.106e-08
 90.81513    -16.1 1.253e+04 8.773e-09
 90.83502    -16.1 1.224e+04 7.035e-09
 90.84778    -16.1 1.207e+04 5.961e-09
 90.85772    -15.3 1.231e+04 7.412e-09
 90.87479    -15.3 1.219e+04 6.504e-09
 90.89097    -15.2 1.212e+04 5.944e-09
 90.90091    -15.6 1.213e+04 6.178e-09
 90.91457    -15.7 1.205e+04 5.539e-09
 90.93445    -15.7 1.196e+04 5.154e-09
 90.95434    -15.8 1.187e+04 4.844e-09
 90.97422    -15.7 1.178e+04 4.514e-09
 90.99411    -15.6 1.170e+04 4.129e-09
 91.00626    -15.5 1.165e+04 3.831e-09
 91.01620    -15.8 1.156e+04 3.035e-09
 91.03388    -15.5 1.152e+04 2.780e-09
 91.05377    -15.0 1.149e+04 2.721e-09
 91.08370    -14.3 1.156e+04 3.259e-09
 91.11180    -12.7 1.129e+04 2.673e-09
 91.13169    -12.8 1.093e+04 1.738e-09
 91.16334    -10.6 1.079e+04 1.662e-09
 91.20311     -8.3 1.071e+04 1.652e-09
 91.24289     -5.9 1.065e+04 1.792e-09
 91.28266     -3.3 1.066e+04 1.921e-09
 91.32243     -0.6 1.066e+04 1.958e-09
 91.36220      2.4 1.067e+04 1.994e-09
 91.40198      4.9 1.062e+04 1.917e-09
 91.42510      7.5 1.059e+04 1.858e-09
 91.44498      7.7 1.082e+04 2.311e-09
 91.48152     10.4 1.076e+04 2.057e-09
 91.52129     12.9 1.072e+04 1.797e-09
 91.55307     15.7 1.073e+04 1.746e-09
 91.57296     15.8 1.077e+04 1.785e-09
 91.60084     18.5 1.083e+04 1.785e-09
 91.64061     21.2 1.086e+04 2.000e-09
 91.68038     24.0 1.094e+04 2.218e-09
 91.72016     26.5 1.099e+04 2.203e-09
 91.75993     28.8 1.103e+04 2.072e-09
 91.78365     31.3 1.092e+04 2.284e-09
 91.80354     31.2 1.093e+04 2.545e-09
 91.83947     33.8 1.085e+04 2.751e-09
 91.87925     37.0 1.086e+04 2.246e-09
 91.91902     39.6 1.101e+04 1.606e-09
 91.95879     41.9 1.104e+04 1.401e-09
 91.99228     44.5 1.107e+04 1.473e-09
 92.00794     44.9 1.116e+04 2.662e-09
 92.01413     44.8 1.131e+04 3.343e-09
 92.03824     47.2 1.142e+04 4.401e-09
 92.07811     49.9 1.165e+04 5.413e-09
 92.11788     52.4 1.191e+04 6.213e-09
 92.15766     54.6 1.209e+04 6.461e-09
 92.19743     56.5 1.218e+04 6.939e-09
 92.22492     58.4 1.227e+04 7.269e-09
 92.24481     57.0 1.202e+04 5.607e-09
 92.27697     59.0 1.185e+04 4.895e-09
 92.31675     61.2 1.170e+04 4.045e-09
 92.35652     63.3 1.156e+04 3.293e-09
 92.39629     65.7 1.147e+04 2.711e-09
 92.43562     68.1 1.147e+04 2.213e-09
 92.45550     68.1 1.136e+04 2.213e-09
 92.47584     70.8 1.133e+04 1.849e-09
 92.51561     73.5 1.131e+04 1.579e-09
 92.55538     76.4 1.130e+04 1.388e-09
 92.57934     79.4 1.132e+04 1.255e-09
 92.59923     80.1 1.139e+04 1.608e-09
 92.63493     83.1 1.142e+04 1.440e-09
 92.66619     86.2 1.147e+04 1.322e-09
 92.68608     86.4 1.139e+04 1.217e-09
 92.71447     89.3 1.145e+04 1.111e-09
 92.75425     92.2 1.151e+04 1.047e-09
 92.79402     95.1 1.152e+04 1.036e-09
 92.83379     97.9 1.153e+04 1.042e-09
 92.87356    100.7 1.156e+04 1.074e-09
 92.89677    103.4 1.163e+04 1.207e-09
 92.91666    103.2 1.157e+04 1.105e-09
 92.95311    105.7 1.170e+04 1.286e-09
 92.99288    107.7 1.188e+04 1.624e-09
 93.03265    109.3 1.204e+04 2.140e-09
 93.07243    110.5 1.222e+04 2.793e-09
 93.10747    111.3 1.241e+04 3.600e-09
 93.12735    111.6 1.225e+04 2.739e-09
 93.14193    111.8 1.222e+04 3.280e-09
 93.15627    112.1 1.219e+04 3.784e-09
 93.16631    113.0 1.210e+04 3.060e-09
 93.19174    113.8 1.213e+04 3.539e-09
 93.22148    113.6 1.212e+04 4.272e-09
 93.23250    113.9 1.209e+04 4.705e-09
 93.24245    114.1 1.199e+04 4.223e-09
 93.26115    114.5 1.196e+04 4.606e-09
 93.28104    115.0 1.198e+04 4.984e-09
 93.30092    115.4 1.203e+04 5.486e-09
 93.32081    115.8 1.208e+04 6.135e-09
 93.33785    116.2 1.213e+04 6.947e-09
 93.35783    117.1 1.180e+04 5.085e-09
 93.39061    117.8 1.166e+04 5.343e-09
 93.43038    118.6 1.139e+04 5.168e-09
 93.47015    119.7 1.106e+04 4.864e-09
 93.50992    121.0 1.080e+04 4.581e-09
 93.54874    122.6 1.053e+04 4.135e-09
 93.56862    123.3 1.026e+04 3.383e-09
 93.58947    125.1 1.002e+04 3.213e-09
 93.62924    127.0 9.736e+03 2.786e-09
 93.66902    128.9 9.389e+03 2.346e-09
 93.70879    130.8 9.329e+03 2.024e-09
 93.73359    132.9 9.400e+03 2.105e-09
 93.75348    133.5 9.679e+03 2.656e-09
 93.77932    134.7 9.730e+03 3.027e-09
 93.79920    135.3 9.576e+03 2.769e-09
 93.81807    135.9 9.491e+03 3.044e-09
 93.83785    136.8 9.451e+03 3.497e-09
 93.85774    137.8 9.588e+03 4.224e-09
 93.87763    138.7 9.868e+03 5.199e-09
 93.89441    139.4 1.019e+04 6.352e-09
 93.90435    139.3 9.915e+03 5.711e-09
 93.91740    140.1 1.022e+04 6.898e-09
 93.93729    140.7 1.050e+04 7.973e-09
 93.95717    141.2 1.071e+04 8.445e-09
 93.97706    141.7 1.072e+04 8.433e-09
 93.99694    142.2 1.070e+04 8.265e-09
 94.00970    142.7 1.062e+04 7.817e-09
 94.01964    142.6 1.043e+04 7.175e-09
 94.02693    143.1 1.036e+04 6.735e-09
 94.03687    142.8 1.052e+04 6.697e-09
 94.05660    143.3 1.045e+04 6.285e-09
 94.07649    143.7 1.038e+04 6.007e-09
 94.09638    144.2 1.029e+04 5.921e-09
 94.11505    144.7 1.026e+04 5.937e-09
 94.12499    144.3 9.982e+03 5.430e-09
 94.13615    144.8 9.974e+03 5.455e-09
 94.15603    145.2 9.990e+03 5.617e-09
 94.17592    145.5 1.009e+04 6.116e-09
 94.19581    145.8 1.032e+04 7.083e-09
 94.21569    146.1 1.071e+04 8.715e-09
 94.23034    146.4 1.128e+04 1.133e-08
 94.24028    146.0 1.045e+04 8.272e-09
 94.25547    146.1 1.100e+04 1.043e-08
 94.27535    146.0 1.164e+04 1.323e-08
 94.29524    145.9 1.240e+04 1.681e-08
 94.31052    145.5 1.318e+04 2.105e-08
 94.32046    145.2 1.177e+04 1.519e-08
 94.33501    144.4 1.205e+04 1.651e-08
 94.34563    143.6 1.219e+04 1.776e-08
 94.35557    143.2 1.145e+04 1.579e-08
 94.37478    142.9 1.166e+04 1.740e-08
 94.39467    142.5 1.220e+04 1.936e-08
 94.41456    141.7 1.323e+04 2.319e-08
 94.43444    140.8 1.419e+04 2.970e-08
 94.45097    140.6 1.474e+04 3.830e-08
 94.46091    142.1 1.397e+04 2.816e-08
 94.47422    142.4 1.468e+04 3.636e-08
 94.48908    142.2 1.500e+04 4.107e-08
 94.49898    142.1 1.528e+04 4.571e-08
 94.50852    142.0 1.568e+04 5.359e-08
 94.51349    142.5 1.573e+04 5.358e-08
 94.51886    142.1 1.632e+04 6.551e-08
 94.52881    141.6 1.693e+04 8.227e-08
 94.53875    140.9 1.750e+04 1.041e-07
 94.54869    140.1 1.803e+04 1.326e-07
 94.55863    139.2 1.850e+04 1.723e-07
 94.56616    138.3 1.891e+04 2.289e-07
 94.57113    138.1 1.936e+04 3.573e-07
 94.57852    136.8 1.952e+04 4.688e-07
 94.58846    135.3 1.968e+04 5.281e-07
 94.59841    133.7 1.971e+04 5.206e-07
 94.60395    132.2 1.969e+04 4.644e-07
 94.60892    131.6 1.979e+04 4.609e-07
 94.61829    130.0 1.986e+04 3.305e-07
 94.62381    128.3 1.975e+04 2.456e-07
 94.62878    127.3 1.986e+04 2.423e-07
 94.63818    125.7 1.959e+04 1.963e-07
 94.64812    124.4 1.932e+04 1.721e-07
 94.65807    123.6 1.890e+04 1.645e-07
 94.66801    123.2 1.852e+04 1.629e-07
 94.67648    123.0 1.840e+04 1.637e-07
 94.68145    122.9 1.906e+04 1.791e-07
 94.68790    122.8 1.928e+04 2.034e-07
 94.69784    122.3 1.960e+04 2.459e-07
 94.70778    121.3 1.942e+04 3.358e-07
 94.71773    120.6 1.911e+04 5.075e-07
 94.72767    120.3 1.873e+04 7.869e-07
 94.73413    120.2 1.859e+04 1.053e-06
 94.73910    119.9 1.784e+04 2.872e-06
 94.74575    119.4 1.791e+04 3.245e-06
 94.75072    122.9 1.740e+04 4.825e-06
 94.75750    122.5 1.715e+04 6.838e-06
 94.76744    120.5 1.730e+04 6.829e-06
 94.77738    116.5 1.787e+04 5.194e-06
 94.78680    111.3 1.942e+04 2.123e-06
 94.79177    108.6 1.850e+04 3.741e-06
 94.79727    104.1 2.114e+04 9.547e-07
 94.80721    100.9 2.504e+04 1.540e-07
 94.81716     97.7 2.381e+04 4.362e-08
 94.82710     95.0 1.778e+04 2.642e-08
 94.83704     94.2 1.532e+04 2.561e-08
 94.85201     93.9 1.408e+04 2.498e-08
 94.87194     94.2 1.266e+04 2.115e-08
 94.88764     94.4 1.268e+04 2.144e-08
 94.89753     95.2 1.354e+04 2.700e-08
 94.90209     95.2 1.402e+04 3.007e-08
 94.90706     95.9 1.448e+04 3.529e-08
 94.91659     96.0 1.461e+04 3.658e-08
 94.92653     95.7 1.496e+04 3.937e-08
 94.93647     95.6 1.495e+04 3.942e-08
 94.94642     94.9 1.498e+04 3.880e-08
 94.95476     94.5 1.482e+04 3.723e-08
 94.95973     95.4 1.515e+04 4.000e-08
 94.97132     94.5 1.438e+04 3.093e-08
 94.99126     93.1 1.342e+04 1.990e-08
 95.00753     89.6 1.214e+04 1.076e-08
 95.01748     91.6 1.295e+04 1.445e-08
 95.03103     87.9 1.181e+04 9.766e-09
 95.05092     84.8 1.152e+04 8.979e-09
 95.07081     81.9 1.184e+04 1.011e-08
 95.09069     78.8 1.259e+04 1.319e-08
 95.11058     75.4 1.348e+04 1.717e-08
 95.12277     71.3 1.497e+04 2.215e-08
 95.12770     73.9 1.521e+04 2.208e-08
 95.13534     71.1 1.539e+04 2.426e-08
 95.14528     65.7 1.676e+04 3.349e-08
 95.15522     59.5 1.827e+04 4.763e-08
 95.16517     51.2 2.016e+04 9.054e-08
 95.17511     44.0 2.128e+04 1.790e-07
 95.18037     30.5 2.316e+04 8.181e-07
 95.18134     28.4 2.258e+04 9.600e-07
 95.18351     22.9 2.079e+04 1.786e-06
 95.18749     17.0 2.172e+04 3.139e-06
 95.19497     -0.9 1.859e+04 8.687e-06
 95.20494    -17.1 2.002e+04 4.427e-06
 95.21488    -28.5 2.430e+04 1.383e-06
 95.22483    -36.2 2.868e+04 4.149e-07
 95.23304    -44.6 2.675e+04 1.411e-07
 95.23801    -53.1 2.135e+04 1.687e-07
 95.24471    -52.5 1.961e+04 1.255e-07
 95.25466    -50.3 1.932e+04 1.064e-07
 95.26460    -48.1 1.900e+04 8.875e-08
 95.27454    -46.2 1.840e+04 7.203e-08
 95.28449    -44.3 1.758e+04 5.651e-08
 95.29069    -42.6 1.658e+04 4.374e-08
 95.29566    -43.9 1.807e+04 5.992e-08
 95.30437    -42.2 1.724e+04 4.617e-08
 95.31431    -40.7 1.639e+04 3.582e-08
 95.32287    -39.5 1.554e+04 2.902e-08
 95.32784    -39.3 1.680e+04 3.584e-08
 95.33420    -38.3 1.604e+04 2.950e-08
 95.34341    -36.9 1.393e+04 1.858e-08
 95.34838    -37.9 1.598e+04 3.007e-08
 95.35409    -37.3 1.560e+04 2.780e-08
 95.36905    -35.9 1.395e+04 2.029e-08
 95.38899    -33.7 1.248e+04 1.398e-08
 95.40887    -32.0 1.178e+04 1.149e-08
 95.42876    -30.2 1.144e+04 1.037e-08
 95.44865    -28.4 1.118e+04 9.689e-09
 95.45875    -26.6 1.099e+04 9.250e-09
 95.46492    -27.1 1.106e+04 9.428e-09
 95.47471    -26.8 1.118e+04 9.745e-09
 95.48842    -25.2 1.085e+04 8.314e-09
 95.50830    -23.5 1.064e+04 7.221e-09
 95.52819    -22.2 1.051e+04 6.356e-09
 95.54808    -21.1 1.041e+04 5.643e-09
 95.56409    -20.2 1.031e+04 5.106e-09
 95.57404    -21.4 1.051e+04 5.432e-09
 95.58785    -21.1 1.057e+04 5.262e-09
 95.60774    -21.1 1.076e+04 5.422e-09
 95.62762    -22.0 1.116e+04 6.148e-09
 95.64751    -23.8 1.168e+04 8.506e-09
 95.66739    -25.2 1.195e+04 1.295e-08
 95.67938    -25.8 1.201e+04 1.817e-08
 95.68933    -27.5 1.247e+04 2.517e-08
 95.70717    -27.4 1.209e+04 2.162e-08
 95.72705    -27.6 1.190e+04 1.859e-08
 95.74694    -28.6 1.170e+04 1.439e-08
 95.75830    -30.5 1.121e+04 1.048e-08
 95.76824    -31.4 1.104e+04 9.671e-09
 95.78473    -33.5 1.015e+04 7.452e-09
 95.79467    -36.7 9.444e+03 6.666e-09
 95.80660    -37.0 9.377e+03 6.542e-09
 95.82649    -36.9 9.389e+03 6.592e-09
 95.84637    -36.8 9.387e+03 6.650e-09
 95.86626    -36.8 9.349e+03 6.673e-09
 95.88614    -36.7 9.228e+03 6.519e-09
 95.90002    -36.6 9.060e+03 6.150e-09
 95.90996    -37.7 8.964e+03 5.686e-09
 95.92592    -37.5 8.730e+03 5.098e-09
 95.94580    -37.2 8.484e+03 4.439e-09
 95.96569    -36.9 8.223e+03 3.734e-09
 95.98558    -36.7 7.959e+03 3.079e-09
 96.00546    -36.7 7.638e+03 2.476e-09
 96.02545    -38.7 7.653e+03 2.234e-09
 96.04208    -37.5 7.145e+03 1.639e-09
 96.06197    -37.0 7.284e+03 1.892e-09
 96.09515    -36.3 7.107e+03 1.645e-09
 96.13492    -35.4 7.070e+03 1.616e-09
 96.17469    -34.5 7.159e+03 1.815e-09
 96.21446    -33.2 7.222e+03 1.957e-09
 96.23614    -31.7 7.174e+03 1.788e-09
 96.25603    -32.4 7.227e+03 1.663e-09
 96.29401    -31.0 7.075e+03 1.242e-09
 96.33378    -29.6 6.999e+03 1.077e-09
 96.37355    -28.2 6.995e+03 1.060e-09
 96.41333    -27.9 7.293e+03 1.303e-09
 96.44683    -28.4 8.398e+03 2.939e-09
 96.46672    -29.9 9.267e+03 5.348e-09
 96.49287    -29.4 1.049e+04 1.099e-08
 96.53264    -29.4 1.124e+04 1.455e-08
 96.57242    -30.7 1.122e+04 1.405e-08
 96.60926    -31.1 1.054e+04 9.296e-09
 96.62915    -31.5 1.037e+04 8.098e-09
 96.65196    -32.2 9.218e+03 3.623e-09
 96.67741    -32.8 8.340e+03 1.589e-09
 96.69730    -34.3 7.914e+03 1.088e-09
 96.73151    -33.8 7.644e+03 7.155e-10
 96.77128    -33.1 7.472e+03 5.784e-10
 96.81105    -32.0 7.422e+03 5.505e-10
 96.85083    -31.0 7.447e+03 5.521e-10
 96.88810    -30.9 7.764e+03 6.802e-10
 96.90799    -31.0 7.792e+03 7.384e-10
 96.93037    -30.9 8.169e+03 1.380e-09
 96.97014    -30.7 8.684e+03 2.600e-09
 97.00992    -30.7 9.337e+03 4.158e-09
 97.04969    -31.7 9.899e+03 5.743e-09
 97.08946    -33.3 1.016e+04 6.449e-09
 97.11858    -34.4 9.985e+03 5.732e-09
 97.12843    -33.8 9.983e+03 5.640e-09
 97.13898    -34.1 1.009e+04 5.808e-09
 97.15887    -35.2 1.013e+04 6.120e-09
 97.17875    -36.1 1.029e+04 6.707e-09
 97.19613    -37.1 1.041e+04 7.748e-09
 97.21612    -36.2 1.050e+04 7.079e-09
 97.24855    -36.9 1.061e+04 7.793e-09
 97.28832    -37.2 1.035e+04 6.517e-09
 97.32810    -37.7 9.783e+03 3.810e-09
 97.34926    -38.1 9.345e+03 2.531e-09
 97.35911    -37.9 9.437e+03 2.721e-09
 97.37762    -37.5 9.306e+03 2.635e-09
 97.40754    -37.7 9.029e+03 2.427e-09
 97.44741    -37.5 8.729e+03 2.287e-09
 97.48719    -36.5 8.500e+03 2.155e-09
 97.52696    -35.4 8.363e+03 2.099e-09
 97.55995    -34.2 8.404e+03 2.097e-09
 97.57984    -34.4 8.277e+03 2.046e-09
 97.59646    -34.0 8.291e+03 2.046e-09
 97.61625    -33.4 8.561e+03 2.341e-09
 97.63614    -32.9 8.787e+03 2.887e-09
 97.65603    -32.8 9.350e+03 3.728e-09
 97.67505    -36.4 1.348e+04 5.591e-09
 97.68499    -36.1 1.210e+04 6.960e-09
 97.69580    -44.1 1.844e+04 2.269e-08
 97.71066    -49.4 1.957e+04 5.794e-08
 97.72056    -51.9 1.918e+04 1.156e-07
 97.73050    -53.7 1.849e+04 2.196e-07
 97.73757    -54.0 1.817e+04 3.285e-07
 97.74254    -54.1 1.816e+04 2.614e-07
 97.75039    -54.4 1.796e+04 3.229e-07
 97.76033    -54.6 1.780e+04 3.283e-07
 97.77027    -54.4 1.722e+04 2.474e-07
 97.77813    -54.4 1.674e+04 1.453e-07
 97.78310    -54.2 1.699e+04 1.870e-07
 97.79016    -54.5 1.658e+04 1.173e-07
 97.79521    -55.6 1.621e+04 7.320e-08
 97.80023    -55.4 1.681e+04 1.319e-07
 97.81512    -56.5 1.591e+04 6.398e-08
 97.83500    -58.8 1.421e+04 2.478e-08
 97.85489    -61.1 1.172e+04 1.341e-08
 97.87478    -61.9 1.047e+04 1.080e-08
 97.89466    -61.9 1.029e+04 1.052e-08
 97.90563    -61.8 1.046e+04 1.118e-08
 97.91557    -62.1 1.054e+04 1.156e-08
 97.93443    -62.5 1.056e+04 1.157e-08
 97.95432    -63.1 1.063e+04 1.176e-08
 97.97421    -63.6 1.074e+04 1.228e-08
 97.99409    -64.1 1.088e+04 1.291e-08
 98.01097    -64.4 1.096e+04 1.316e-08
 98.02092    -65.4 1.163e+04 1.716e-08
 98.03387    -65.4 1.164e+04 1.728e-08
 98.05375    -65.3 1.141e+04 1.628e-08
 98.06679    -65.2 1.110e+04 1.466e-08
 98.07673    -65.6 1.187e+04 1.812e-08
 98.09352    -65.7 1.153e+04 1.651e-08
 98.11341    -65.5 1.142e+04 1.614e-08
 98.12626    -65.3 1.143e+04 1.667e-08
 98.13620    -65.4 1.165e+04 1.878e-08
 98.15318    -65.2 1.172e+04 1.922e-08
 98.17307    -65.2 1.185e+04 1.967e-08
 98.19296    -65.3 1.195e+04 1.991e-08
 98.21284    -65.8 1.205e+04 2.006e-08
 98.23161    -66.5 1.209e+04 2.003e-08
 98.24155    -66.9 1.214e+04 2.043e-08
 98.25262    -67.6 1.216e+04 1.981e-08
 98.27250    -68.1 1.201e+04 1.831e-08
 98.29239    -68.5 1.171e+04 1.590e-08
 98.31227    -68.6 1.133e+04 1.329e-08
 98.33216    -68.6 1.097e+04 1.111e-08
 98.34690    -68.5 1.068e+04 9.592e-09
 98.35517    -68.2 1.067e+04 9.972e-09
 98.36032    -68.6 1.084e+04 1.049e-08
 98.37193    -67.9 1.063e+04 9.228e-09
 98.39182    -67.3 1.053e+04 8.403e-09
 98.41171    -66.6 1.045e+04 7.649e-09
 98.43159    -65.8 1.036e+04 6.832e-09
 98.45148    -65.1 1.027e+04 5.980e-09
 98.46219    -64.4 1.019e+04 5.152e-09
 98.47213    -64.2 1.012e+04 4.770e-09
 98.49125    -63.4 1.007e+04 4.045e-09
 98.51114    -62.6 1.005e+04 3.430e-09
 98.53102    -61.9 1.005e+04 2.915e-09
 98.55091    -61.0 1.006e+04 2.488e-09
 98.56753    -60.2 1.011e+04 2.197e-09
 98.57748    -60.0 1.003e+04 2.236e-09
 98.59068    -59.2 1.010e+04 2.114e-09
 98.61057    -58.6 1.016e+04 2.076e-09
 98.64050    -58.4 1.018e+04 2.010e-09
 98.67307    -57.5 1.021e+04 2.347e-09
 98.69296    -57.2 1.028e+04 3.048e-09
 98.72014    -56.8 1.053e+04 4.765e-09
 98.75991    -56.7 1.069e+04 6.393e-09
 98.79968    -56.8 1.078e+04 6.905e-09
 98.83946    -56.8 1.055e+04 6.438e-09
 98.86919    -56.8 1.001e+04 4.542e-09
 98.88898    -56.0 9.796e+03 3.553e-09
 98.90346    -55.6 9.615e+03 2.792e-09
 98.92219    -54.5 9.426e+03 2.318e-09
 98.93764    -56.6 9.361e+03 2.078e-09
 98.95877    -56.0 9.101e+03 1.622e-09
 98.99855    -54.7 8.904e+03 1.402e-09
 99.03832    -53.6 8.821e+03 1.312e-09
 99.07809    -52.6 8.696e+03 1.170e-09
 99.11435    -51.6 8.592e+03 9.951e-10
 99.13423    -50.8 8.448e+03 9.726e-10
 99.15764    -49.8 8.373e+03 8.240e-10
 99.19741    -48.8 8.343e+03 7.308e-10
 99.23718    -47.7 8.309e+03 6.886e-10
 99.27696    -46.4 8.284e+03 6.786e-10
 99.31673    -45.0 8.278e+03 6.804e-10
 99.34493    -43.5 8.290e+03 6.939e-10
 99.36481    -42.5 8.277e+03 7.233e-10
 99.39627    -41.0 8.334e+03 7.676e-10
 99.43605    -39.4 8.403e+03 8.921e-10
 99.47582    -37.7 8.467e+03 1.083e-09
 99.50482    -35.7 8.549e+03 1.288e-09
 99.52471    -36.1 8.589e+03 1.336e-09
 99.55536    -34.0 8.630e+03 1.389e-09
 99.57550    -32.0 8.625e+03 1.386e-09
 99.59539    -31.3 8.595e+03 1.341e-09
 99.63491    -29.1 8.559e+03 1.226e-09
 99.67468    -26.8 8.527e+03 1.092e-09
 99.71445    -24.4 8.500e+03 9.888e-10
 99.75423    -22.0 8.484e+03 9.244e-10
 99.78620    -19.5 8.491e+03 8.819e-10
 99.80608    -19.0 8.475e+03 8.680e-10
 99.83377    -16.6 8.499e+03 8.332e-10
 99.87354    -14.2 8.531e+03 8.150e-10
 99.91332    -11.8 8.584e+03 8.146e-10
 99.95309     -9.6 8.648e+03 8.378e-10
 99.99286     -7.4 8.654e+03 8.993e-10
