# Columns:
#   distance along LOS (in CHIMPs)
#   peculiar velocity  (in km/s)
#   temperature (K)
#   HI number density
# pos=(237.173,8.41271,153.731), angles=(1.37457,0.0324993)
  0.00627    151.8 1.620e+04 8.132e-08
  0.01393    150.8 1.589e+04 7.106e-08
  0.02389    150.0 1.566e+04 6.453e-08
  0.04242    149.7 1.490e+04 4.370e-08
  0.06235    149.3 1.415e+04 2.792e-08
  0.08227    148.7 1.358e+04 1.886e-08
  0.10220    148.3 1.321e+04 1.433e-08
  0.11383    148.0 1.296e+04 1.174e-08
  0.12379    147.5 1.291e+04 1.068e-08
  0.15210    147.3 1.270e+04 8.589e-09
  0.19205    147.2 1.231e+04 6.071e-09
  0.21383    147.1 1.216e+04 5.240e-09
  0.23375    147.5 1.209e+04 4.885e-09
  0.27174    148.9 1.201e+04 4.674e-09
  0.30153    149.4 1.199e+04 4.746e-09
  0.31363    150.1 1.198e+04 4.896e-09
  0.32359    150.4 1.205e+04 4.997e-09
  0.34128    151.2 1.210e+04 5.348e-09
  0.36121    152.1 1.219e+04 5.856e-09
  0.38113    152.9 1.234e+04 6.529e-09
  0.40105    153.3 1.254e+04 7.300e-09
  0.41353    153.3 1.310e+04 8.806e-09
  0.42210    154.6 1.270e+04 7.831e-09
  0.42955    154.0 1.299e+04 9.412e-09
  0.44090    154.1 1.369e+04 1.134e-08
  0.46083    154.0 1.460e+04 1.636e-08
  0.48075    153.9 1.530e+04 2.567e-08
  0.50067    153.9 1.571e+04 3.935e-08
  0.51342    154.3 1.604e+04 5.478e-08
  0.52339    155.9 1.516e+04 2.568e-08
  0.54052    156.3 1.548e+04 3.754e-08
  0.56045    156.8 1.585e+04 5.308e-08
  0.58037    157.3 1.643e+04 7.203e-08
  0.60029    157.7 1.711e+04 8.978e-08
  0.61332    157.9 1.743e+04 1.029e-07
  0.62329    159.1 1.673e+04 8.452e-08
  0.64014    158.9 1.727e+04 9.607e-08
  0.66007    158.5 1.738e+04 9.286e-08
  0.67999    157.8 1.723e+04 8.309e-08
  0.69991    157.2 1.691e+04 6.932e-08
  0.71322    156.6 1.639e+04 5.545e-08
  0.72318    157.8 1.622e+04 5.789e-08
  0.73976    157.4 1.571e+04 4.805e-08
  0.75968    157.3 1.511e+04 3.955e-08
  0.77961    157.4 1.457e+04 3.346e-08
  0.79953    157.8 1.414e+04 2.954e-08
  0.81312    158.3 1.383e+04 2.676e-08
  0.82308    159.3 1.393e+04 2.806e-08
  0.83938    159.9 1.363e+04 2.529e-08
  0.85930    160.7 1.338e+04 2.346e-08
  0.87923    161.7 1.313e+04 2.283e-08
  0.89915    162.9 1.312e+04 2.292e-08
  0.91302    164.1 1.315e+04 2.366e-08
  0.92298    164.3 1.290e+04 2.117e-08
  0.93900    165.2 1.300e+04 2.264e-08
  0.95892    166.0 1.334e+04 2.616e-08
  0.97885    166.6 1.381e+04 3.126e-08
  0.99877    166.8 1.422e+04 3.570e-08
  1.01292    166.8 1.434e+04 3.610e-08
  1.02288    166.8 1.333e+04 2.177e-08
  1.03483    166.6 1.325e+04 2.008e-08
  1.04479    167.3 1.393e+04 2.909e-08
  1.05854    167.1 1.366e+04 2.458e-08
  1.07847    167.2 1.315e+04 1.819e-08
  1.09839    167.4 1.255e+04 1.220e-08
  1.11282    167.5 1.199e+04 7.789e-09
  1.12278    167.5 1.139e+04 6.630e-09
  1.13824    167.8 1.109e+04 4.816e-09
  1.15816    168.0 1.092e+04 3.647e-09
  1.17809    168.4 1.083e+04 3.309e-09
  1.19801    169.1 1.082e+04 3.340e-09
  1.21272    170.1 1.084e+04 3.443e-09
  1.22268    170.9 1.057e+04 2.882e-09
  1.23786    171.9 1.057e+04 2.934e-09
  1.25778    172.9 1.061e+04 3.078e-09
  1.27771    173.9 1.064e+04 3.276e-09
  1.29763    174.9 1.065e+04 3.445e-09
  1.31262    175.9 1.065e+04 3.578e-09
  1.32258    176.7 1.063e+04 3.492e-09
  1.33748    177.7 1.066e+04 3.638e-09
  1.35740    178.6 1.067e+04 3.725e-09
  1.37733    179.6 1.068e+04 3.780e-09
  1.39725    180.6 1.071e+04 3.849e-09
  1.41252    181.4 1.074e+04 3.943e-09
  1.42248    181.9 1.091e+04 4.235e-09
  1.43710    182.7 1.096e+04 4.425e-09
  1.45702    183.5 1.102e+04 4.630e-09
  1.47695    184.1 1.107e+04 4.787e-09
  1.49687    184.6 1.109e+04 4.834e-09
  1.51241    185.0 1.109e+04 4.811e-09
  1.52238    185.1 1.165e+04 6.783e-09
  1.53672    185.4 1.166e+04 6.568e-09
  1.55664    185.6 1.162e+04 6.012e-09
  1.57656    185.8 1.148e+04 5.169e-09
  1.59649    185.9 1.127e+04 4.210e-09
  1.61231    186.1 1.102e+04 3.376e-09
  1.62227    185.9 1.200e+04 6.027e-09
  1.63634    185.9 1.163e+04 4.429e-09
  1.65007    185.9 1.129e+04 3.511e-09
  1.66003    185.0 1.089e+04 2.926e-09
  1.67618    185.4 1.076e+04 2.885e-09
  1.69611    185.9 1.074e+04 2.911e-09
  1.71221    186.5 1.071e+04 3.000e-09
  1.72217    186.1 1.157e+04 6.211e-09
  1.73596    186.7 1.156e+04 6.493e-09
  1.75588    187.3 1.161e+04 6.918e-09
  1.77580    187.5 1.167e+04 7.252e-09
  1.79573    187.5 1.170e+04 7.415e-09
  1.81211    187.4 1.171e+04 7.541e-09
  1.82207    187.2 1.298e+04 1.662e-08
  1.83558    186.8 1.295e+04 1.555e-08
  1.85550    186.0 1.271e+04 1.265e-08
  1.87542    185.3 1.230e+04 9.849e-09
  1.90541    183.9 1.208e+04 7.342e-09
  1.94535    182.3 1.138e+04 4.306e-09
  1.98520    181.6 1.102e+04 3.489e-09
  2.01210    181.2 1.097e+04 3.438e-09
  2.03203    180.9 1.107e+04 3.490e-09
  2.06490    181.0 1.099e+04 3.636e-09
  2.10474    180.8 1.092e+04 3.926e-09
  2.14459    180.4 1.094e+04 4.038e-09
  2.18444    179.7 1.091e+04 3.930e-09
  2.21190    179.2 1.075e+04 3.365e-09
  2.23183    180.2 1.105e+04 4.433e-09
  2.26413    180.1 1.080e+04 3.160e-09
  2.30398    180.2 1.058e+04 1.883e-09
  2.34383    180.3 1.036e+04 1.108e-09
  2.38368    180.7 1.016e+04 9.807e-10
  2.41170    181.7 1.014e+04 9.900e-10
  2.43162    182.8 1.017e+04 1.033e-09
  2.46337    184.1 1.010e+04 1.094e-09
  2.50322    185.5 1.003e+04 1.304e-09
  2.54307    186.8 1.000e+04 1.634e-09
  2.58292    188.0 1.002e+04 1.969e-09
  2.61150    189.0 9.963e+03 2.123e-09
  2.63142    190.1 1.009e+04 2.316e-09
  2.66261    190.6 1.006e+04 2.281e-09
  2.70246    191.1 9.963e+03 2.117e-09
  2.74231    191.6 9.793e+03 1.896e-09
  2.78216    192.0 9.608e+03 1.794e-09
  2.81130    192.6 9.578e+03 1.804e-09
  2.83122    192.8 9.568e+03 1.863e-09
  2.86082    193.0 9.545e+03 1.917e-09
  2.88075    192.8 9.578e+03 2.020e-09
  2.90170    192.7 9.524e+03 2.218e-09
  2.94155    192.5 9.505e+03 2.511e-09
  2.98140    192.0 9.531e+03 2.747e-09
  3.01109    191.2 9.536e+03 2.745e-09
  3.03102    190.2 9.373e+03 2.260e-09
  3.06109    189.2 9.255e+03 1.791e-09
  3.10094    188.1 9.062e+03 1.227e-09
  3.14079    187.2 8.710e+03 8.568e-10
  3.18063    186.6 8.519e+03 8.229e-10
  3.21089    186.2 8.491e+03 8.881e-10
  3.23081    186.2 8.437e+03 8.423e-10
  3.26033    185.9 8.497e+03 1.184e-09
  3.30018    185.4 8.805e+03 1.898e-09
  3.32065    184.7 8.974e+03 2.432e-09
  3.33052    184.8 8.987e+03 2.403e-09
  3.34979    184.5 9.153e+03 2.975e-09
  3.36972    184.0 9.499e+03 4.209e-09
  3.38964    183.5 9.893e+03 5.953e-09
  3.40956    182.9 1.025e+04 7.803e-09
  3.42046    182.2 1.054e+04 9.376e-09
  3.43042    182.6 1.058e+04 9.153e-09
  3.44941    181.7 1.078e+04 9.923e-09
  3.46934    180.8 1.085e+04 9.983e-09
  3.48583    179.8 1.085e+04 9.936e-09
  3.49579    179.5 1.137e+04 1.277e-08
  3.50918    178.5 1.129e+04 1.244e-08
  3.52035    177.9 1.104e+04 1.122e-08
  3.53032    178.2 1.095e+04 1.013e-08
  3.54903    178.0 1.061e+04 8.761e-09
  3.56896    177.9 1.021e+04 6.988e-09
  3.58888    177.9 9.843e+03 5.533e-09
  3.61039    178.3 9.488e+03 4.138e-09
  3.63041    179.1 9.493e+03 3.756e-09
  3.65881    179.6 9.296e+03 3.242e-09
  3.69866    180.3 9.149e+03 2.982e-09
  3.73850    181.2 9.106e+03 2.827e-09
  3.77835    182.0 9.102e+03 2.757e-09
  3.81028    182.5 9.123e+03 2.742e-09
  3.83011    182.9 9.174e+03 3.115e-09
  3.84789    183.6 9.189e+03 3.197e-09
  3.86781    184.5 9.322e+03 3.548e-09
  3.88774    185.0 9.572e+03 4.158e-09
  3.90766    185.0 9.837e+03 5.024e-09
  3.91995    185.0 1.013e+04 6.227e-09
  3.92991    185.2 1.025e+04 6.941e-09
  3.94751    185.1 1.056e+04 8.501e-09
  3.96743    184.9 1.095e+04 1.051e-08
  3.98736    184.7 1.135e+04 1.284e-08
  4.00728    184.3 1.174e+04 1.528e-08
  4.01985    183.8 1.203e+04 1.733e-08
  4.02981    183.7 1.199e+04 1.643e-08
  4.04713    183.0 1.220e+04 1.772e-08
  4.06705    182.3 1.240e+04 1.879e-08
  4.08698    181.3 1.272e+04 2.088e-08
  4.10107    180.0 1.327e+04 2.579e-08
  4.11103    179.7 1.337e+04 2.745e-08
  4.11975    178.0 1.416e+04 3.715e-08
  4.12971    177.1 1.416e+04 3.659e-08
  4.14675    175.2 1.486e+04 4.754e-08
  4.16667    173.0 1.513e+04 4.994e-08
  4.18660    170.9 1.508e+04 4.823e-08
  4.20652    169.1 1.475e+04 4.039e-08
  4.21965    167.7 1.416e+04 2.985e-08
  4.22961    167.0 1.360e+04 2.197e-08
  4.24637    165.8 1.302e+04 1.621e-08
  4.26629    164.9 1.277e+04 1.350e-08
  4.28622    164.4 1.285e+04 1.284e-08
  4.30614    163.6 1.284e+04 1.238e-08
  4.33612    161.9 1.269e+04 1.133e-08
  4.37607    161.0 1.259e+04 1.044e-08
  4.40968    160.5 1.249e+04 8.783e-09
  4.42960    159.3 1.264e+04 1.142e-08
  4.45576    159.0 1.260e+04 1.027e-08
  4.49561    159.0 1.237e+04 8.197e-09
  4.53546    159.3 1.208e+04 6.029e-09
  4.57531    159.9 1.191e+04 4.626e-09
  4.60948    160.7 1.186e+04 3.864e-09
  4.62940    158.9 1.155e+04 3.363e-09
  4.65500    159.7 1.153e+04 2.970e-09
  4.69485    160.4 1.160e+04 2.750e-09
  4.73470    161.0 1.160e+04 2.793e-09
  4.77455    161.6 1.159e+04 2.982e-09
  4.80927    162.2 1.152e+04 3.223e-09
  4.82920    161.3 1.155e+04 2.457e-09
  4.85424    162.2 1.143e+04 2.541e-09
  4.89409    163.2 1.126e+04 2.657e-09
  4.93394    164.3 1.108e+04 2.788e-09
  4.97379    165.8 1.096e+04 2.897e-09
  5.00907    167.1 1.084e+04 3.020e-09
  5.02899    166.8 1.094e+04 2.785e-09
  5.04342    167.4 1.083e+04 3.104e-09
  5.06325    167.9 1.078e+04 3.345e-09
  5.09323    168.8 1.083e+04 4.155e-09
  5.13318    168.8 1.098e+04 5.793e-09
  5.17302    168.5 1.117e+04 7.566e-09
  5.20887    167.4 1.151e+04 1.029e-08
  5.22879    166.8 1.085e+04 6.640e-09
  5.25272    164.9 1.075e+04 6.454e-09
  5.29257    162.7 1.046e+04 6.092e-09
  5.32179    161.1 9.954e+03 5.297e-09
  5.34171    158.7 9.720e+03 5.087e-09
  5.37226    157.9 9.177e+03 4.271e-09
  5.40867    157.9 8.875e+03 4.032e-09
  5.42859    160.0 8.988e+03 4.046e-09
  5.45196    160.0 9.025e+03 4.236e-09
  5.49181    160.0 9.318e+03 5.274e-09
  5.53166    160.1 9.997e+03 7.641e-09
  5.57150    160.1 1.057e+04 1.008e-08
  5.60846    159.9 1.069e+04 1.039e-08
  5.62839    161.0 1.126e+04 1.304e-08
  5.65120    161.1 1.114e+04 1.198e-08
  5.69105    161.5 1.064e+04 9.234e-09
  5.73089    162.3 9.898e+03 6.283e-09
  5.77074    163.4 9.137e+03 4.356e-09
  5.80826    164.9 8.889e+03 3.390e-09
  5.82819    166.0 9.316e+03 4.112e-09
  5.85044    167.8 9.314e+03 3.605e-09
  5.89029    169.8 9.346e+03 3.559e-09
  5.93013    172.0 9.367e+03 3.605e-09
  5.96998    174.1 9.412e+03 3.817e-09
  6.00806    176.7 9.575e+03 4.103e-09
  6.02798    177.4 9.693e+03 4.151e-09
  6.04968    180.0 1.005e+04 4.809e-09
  6.07946    180.8 1.012e+04 4.875e-09
  6.09929    181.4 1.011e+04 4.837e-09
  6.11773    182.5 1.008e+04 4.574e-09
  6.12769    183.2 1.029e+04 5.751e-09
  6.13914    184.2 1.027e+04 5.612e-09
  6.15906    185.2 1.025e+04 5.290e-09
  6.17899    186.2 1.022e+04 4.897e-09
  6.19891    187.3 1.019e+04 4.463e-09
  6.21762    188.2 1.016e+04 4.002e-09
  6.22759    189.3 1.047e+04 5.615e-09
  6.23876    190.2 1.043e+04 5.025e-09
  6.25868    191.1 1.042e+04 4.410e-09
  6.27861    192.0 1.047e+04 3.851e-09
  6.29853    192.8 1.054e+04 3.481e-09
  6.31752    193.6 1.064e+04 3.338e-09
  6.32749    194.4 1.084e+04 4.198e-09
  6.33838    195.1 1.085e+04 3.934e-09
  6.35830    195.9 1.084e+04 3.963e-09
  6.37823    196.8 1.081e+04 4.124e-09
  6.39815    197.7 1.079e+04 4.490e-09
  6.41742    198.7 1.081e+04 5.073e-09
  6.42738    199.1 1.078e+04 4.968e-09
  6.43800    200.0 1.080e+04 5.514e-09
  6.45792    201.0 1.086e+04 6.286e-09
  6.47785    202.0 1.095e+04 7.247e-09
  6.49777    203.0 1.108e+04 8.361e-09
  6.51732    204.1 1.124e+04 9.618e-09
  6.52728    204.4 1.106e+04 8.581e-09
  6.53762    205.3 1.125e+04 9.921e-09
  6.55207    206.3 1.145e+04 1.139e-08
  6.56203    206.1 1.118e+04 8.687e-09
  6.57746    207.1 1.131e+04 9.426e-09
  6.59739    208.0 1.138e+04 9.914e-09
  6.61722    209.0 1.138e+04 9.957e-09
  6.63714    210.3 1.115e+04 9.095e-09
  6.65716    211.3 1.109e+04 9.023e-09
  6.67708    212.4 1.100e+04 8.880e-09
  6.69701    213.6 1.094e+04 8.833e-09
  6.71693    214.7 1.094e+04 8.866e-09
  6.72708    215.8 1.095e+04 9.157e-09
  6.73704    216.4 1.075e+04 8.339e-09
  6.75678    217.5 1.087e+04 9.138e-09
  6.77670    218.5 1.106e+04 1.038e-08
  6.79663    219.6 1.127e+04 1.195e-08
  6.81655    220.7 1.148e+04 1.366e-08
  6.82698    221.7 1.167e+04 1.529e-08
  6.83694    222.4 1.169e+04 1.481e-08
  6.85640    223.5 1.195e+04 1.679e-08
  6.87632    224.3 1.232e+04 1.927e-08
  6.89625    225.1 1.288e+04 2.306e-08
  6.91617    225.9 1.352e+04 2.773e-08
  6.92683    226.3 1.376e+04 3.008e-08
  6.93679    227.7 1.399e+04 3.123e-08
  6.95099    227.6 1.434e+04 3.488e-08
  6.96090    227.5 1.506e+04 4.071e-08
  6.97086    227.1 1.656e+04 5.197e-08
  6.97673    226.3 1.860e+04 7.640e-08
  6.98171    227.8 1.747e+04 6.102e-08
  6.99079    226.8 1.927e+04 9.367e-08
  7.00075    225.8 1.993e+04 2.025e-07
  7.01071    225.1 1.930e+04 5.759e-07
  7.02067    224.6 1.838e+04 1.739e-06
  7.02668    223.7 1.751e+04 4.884e-06
  7.03166    224.9 1.791e+04 2.645e-06
  7.04060    224.0 1.718e+04 6.481e-06
  7.05056    222.8 1.674e+04 1.102e-05
  7.06052    221.0 1.671e+04 1.216e-05
  7.07048    218.8 1.693e+04 1.000e-05
  7.07663    216.4 1.793e+04 4.531e-06
  7.08161    219.0 1.756e+04 6.025e-06
  7.09041    216.5 1.905e+04 2.205e-06
  7.10037    212.8 2.197e+04 4.631e-07
  7.11033    206.3 2.556e+04 7.795e-08
  7.12029    200.1 2.044e+04 4.360e-08
  7.12663    195.7 1.890e+04 4.139e-08
  7.13161    199.8 2.137e+04 4.084e-08
  7.14022    196.6 2.030e+04 3.121e-08
  7.15521    192.3 1.807e+04 2.425e-08
  7.16731    185.2 1.298e+04 2.450e-08
  7.17728    184.0 1.295e+04 2.190e-08
  7.19511    181.6 1.282e+04 2.112e-08
  7.21503    179.7 1.269e+04 1.995e-08
  7.22658    177.9 1.240e+04 1.763e-08
  7.23654    176.8 1.196e+04 1.481e-08
  7.25488    175.1 1.161e+04 1.310e-08
  7.27480    173.6 1.126e+04 1.167e-08
  7.29473    172.7 1.111e+04 1.130e-08
  7.31465    172.1 1.111e+04 1.134e-08
  7.32647    171.7 1.117e+04 1.159e-08
  7.33644    170.8 1.112e+04 1.144e-08
  7.35450    170.6 1.122e+04 1.197e-08
  7.37442    170.3 1.137e+04 1.282e-08
  7.39434    170.2 1.152e+04 1.390e-08
  7.41427    170.2 1.168e+04 1.505e-08
  7.42637    170.3 1.172e+04 1.570e-08
  7.43634    170.0 1.172e+04 1.576e-08
  7.45412    170.3 1.168e+04 1.558e-08
  7.47404    170.6 1.153e+04 1.465e-08
  7.49396    170.9 1.131e+04 1.322e-08
  7.51389    171.0 1.105e+04 1.164e-08
  7.52627    171.1 1.079e+04 1.022e-08
  7.53623    171.0 1.102e+04 1.140e-08
  7.55374    171.0 1.085e+04 1.045e-08
  7.57366    171.0 1.085e+04 1.026e-08
  7.59358    171.1 1.088e+04 1.029e-08
  7.61351    171.1 1.100e+04 1.044e-08
  7.62617    171.0 1.111e+04 1.061e-08
  7.63613    170.8 1.150e+04 1.277e-08
  7.65336    170.8 1.152e+04 1.259e-08
  7.67328    170.8 1.147e+04 1.204e-08
  7.69320    170.8 1.133e+04 1.133e-08
  7.71313    170.8 1.112e+04 1.030e-08
  7.72607    170.8 1.094e+04 9.561e-09
  7.73603    170.6 1.103e+04 9.987e-09
  7.75298    170.7 1.080e+04 9.088e-09
  7.77259    171.0 1.062e+04 8.464e-09
  7.78255    171.1 1.039e+04 7.364e-09
  7.79282    171.5 1.026e+04 7.038e-09
  7.81275    172.0 1.012e+04 6.708e-09
  7.82597    172.6 9.986e+03 6.345e-09
  7.83593    172.8 9.887e+03 6.072e-09
  7.85259    173.6 9.810e+03 5.893e-09
  7.87252    174.6 9.805e+03 5.883e-09
  7.89244    175.7 9.826e+03 5.965e-09
  7.91237    176.7 9.896e+03 6.190e-09
  7.92587    177.8 9.989e+03 6.536e-09
  7.93583    178.2 1.008e+04 6.641e-09
  7.95221    179.3 1.027e+04 7.334e-09
  7.97214    180.3 1.054e+04 8.357e-09
  7.99206    181.3 1.090e+04 9.917e-09
  8.01199    182.2 1.141e+04 1.239e-08
  8.02577    183.0 1.209e+04 1.637e-08
  8.03573    183.2 1.218e+04 1.683e-08
  8.05183    184.0 1.292e+04 2.211e-08
  8.07176    184.6 1.382e+04 2.997e-08
  8.09168    185.2 1.465e+04 4.030e-08
  8.11161    185.6 1.523e+04 5.097e-08
  8.12567    186.2 1.566e+04 6.028e-08
  8.13563    186.9 1.539e+04 5.054e-08
  8.15145    187.8 1.592e+04 6.107e-08
  8.17138    188.5 1.656e+04 7.404e-08
  8.18627    188.7 1.699e+04 8.247e-08
  8.19618    189.0 1.743e+04 9.648e-08
  8.20615    189.3 1.795e+04 1.162e-07
  8.21611    189.6 1.821e+04 1.405e-07
  8.22547    189.7 1.867e+04 1.630e-07
  8.23045    189.6 1.918e+04 1.857e-07
  8.23603    189.6 1.958e+04 2.626e-07
  8.24599    189.4 1.981e+04 4.286e-07
  8.25596    188.8 1.962e+04 8.270e-07
  8.26592    186.9 1.923e+04 1.561e-06
  8.27542    183.3 1.909e+04 2.116e-06
  8.28040    184.2 1.834e+04 3.842e-06
  8.28584    179.3 1.844e+04 3.643e-06
  8.29580    175.3 1.883e+04 2.484e-06
  8.30577    172.9 1.962e+04 1.146e-06
  8.31573    171.2 2.048e+04 4.787e-07
  8.32537    169.9 2.080e+04 2.577e-07
  8.33035    169.3 2.103e+04 1.827e-07
  8.33565    167.9 2.055e+04 1.390e-07
  8.35064    167.4 1.974e+04 1.104e-07
  8.37062    167.8 1.881e+04 1.070e-07
  8.38783    168.7 1.835e+04 1.060e-07
  8.39780    169.0 1.849e+04 1.179e-07
  8.41046    170.0 1.846e+04 1.202e-07
  8.42536    170.8 1.867e+04 1.230e-07
  8.43532    170.0 1.838e+04 8.596e-08
  8.45031    170.4 1.864e+04 8.822e-08
  8.47024    171.0 1.889e+04 9.306e-08
  8.49016    171.4 1.901e+04 9.620e-08
  8.51008    170.9 1.943e+04 1.103e-07
  8.52498    169.6 2.004e+04 8.989e-08
  8.53014    168.0 2.062e+04 9.590e-08
  8.53517    167.5 1.917e+04 1.961e-08
  8.54993    163.6 1.971e+04 1.665e-08
  8.56483    157.9 1.972e+04 2.862e-08
  8.57474    154.0 1.961e+04 4.723e-08
  8.58009    150.9 2.196e+04 6.500e-08
  8.58508    151.6 1.799e+04 3.004e-08
  8.59466    148.7 1.979e+04 8.793e-08
  8.60462    144.9 1.962e+04 4.150e-07
  8.61459    141.6 1.928e+04 1.069e-06
  8.62455    138.5 1.939e+04 1.280e-06
  8.63004    135.9 1.959e+04 1.086e-06
  8.63502    137.9 1.929e+04 8.084e-07
  8.64447    136.2 1.951e+04 6.061e-07
  8.65443    134.5 2.007e+04 3.414e-07
  8.66440    132.3 2.074e+04 1.866e-07
  8.67436    129.2 2.106e+04 1.179e-07
  8.67999    126.1 2.064e+04 9.478e-08
  8.68497    128.9 2.080e+04 8.709e-08
  8.69428    125.3 2.054e+04 7.288e-08
  8.70034    122.7 2.025e+04 7.598e-08
  8.70532    124.2 1.995e+04 1.066e-07
  8.71421    121.2 1.958e+04 1.408e-07
  8.72417    118.5 1.926e+04 2.995e-07
  8.72994    115.9 1.900e+04 7.375e-07
  8.73492    117.9 1.952e+04 2.606e-07
  8.74409    115.3 1.929e+04 5.375e-07
  8.75405    112.8 1.926e+04 8.094e-07
  8.76402    110.3 1.949e+04 8.432e-07
  8.77398    108.1 1.984e+04 6.595e-07
  8.77989    105.9 2.012e+04 4.271e-07
  8.78487    108.5 2.012e+04 4.093e-07
  8.79390    106.6 2.007e+04 2.933e-07
  8.80386    105.4 1.977e+04 1.885e-07
  8.81383    104.3 1.924e+04 1.380e-07
  8.82491    100.7 1.742e+04 7.345e-08
  8.83492    105.4 1.867e+04 1.106e-07
  8.84879    103.2 1.680e+04 6.147e-08
  8.86871    101.7 1.459e+04 3.337e-08
  8.88864    101.2 1.276e+04 2.042e-08
  8.90856    101.6 1.157e+04 1.388e-08
  8.92486    102.6 1.102e+04 1.028e-08
  8.93482    104.5 1.151e+04 1.302e-08
  8.94841    105.4 1.103e+04 9.830e-09
  8.96833    106.6 1.076e+04 7.836e-09
  8.98826    107.7 1.054e+04 6.395e-09
  9.00307    108.8 1.033e+04 5.438e-09
  9.01304    108.5 1.034e+04 5.383e-09
  9.02476    109.7 1.019e+04 5.056e-09
  9.03472    110.9 1.041e+04 5.647e-09
  9.04803    111.9 1.030e+04 5.576e-09
  9.06795    112.9 1.032e+04 5.699e-09
  9.08788    113.8 1.042e+04 6.269e-09
  9.10780    114.3 1.069e+04 7.620e-09
  9.12465    114.5 1.108e+04 1.001e-08
  9.13462    115.5 1.090e+04 9.263e-09
  9.14765    115.5 1.134e+04 1.217e-08
  9.16757    115.4 1.192e+04 1.633e-08
  9.18750    115.2 1.243e+04 2.074e-08
  9.20742    114.7 1.274e+04 2.324e-08
  9.22455    113.6 1.287e+04 2.375e-08
  9.23452    114.4 1.293e+04 2.463e-08
  9.24727    112.8 1.312e+04 2.600e-08
  9.26719    110.6 1.335e+04 2.805e-08
  9.28712    108.3 1.364e+04 3.213e-08
  9.30704    106.3 1.397e+04 3.697e-08
  9.32445    104.7 1.425e+04 3.961e-08
  9.33441    105.7 1.411e+04 3.786e-08
  9.34689    104.2 1.409e+04 3.705e-08
  9.36681    102.6 1.402e+04 3.483e-08
  9.38674    101.2 1.396e+04 3.310e-08
  9.40666    100.1 1.389e+04 3.240e-08
  9.42435     99.4 1.380e+04 3.194e-08
  9.43431    100.7 1.327e+04 2.718e-08
  9.44651    100.7 1.315e+04 2.659e-08
  9.46643    100.9 1.298e+04 2.509e-08
  9.48635    101.2 1.273e+04 2.274e-08
  9.50628    101.5 1.244e+04 2.013e-08
  9.52425    101.8 1.218e+04 1.791e-08
  9.53421    102.8 1.180e+04 1.551e-08
  9.54613    103.1 1.167e+04 1.473e-08
  9.56605    103.6 1.162e+04 1.424e-08
  9.58597    104.2 1.169e+04 1.434e-08
  9.60590    104.6 1.194e+04 1.509e-08
  9.61832    104.6 1.240e+04 1.746e-08
  9.62660    103.2 1.270e+04 2.173e-08
  9.63411    104.5 1.223e+04 1.830e-08
  9.64575    104.7 1.268e+04 2.209e-08
  9.66567    104.8 1.322e+04 2.728e-08
  9.68559    105.1 1.370e+04 3.376e-08
  9.70552    105.5 1.371e+04 3.721e-08
  9.72405    106.1 1.356e+04 3.392e-08
  9.73401    107.0 1.343e+04 3.181e-08
  9.74537    107.4 1.312e+04 2.782e-08
  9.76529    107.6 1.268e+04 2.296e-08
  9.78521    107.6 1.218e+04 1.808e-08
  9.80514    107.4 1.168e+04 1.426e-08
  9.82395    107.1 1.132e+04 1.195e-08
  9.83391    107.8 1.151e+04 1.324e-08
  9.84499    107.5 1.128e+04 1.115e-08
  9.86491    107.1 1.115e+04 9.901e-09
  9.88483    106.8 1.114e+04 9.605e-09
  9.90476    106.5 1.119e+04 9.702e-09
  9.92385    106.1 1.136e+04 1.021e-08
  9.93381    105.8 1.137e+04 1.033e-08
  9.94460    105.3 1.158e+04 1.108e-08
  9.96453    105.0 1.181e+04 1.185e-08
  9.98445    104.6 1.206e+04 1.242e-08
 10.00438    104.2 1.229e+04 1.263e-08
 10.02375    103.8 1.249e+04 1.266e-08
 10.03371    103.4 1.225e+04 1.063e-08
 10.04422    103.0 1.233e+04 1.052e-08
 10.06415    102.6 1.242e+04 1.071e-08
 10.08407    102.2 1.255e+04 1.148e-08
 10.10400    101.8 1.268e+04 1.283e-08
 10.12364    101.4 1.281e+04 1.458e-08
 10.13361    101.4 1.254e+04 1.260e-08
 10.14384    101.1 1.274e+04 1.483e-08
 10.16377    100.8 1.290e+04 1.692e-08
 10.18369    100.5 1.301e+04 1.832e-08
 10.20362    100.2 1.306e+04 1.887e-08
 10.22354     99.9 1.305e+04 1.888e-08
 10.24346     99.0 1.306e+04 1.950e-08
 10.26339     98.6 1.299e+04 1.910e-08
 10.28331     98.2 1.285e+04 1.823e-08
 10.30323     97.9 1.266e+04 1.653e-08
 10.32316     97.4 1.254e+04 1.483e-08
 10.33340     96.7 1.246e+04 1.360e-08
 10.34337     96.3 1.247e+04 1.379e-08
 10.36301     95.3 1.226e+04 1.203e-08
 10.38293     94.2 1.199e+04 1.028e-08
 10.40285     93.1 1.164e+04 8.510e-09
 10.42278     92.2 1.123e+04 6.944e-09
 10.43330     91.3 1.088e+04 5.778e-09
 10.44326     90.4 1.068e+04 5.458e-09
 10.46263     89.8 1.056e+04 5.174e-09
 10.48255     89.3 1.049e+04 5.245e-09
 10.50247     89.0 1.049e+04 5.414e-09
 10.52240     88.7 1.055e+04 5.690e-09
 10.53320     88.1 1.066e+04 6.159e-09
 10.54316     87.3 1.076e+04 6.852e-09
 10.56225     87.0 1.075e+04 7.071e-09
 10.58217     86.7 1.073e+04 6.792e-09
 10.60209     86.6 1.068e+04 6.344e-09
 10.62324     85.9 1.059e+04 5.409e-09
 10.64326     83.6 1.038e+04 4.327e-09
 10.67202     80.9 1.011e+04 3.060e-09
 10.71187     78.9 9.745e+03 2.883e-09
 10.75172     78.3 9.585e+03 2.979e-09
 10.79157     78.2 9.468e+03 2.980e-09
 10.82313     78.3 9.474e+03 2.949e-09
 10.84306     76.5 9.405e+03 2.924e-09
 10.87126     76.1 9.535e+03 3.151e-09
 10.91111     75.7 9.545e+03 3.162e-09
 10.95096     75.4 9.466e+03 2.757e-09
 10.99080     74.7 9.458e+03 2.471e-09
 11.02293     74.6 9.491e+03 2.308e-09
 11.04285     73.1 9.473e+03 2.344e-09
 11.07050     74.1 9.501e+03 2.194e-09
 11.11035     74.6 9.647e+03 2.282e-09
 11.15020     74.5 9.720e+03 2.437e-09
 11.17998     75.6 9.923e+03 3.189e-09
 11.19981     76.1 1.031e+04 4.242e-09
 11.21973     76.2 1.069e+04 5.611e-09
 11.23249     76.2 1.106e+04 7.462e-09
 11.24246     75.4 1.126e+04 8.636e-09
 11.25958     75.4 1.169e+04 1.188e-08
 11.27951     75.7 1.195e+04 1.400e-08
 11.29943     76.0 1.197e+04 1.383e-08
 11.31935     76.3 1.193e+04 1.254e-08
 11.33239     76.6 1.178e+04 1.062e-08
 11.34235     75.8 1.195e+04 1.160e-08
 11.35920     75.9 1.169e+04 9.876e-09
 11.37913     76.3 1.133e+04 8.487e-09
 11.39905     76.7 1.107e+04 7.599e-09
 11.41897     77.4 1.079e+04 6.584e-09
 11.43229     78.0 1.059e+04 5.813e-09
 11.44225     77.3 1.059e+04 5.724e-09
 11.45408     78.2 1.028e+04 4.807e-09
 11.46404     78.3 1.011e+04 3.882e-09
 11.47875     79.3 1.001e+04 3.604e-09
 11.50873     80.3 9.839e+03 3.194e-09
 11.54867     82.9 9.531e+03 2.879e-09
 11.58852     85.7 9.291e+03 2.559e-09
 11.62232     88.7 9.111e+03 2.154e-09
 11.64225     87.9 9.253e+03 2.494e-09
 11.66822     90.9 9.059e+03 1.987e-09
 11.70807     93.8 8.815e+03 1.679e-09
 11.74791     96.7 8.754e+03 1.668e-09
 11.78776     99.6 8.779e+03 1.730e-09
 11.82212    102.5 8.872e+03 1.982e-09
 11.84204    102.0 8.980e+03 2.166e-09
 11.86746    104.6 9.227e+03 2.665e-09
 11.90730    106.5 9.398e+03 3.179e-09
 11.94715    108.3 9.310e+03 3.428e-09
 11.97694    110.6 9.357e+03 3.953e-09
 11.99677    112.3 9.476e+03 4.402e-09
 12.01669    113.7 9.566e+03 4.720e-09
 12.03169    114.9 9.610e+03 4.889e-09
 12.04165    114.5 9.830e+03 5.706e-09
 12.05654    115.6 9.867e+03 5.934e-09
 12.06932    116.6 9.907e+03 6.180e-09
 12.07928    116.2 9.977e+03 6.611e-09
 12.09639    117.3 1.001e+04 6.922e-09
 12.11631    118.3 1.011e+04 7.408e-09
 12.13158    119.2 1.025e+04 8.027e-09
 12.14155    118.9 1.049e+04 9.259e-09
 12.15616    119.9 1.062e+04 9.739e-09
 12.17608    120.8 1.071e+04 9.828e-09
 12.19601    121.4 1.076e+04 9.684e-09
 12.21593    121.5 1.074e+04 9.125e-09
 12.23148    121.6 1.068e+04 8.789e-09
 12.24154    121.7 1.083e+04 9.285e-09
 12.25588    121.7 1.060e+04 8.267e-09
 12.27570    122.5 1.037e+04 7.560e-09
 12.29563    123.6 1.014e+04 6.756e-09
 12.31555    124.8 9.883e+03 5.909e-09
 12.33138    126.2 9.612e+03 5.125e-09
 12.34134    126.1 9.623e+03 5.147e-09
 12.35540    127.5 9.378e+03 4.539e-09
 12.37532    129.0 9.240e+03 4.222e-09
 12.39524    130.6 9.247e+03 4.214e-09
 12.41517    132.2 9.309e+03 4.333e-09
 12.43128    133.7 9.505e+03 4.845e-09
 12.44124    134.0 9.495e+03 4.784e-09
 12.45502    135.5 9.768e+03 5.617e-09
 12.47494    137.2 1.014e+04 6.970e-09
 12.49486    139.0 1.060e+04 8.804e-09
 12.51479    140.9 1.111e+04 1.104e-08
 12.53118    142.6 1.166e+04 1.371e-08
 12.54114    143.1 1.166e+04 1.361e-08
 12.55464    144.9 1.224e+04 1.692e-08
 12.57456    146.7 1.285e+04 2.095e-08
 12.59448    148.6 1.346e+04 2.573e-08
 12.61441    150.6 1.395e+04 3.003e-08
 12.63108    152.4 1.417e+04 3.107e-08
 12.64104    153.1 1.445e+04 3.305e-08
 12.65426    154.7 1.447e+04 3.279e-08
 12.67418    156.4 1.429e+04 3.001e-08
 12.68456    158.1 1.383e+04 2.485e-08
 12.69452    159.7 1.378e+04 2.444e-08
 12.71403    161.7 1.336e+04 2.013e-08
 12.73098    163.4 1.293e+04 1.658e-08
 12.74094    164.5 1.327e+04 1.844e-08
 12.75388    166.1 1.287e+04 1.542e-08
 12.77380    167.5 1.276e+04 1.394e-08
 12.79372    169.1 1.278e+04 1.375e-08
 12.81365    170.0 1.286e+04 1.402e-08
 12.83088    169.8 1.378e+04 1.652e-08
 12.84084    170.9 1.410e+04 1.729e-08
 12.84846    168.7 1.515e+04 2.083e-08
 12.85838    167.9 1.546e+04 2.227e-08
 12.86834    166.5 1.589e+04 2.554e-08
 12.87830    165.0 1.645e+04 2.902e-08
 12.88571    158.6 1.959e+04 4.357e-08
 12.89069    159.7 1.990e+04 4.855e-08
 12.89571    156.1 2.174e+04 6.204e-08
 12.90067    140.1 2.782e+04 2.069e-07
 12.90565    114.5 1.917e+04 7.709e-06
 12.91063     84.4 1.430e+04 2.107e-04
 12.91561     62.9 1.767e+04 2.339e-05
 12.92059     49.3 2.113e+04 6.063e-06
 12.92809      7.6 4.082e+04 1.018e-07
 12.93566    -16.0 2.023e+04 9.992e-08
 12.94064    -18.6 2.026e+04 1.001e-07
 12.94804    -21.3 1.924e+04 9.447e-08
 12.95800    -22.8 1.923e+04 9.416e-08
 12.96796    -24.3 2.003e+04 1.003e-07
 12.97792    -26.0 2.106e+04 1.173e-07
 12.98561    -27.8 2.168e+04 1.450e-07
 12.98981    -26.8 2.159e+04 1.374e-07
 12.99208    -26.2 2.140e+04 1.336e-07
 12.99785    -27.8 2.220e+04 1.703e-07
 13.00781    -29.6 2.225e+04 2.311e-07
 13.01777    -31.6 2.178e+04 3.382e-07
 13.02773    -33.2 2.040e+04 5.257e-07
 13.03556    -33.9 1.952e+04 6.786e-07
 13.04054    -33.4 1.947e+04 1.106e-06
 13.04766    -33.3 1.861e+04 1.740e-06
 13.05762    -33.2 1.842e+04 2.074e-06
 13.06758    -34.1 1.846e+04 1.955e-06
 13.07754    -35.1 1.885e+04 1.109e-06
 13.08551    -36.0 1.961e+04 3.918e-07
 13.09049    -36.8 1.922e+04 1.063e-06
 13.09746    -37.0 2.041e+04 2.837e-07
 13.10743    -39.3 2.018e+04 1.179e-07
 13.11739    -41.4 1.830e+04 7.498e-08
 13.12735    -42.1 1.671e+04 5.893e-08
 13.13546    -42.1 1.591e+04 5.205e-08
 13.14044    -41.4 1.764e+04 8.003e-08
 13.14727    -41.3 1.690e+04 7.098e-08
 13.15724    -41.1 1.644e+04 6.760e-08
 13.16720    -40.8 1.618e+04 6.628e-08
 13.17716    -40.5 1.600e+04 6.554e-08
 13.18541    -40.1 1.574e+04 6.343e-08
 13.19039    -39.8 1.688e+04 9.005e-08
 13.19708    -39.5 1.653e+04 8.298e-08
 13.20705    -39.2 1.605e+04 7.068e-08
 13.21701    -38.9 1.545e+04 5.676e-08
 13.22697    -38.7 1.487e+04 4.571e-08
 13.23536    -38.5 1.453e+04 3.946e-08
 13.24034    -38.7 1.490e+04 4.244e-08
 13.25192    -38.8 1.433e+04 3.276e-08
 13.27190    -39.1 1.265e+04 1.738e-08
 13.28984    -39.8 1.180e+04 1.284e-08
 13.29980    -40.1 1.183e+04 1.263e-08
 13.31174    -40.3 1.147e+04 1.096e-08
 13.33037    -39.9 1.113e+04 9.973e-09
 13.34033    -40.7 1.089e+04 9.299e-09
 13.35159    -39.7 1.069e+04 8.956e-09
 13.37152    -38.6 1.058e+04 8.746e-09
 13.39144    -37.4 1.049e+04 8.493e-09
 13.41136    -36.2 1.038e+04 8.090e-09
 13.43027    -35.0 1.024e+04 7.519e-09
 13.44023    -35.1 1.003e+04 7.140e-09
 13.45121    -33.8 9.881e+03 6.448e-09
 13.47114    -32.7 9.723e+03 5.754e-09
 13.49106    -31.7 9.548e+03 5.148e-09
 13.51098    -30.7 9.385e+03 4.695e-09
 13.53017    -29.7 9.254e+03 4.370e-09
 13.54013    -29.4 9.159e+03 4.268e-09
 13.55083    -28.3 9.102e+03 4.130e-09
 13.57076    -27.2 9.079e+03 4.078e-09
 13.59068    -26.1 9.070e+03 4.066e-09
 13.61060    -25.0 9.075e+03 4.087e-09
 13.63007    -23.8 9.095e+03 4.157e-09
 13.64003    -23.3 9.070e+03 4.144e-09
 13.65045    -22.1 9.108e+03 4.221e-09
 13.67037    -20.9 9.152e+03 4.288e-09
 13.69030    -19.8 9.252e+03 4.350e-09
 13.71022    -19.0 9.389e+03 4.499e-09
 13.72997    -18.2 9.603e+03 4.933e-09
 13.73993    -17.7 9.502e+03 4.845e-09
 13.75007    -16.9 9.677e+03 5.491e-09
 13.76999    -16.5 1.001e+04 6.852e-09
 13.78992    -16.3 1.090e+04 9.982e-09
 13.80984    -17.3 1.287e+04 1.835e-08
 13.82977    -19.4 1.548e+04 4.038e-08
 13.83983    -22.2 1.779e+04 9.174e-08
 13.84979    -21.6 1.751e+04 7.825e-08
 13.86458    -24.7 1.893e+04 1.578e-07
 13.87450    -26.1 1.941e+04 2.223e-07
 13.88446    -27.4 1.981e+04 3.055e-07
 13.88968    -29.5 1.990e+04 3.470e-07
 13.89466    -29.0 1.967e+04 2.898e-07
 13.90438    -31.0 1.964e+04 2.930e-07
 13.90996    -32.9 1.970e+04 2.812e-07
 13.91494    -33.1 1.954e+04 2.282e-07
 13.92431    -35.2 1.977e+04 2.103e-07
 13.93427    -38.3 1.983e+04 2.020e-07
 13.93963    -40.8 1.975e+04 1.973e-07
 13.94964    -40.9 1.884e+04 8.411e-08
 13.96923    -44.4 1.838e+04 8.446e-08
 13.98916    -46.3 1.789e+04 8.555e-08
 14.00908    -47.5 1.735e+04 7.985e-08
 14.02900    -48.4 1.682e+04 7.342e-08
 14.03963    -49.0 1.652e+04 7.041e-08
 14.04959    -47.5 1.658e+04 6.795e-08
 14.06885    -47.9 1.649e+04 6.979e-08
 14.08878    -48.1 1.619e+04 6.915e-08
 14.10870    -48.1 1.535e+04 5.560e-08
 14.12862    -48.1 1.430e+04 3.668e-08
 14.13952    -48.2 1.315e+04 2.357e-08
 14.14949    -47.2 1.403e+04 3.202e-08
 14.16847    -47.4 1.276e+04 2.008e-08
 14.18840    -47.6 1.169e+04 1.337e-08
 14.20832    -47.6 1.098e+04 9.743e-09
 14.22824    -47.4 1.053e+04 7.596e-09
 14.23942    -47.1 1.022e+04 6.149e-09
 14.24939    -46.5 1.028e+04 6.442e-09
 14.26809    -46.3 1.004e+04 5.504e-09
 14.28802    -46.1 9.874e+03 4.968e-09
 14.30794    -45.9 9.769e+03 4.764e-09
 14.32786    -45.7 9.735e+03 4.729e-09
 14.33932    -45.6 9.732e+03 4.985e-09
 14.34928    -45.1 9.914e+03 5.664e-09
 14.36771    -45.1 1.005e+04 6.252e-09
 14.38764    -45.2 1.027e+04 7.270e-09
 14.40756    -45.6 1.061e+04 8.874e-09
 14.42748    -46.0 1.104e+04 1.123e-08
 14.43922    -46.4 1.150e+04 1.433e-08
 14.44918    -46.1 1.170e+04 1.573e-08
 14.46733    -46.5 1.206e+04 1.878e-08
 14.48725    -46.9 1.222e+04 2.034e-08
 14.50718    -47.3 1.222e+04 2.041e-08
 14.52032    -47.7 1.201e+04 1.888e-08
 14.53028    -47.7 1.183e+04 1.740e-08
 14.53912    -48.1 1.131e+04 1.369e-08
 14.54908    -48.0 1.135e+04 1.379e-08
 14.56695    -48.5 1.079e+04 1.066e-08
 14.58687    -49.0 1.028e+04 8.445e-09
 14.60680    -49.3 9.902e+03 7.037e-09
 14.62672    -49.4 9.719e+03 6.322e-09
 14.63902    -49.6 9.689e+03 6.141e-09
 14.64898    -49.8 9.749e+03 6.430e-09
 14.66657    -50.5 9.831e+03 6.549e-09
 14.68649    -51.8 1.044e+04 8.382e-09
 14.70642    -52.8 1.126e+04 1.244e-08
 14.72634    -53.3 1.203e+04 1.772e-08
 14.73892    -53.6 1.265e+04 2.217e-08
 14.74888    -54.4 1.315e+04 2.632e-08
 14.76619    -54.9 1.348e+04 2.785e-08
 14.78611    -55.6 1.356e+04 2.769e-08
 14.80604    -56.4 1.344e+04 2.419e-08
 14.82093    -58.4 1.376e+04 2.486e-08
 14.82784    -61.5 1.642e+04 2.648e-08
 14.83282    -59.1 1.342e+04 2.056e-08
 14.83872    -62.3 1.602e+04 2.230e-08
 14.84370    -64.8 1.816e+04 3.386e-08
 14.85077    -69.0 1.968e+04 8.028e-08
 14.86073    -72.1 1.963e+04 2.211e-07
 14.87069    -73.5 1.919e+04 5.505e-07
 14.88065    -74.6 1.884e+04 1.078e-06
 14.88867    -76.1 1.861e+04 1.563e-06
 14.89365    -76.2 1.837e+04 2.424e-06
 14.90058    -78.8 1.836e+04 2.458e-06
 14.91054    -80.8 1.865e+04 1.649e-06
 14.92050    -82.4 1.914e+04 8.971e-07
 14.93046    -84.0 1.951e+04 4.496e-07
 14.93862    -85.7 1.925e+04 2.341e-07
 14.94360    -87.4 1.878e+04 1.627e-07
 14.95039    -89.2 1.816e+04 1.071e-07
 14.96035    -91.1 1.853e+04 8.565e-08
 14.97031    -93.0 1.921e+04 7.680e-08
 14.98027    -95.1 1.995e+04 7.144e-08
 14.98857    -98.3 2.153e+04 6.964e-08
 14.99355   -101.4 2.183e+04 6.482e-08
 15.00020   -104.8 2.201e+04 6.902e-08
 15.01016   -108.7 2.160e+04 8.462e-08
 15.02012   -112.4 2.069e+04 1.020e-07
 15.03008   -114.5 2.012e+04 1.239e-07
 15.03852   -116.2 1.975e+04 1.414e-07
 15.04350   -115.9 1.889e+04 1.349e-07
 15.05001   -117.2 1.902e+04 1.370e-07
 15.05997   -119.1 1.938e+04 1.248e-07
 15.06993   -121.0 2.014e+04 1.029e-07
 15.07989   -123.0 2.008e+04 8.743e-08
 15.08847   -124.5 1.976e+04 7.858e-08
 15.09345   -124.1 1.951e+04 7.453e-08
 15.10485   -125.9 1.895e+04 6.948e-08
 15.12482   -128.1 1.702e+04 5.621e-08
 15.13556   -129.3 1.604e+04 5.320e-08
 15.13929   -126.4 1.743e+04 6.747e-08
 15.14848   -125.5 1.727e+04 6.442e-08
 15.16467   -127.0 1.656e+04 5.956e-08
 15.18459   -127.7 1.617e+04 5.799e-08
 15.20452   -127.8 1.573e+04 5.558e-08
 15.22444   -127.7 1.522e+04 4.997e-08
 15.23841   -127.4 1.469e+04 4.251e-08
 15.24837   -127.0 1.495e+04 4.526e-08
 15.26429   -126.8 1.434e+04 3.765e-08
 15.28421   -126.6 1.376e+04 3.089e-08
 15.30413   -126.5 1.325e+04 2.540e-08
 15.32406   -126.3 1.281e+04 2.097e-08
 15.33831   -126.2 1.245e+04 1.736e-08
 15.34827   -126.0 1.268e+04 1.994e-08
 15.36391   -125.8 1.247e+04 1.760e-08
 15.38383   -125.6 1.235e+04 1.602e-08
 15.40375   -125.3 1.230e+04 1.499e-08
 15.42368   -124.9 1.230e+04 1.448e-08
 15.43821   -124.5 1.231e+04 1.438e-08
 15.44817   -124.4 1.265e+04 1.717e-08
 15.46353   -123.9 1.265e+04 1.700e-08
 15.48345   -123.5 1.277e+04 1.801e-08
 15.50337   -123.2 1.323e+04 2.276e-08
 15.52330   -122.7 1.400e+04 3.172e-08
 15.53811   -122.5 1.498e+04 4.463e-08
 15.54807   -122.3 1.475e+04 3.962e-08
 15.56315   -122.2 1.577e+04 5.359e-08
 15.58307   -123.0 1.687e+04 7.056e-08
 15.60299   -125.8 1.778e+04 9.010e-08
 15.62292   -129.3 1.821e+04 1.161e-07
 15.63801   -132.6 1.839e+04 1.477e-07
 15.64797   -131.8 1.858e+04 1.622e-07
 15.65774   -134.1 1.853e+04 1.857e-07
 15.66765   -134.9 1.863e+04 1.997e-07
 15.67761   -137.0 1.873e+04 2.252e-07
 15.68757   -139.0 1.871e+04 2.374e-07
 15.69284   -140.7 1.860e+04 2.393e-07
 15.69782   -140.3 1.863e+04 2.871e-07
 15.70750   -141.1 1.837e+04 2.506e-07
 15.71746   -142.0 1.844e+04 1.901e-07
 15.72742   -143.6 1.832e+04 1.452e-07
 15.73738   -145.8 1.823e+04 1.182e-07
 15.74279   -148.3 1.804e+04 1.062e-07
 15.74615   -148.9 1.817e+04 1.072e-07
 15.75070   -147.5 1.852e+04 1.101e-07
 15.75731   -150.6 1.835e+04 1.063e-07
 15.76727   -153.2 1.829e+04 1.063e-07
 15.77723   -155.0 1.811e+04 1.100e-07
 15.78719   -156.2 1.797e+04 1.145e-07
 15.79274   -157.4 1.801e+04 1.188e-07
 15.79772   -158.0 1.849e+04 1.486e-07
 15.80712   -159.7 1.870e+04 1.714e-07
 15.81708   -161.7 1.885e+04 1.962e-07
 15.82704   -163.8 1.890e+04 2.144e-07
 15.83700   -165.6 1.889e+04 2.205e-07
 15.84269   -167.2 1.876e+04 1.992e-07
 15.84767   -168.3 1.897e+04 2.048e-07
 15.85693   -169.7 1.861e+04 1.502e-07
 15.86689   -171.2 1.810e+04 1.104e-07
 15.87685   -172.7 1.759e+04 8.578e-08
 15.88681   -173.7 1.729e+04 7.293e-08
 15.90180   -175.2 1.723e+04 6.515e-08
 15.92178   -178.1 1.729e+04 6.104e-08
 15.93770   -182.1 1.818e+04 7.417e-08
 15.94767   -182.4 1.681e+04 3.828e-08
 15.96162   -186.0 1.840e+04 7.042e-08
 15.98155   -189.6 1.910e+04 1.205e-07
 16.00147   -193.8 1.910e+04 1.470e-07
 16.02140   -198.0 1.884e+04 1.488e-07
 16.03760   -201.2 1.781e+04 1.185e-07
 16.04757   -201.1 1.773e+04 1.053e-07
 16.06124   -204.1 1.658e+04 7.408e-08
 16.08117   -206.7 1.502e+04 4.342e-08
 16.10109   -209.1 1.333e+04 2.422e-08
 16.12101   -211.1 1.182e+04 1.436e-08
 16.13750   -212.4 1.083e+04 9.626e-09
 16.14746   -213.0 1.085e+04 9.947e-09
 16.16086   -213.9 1.033e+04 7.617e-09
 16.18079   -214.2 1.008e+04 6.575e-09
 16.20071   -214.3 9.958e+03 6.119e-09
 16.22063   -214.2 9.883e+03 5.913e-09
 16.23740   -213.9 9.826e+03 5.800e-09
 16.24736   -214.0 9.836e+03 5.867e-09
 16.26048   -213.4 9.768e+03 5.705e-09
 16.28041   -212.6 9.705e+03 5.545e-09
 16.30033   -211.7 9.614e+03 5.294e-09
 16.32025   -210.6 9.467e+03 4.839e-09
 16.33730   -209.0 9.273e+03 4.179e-09
 16.34726   -209.4 9.352e+03 4.390e-09
 16.35608   -207.7 9.166e+03 3.761e-09
 16.36604   -206.8 9.111e+03 3.332e-09
 16.38003   -205.0 9.075e+03 2.999e-09
 16.41001   -203.8 9.072e+03 2.820e-09
 16.43739   -202.2 9.025e+03 2.572e-09
 16.45732   -201.4 9.059e+03 2.792e-09
 16.48980   -199.4 9.038e+03 2.632e-09
 16.52965   -197.1 9.014e+03 2.524e-09
 16.56950   -194.9 9.015e+03 2.489e-09
 16.60935   -192.9 9.031e+03 2.482e-09
 16.63719   -191.0 9.152e+03 2.524e-09
 16.64706   -191.2 9.223e+03 2.681e-09
 16.65896   -190.7 9.271e+03 2.722e-09
 16.67888   -189.7 9.375e+03 2.823e-09
 16.69881   -189.4 9.434e+03 2.917e-09
 16.71873   -188.7 9.557e+03 3.095e-09
 16.73690   -188.6 9.626e+03 3.285e-09
 16.74686   -189.9 9.734e+03 3.854e-09
 16.75858   -189.6 9.836e+03 4.278e-09
 16.77850   -189.1 9.961e+03 4.810e-09
 16.79843   -188.6 1.013e+04 5.521e-09
 16.81835   -188.1 1.036e+04 6.448e-09
 16.83679   -187.7 1.063e+04 7.580e-09
 16.84676   -188.3 1.084e+04 8.000e-09
 16.85820   -188.2 1.116e+04 8.776e-09
 16.87812   -188.2 1.140e+04 9.716e-09
 16.89805   -188.4 1.161e+04 1.060e-08
 16.91797   -189.1 1.178e+04 1.115e-08
 16.93669   -190.3 1.187e+04 1.131e-08
 16.94666   -192.0 1.224e+04 1.334e-08
 16.95782   -193.4 1.242e+04 1.429e-08
 16.97132   -194.9 1.256e+04 1.503e-08
 16.98128   -195.1 1.280e+04 1.697e-08
 16.99767   -196.5 1.293e+04 1.772e-08
 17.01759   -197.8 1.305e+04 1.861e-08
 17.03659   -198.8 1.316e+04 1.937e-08
 17.04655   -200.6 1.351e+04 2.242e-08
 17.05744   -201.6 1.326e+04 1.908e-08
 17.07736   -202.5 1.306e+04 1.666e-08
 17.09729   -203.3 1.275e+04 1.383e-08
 17.11721   -204.0 1.237e+04 1.072e-08
 17.13649   -204.5 1.192e+04 7.675e-09
 17.14645   -205.8 1.146e+04 5.065e-09
 17.15706   -206.3 1.112e+04 3.418e-09
 17.17698   -206.8 1.087e+04 2.412e-09
 17.19691   -207.4 1.065e+04 1.915e-09
 17.21683   -207.5 1.045e+04 1.772e-09
 17.23649   -207.4 1.041e+04 1.668e-09
 17.25651   -207.3 1.016e+04 1.585e-09
 17.28676   -205.9 1.001e+04 1.388e-09
 17.32661   -204.4 1.001e+04 1.326e-09
 17.36645   -203.1 1.002e+04 1.318e-09
 17.40630   -202.1 1.009e+04 1.320e-09
 17.43638   -201.3 1.045e+04 1.378e-09
 17.45631   -200.6 1.034e+04 1.319e-09
 17.48600   -200.0 1.068e+04 1.542e-09
 17.52585   -199.8 1.080e+04 2.076e-09
 17.56569   -199.6 1.095e+04 2.801e-09
 17.58676   -199.6 1.113e+04 3.597e-09
 17.60668   -198.9 1.099e+04 3.045e-09
 17.63618   -198.8 1.118e+04 3.749e-09
 17.65611   -197.7 1.125e+04 3.789e-09
 17.68524   -197.9 1.139e+04 4.247e-09
 17.71502   -198.1 1.141e+04 4.367e-09
 17.73485   -198.3 1.142e+04 4.413e-09
 17.74585   -198.6 1.141e+04 4.448e-09
 17.75581   -198.4 1.143e+04 4.554e-09
 17.77470   -198.4 1.145e+04 4.416e-09
 17.79462   -198.2 1.143e+04 4.195e-09
 17.81455   -197.8 1.136e+04 3.905e-09
 17.83447   -197.0 1.127e+04 3.525e-09
 17.84575   -195.8 1.124e+04 3.103e-09
 17.85571   -195.9 1.124e+04 3.218e-09
 17.87432   -194.5 1.127e+04 2.865e-09
 17.89424   -193.7 1.134e+04 2.712e-09
 17.92423   -193.3 1.140e+04 2.554e-09
 17.96417   -192.2 1.138e+04 2.222e-09
 18.00402   -190.6 1.127e+04 1.843e-09
 18.03578   -188.8 1.117e+04 1.505e-09
 18.05570   -188.7 1.118e+04 1.500e-09
 18.08371   -186.8 1.111e+04 1.270e-09
 18.12356   -184.8 1.111e+04 1.129e-09
 18.16341   -182.7 1.118e+04 1.059e-09
 18.20326   -180.7 1.122e+04 1.037e-09
 18.23557   -178.8 1.126e+04 1.033e-09
 18.25550   -178.6 1.130e+04 1.194e-09
 18.28295   -177.0 1.143e+04 1.225e-09
 18.32280   -175.6 1.152e+04 1.292e-09
 18.36265   -174.4 1.163e+04 1.384e-09
 18.40250   -173.4 1.178e+04 1.505e-09
 18.43537   -172.4 1.191e+04 1.668e-09
 18.45530   -172.5 1.217e+04 2.223e-09
 18.48219   -171.4 1.216e+04 2.427e-09
 18.52204   -170.3 1.211e+04 2.543e-09
 18.56189   -169.1 1.208e+04 2.572e-09
 18.59168   -169.0 1.207e+04 2.612e-09
 18.61150   -169.0 1.203e+04 2.648e-09
 18.63143   -169.0 1.200e+04 2.783e-09
 18.64494   -169.0 1.195e+04 3.133e-09
 18.65490   -170.2 1.187e+04 3.743e-09
 18.67127   -170.0 1.186e+04 4.510e-09
 18.69120   -169.6 1.188e+04 5.425e-09
 18.71112   -169.0 1.192e+04 6.333e-09
 18.73105   -168.5 1.197e+04 7.000e-09
 18.74484   -167.9 1.201e+04 7.202e-09
 18.75480   -168.6 1.188e+04 7.521e-09
 18.77089   -167.8 1.182e+04 6.997e-09
 18.79082   -166.9 1.171e+04 6.000e-09
 18.80708   -166.0 1.158e+04 4.730e-09
 18.81704   -166.0 1.154e+04 4.308e-09
 18.83067   -165.4 1.144e+04 3.254e-09
 18.84473   -164.8 1.135e+04 2.666e-09
 18.85479   -166.8 1.130e+04 2.534e-09
 18.88067   -164.7 1.102e+04 2.004e-09
 18.92052   -162.2 1.067e+04 1.594e-09
 18.96037   -159.4 1.049e+04 1.359e-09
 19.00021   -156.6 1.046e+04 1.264e-09
 19.03477   -153.7 1.047e+04 1.243e-09
 19.05469   -153.9 1.043e+04 1.278e-09
 19.07991   -151.2 1.051e+04 1.409e-09
 19.11976   -148.7 1.065e+04 1.708e-09
 19.15961   -146.3 1.081e+04 2.122e-09
 19.19945   -143.9 1.098e+04 2.538e-09
 19.23456   -141.5 1.107e+04 2.864e-09
 19.25449   -141.7 1.102e+04 2.880e-09
 19.26909   -139.7 1.106e+04 2.848e-09
 19.28892   -138.9 1.113e+04 2.960e-09
 19.30884   -137.6 1.120e+04 3.028e-09
 19.32876   -136.8 1.122e+04 3.044e-09
 19.34423   -135.6 1.124e+04 3.052e-09
 19.35419   -135.8 1.120e+04 3.038e-09
 19.36861   -134.8 1.119e+04 2.971e-09
 19.38854   -133.5 1.119e+04 2.918e-09
 19.40846   -132.4 1.116e+04 2.814e-09
 19.42232   -131.1 1.112e+04 2.695e-09
 19.43228   -131.4 1.109e+04 2.523e-09
 19.44413   -130.1 1.106e+04 2.473e-09
 19.45419   -130.6 1.109e+04 2.596e-09
 19.46833   -128.7 1.105e+04 2.479e-09
 19.48815   -127.5 1.109e+04 2.510e-09
 19.50808   -126.3 1.113e+04 2.577e-09
 19.52800   -125.1 1.118e+04 2.666e-09
 19.54403   -124.0 1.122e+04 2.763e-09
 19.55399   -123.8 1.127e+04 3.160e-09
 19.56785   -122.7 1.133e+04 3.360e-09
 19.58777   -121.5 1.138e+04 3.572e-09
 19.60770   -120.4 1.143e+04 3.814e-09
 19.62762   -119.3 1.148e+04 4.111e-09
 19.64393   -118.1 1.153e+04 4.478e-09
 19.65389   -117.9 1.170e+04 5.859e-09
 19.66747   -116.6 1.178e+04 6.376e-09
 19.68739   -115.3 1.189e+04 6.966e-09
 19.70732   -114.0 1.209e+04 7.688e-09
 19.72724   -113.0 1.240e+04 8.760e-09
 19.74383   -112.5 1.287e+04 1.091e-08
 19.75379   -112.7 1.317e+04 1.464e-08
 19.76709   -112.6 1.388e+04 2.047e-08
 19.78701   -112.5 1.488e+04 3.189e-08
 19.80694   -112.7 1.614e+04 5.060e-08
 19.82686   -114.3 1.747e+04 7.446e-08
 19.84372   -117.2 1.851e+04 9.161e-08
 19.85369   -119.1 1.863e+04 9.134e-08
 19.86671   -124.8 1.899e+04 9.420e-08
 19.88663   -131.8 1.903e+04 8.767e-08
 19.90656   -138.1 1.848e+04 7.004e-08
 19.92648   -141.7 1.757e+04 5.575e-08
 19.94362   -143.2 1.669e+04 4.566e-08
 19.95358   -143.4 1.723e+04 6.953e-08
 19.96633   -144.1 1.682e+04 6.201e-08
 19.98625   -144.3 1.648e+04 5.587e-08
 20.00618   -144.3 1.604e+04 5.040e-08
 20.02610   -143.7 1.546e+04 4.514e-08
 20.03756   -142.9 1.488e+04 4.055e-08
 20.04502   -144.5 1.613e+04 5.317e-08
 20.05348   -144.1 1.573e+04 4.543e-08
 20.06595   -142.9 1.497e+04 3.451e-08
 20.08587   -141.8 1.431e+04 2.665e-08
 20.10580   -140.7 1.381e+04 2.119e-08
 20.12572   -139.8 1.339e+04 1.778e-08
 20.14342   -138.8 1.305e+04 1.573e-08
 20.15338   -138.8 1.264e+04 1.382e-08
 20.16557   -137.9 1.238e+04 1.302e-08
 20.18549   -137.1 1.225e+04 1.277e-08
 20.20542   -136.5 1.222e+04 1.275e-08
 20.22534   -136.1 1.231e+04 1.382e-08
 20.24332   -136.0 1.263e+04 1.636e-08
 20.25328   -136.4 1.263e+04 1.756e-08
 20.26519   -136.3 1.309e+04 2.232e-08
 20.28511   -136.4 1.360e+04 2.861e-08
 20.30503   -136.4 1.408e+04 3.576e-08
 20.32496   -136.5 1.445e+04 4.251e-08
 20.34322   -137.0 1.462e+04 4.691e-08
 20.35318   -137.5 1.435e+04 4.150e-08
 20.36481   -137.9 1.435e+04 4.207e-08
 20.38473   -138.1 1.416e+04 4.067e-08
 20.40465   -138.2 1.379e+04 3.605e-08
 20.42458   -138.1 1.327e+04 2.951e-08
 20.44312   -137.9 1.263e+04 2.263e-08
 20.45308   -137.9 1.248e+04 2.072e-08
 20.46443   -137.3 1.198e+04 1.666e-08
 20.48435   -136.7 1.152e+04 1.326e-08
 20.50427   -136.1 1.116e+04 1.072e-08
 20.52420   -135.6 1.085e+04 8.738e-09
 20.54302   -135.1 1.058e+04 7.254e-09
 20.55298   -135.0 1.083e+04 8.529e-09
 20.56405   -134.6 1.066e+04 7.622e-09
 20.58397   -134.2 1.056e+04 7.098e-09
 20.60389   -133.7 1.051e+04 6.935e-09
 20.62382   -133.3 1.051e+04 6.918e-09
 20.64284   -132.9 1.058e+04 7.058e-09
 20.65280   -132.4 1.102e+04 9.431e-09
 20.66367   -132.0 1.112e+04 9.708e-09
 20.68359   -131.7 1.123e+04 1.013e-08
 20.70351   -131.4 1.130e+04 1.043e-08
 20.72344   -131.1 1.131e+04 1.052e-08
 20.74281   -130.8 1.126e+04 1.033e-08
 20.75278   -130.7 1.131e+04 1.134e-08
 20.76328   -130.3 1.115e+04 1.064e-08
 20.78321   -129.7 1.101e+04 9.737e-09
 20.80313   -129.1 1.087e+04 8.770e-09
 20.82306   -128.5 1.074e+04 7.897e-09
 20.84271   -127.9 1.063e+04 7.157e-09
 20.85268   -127.7 1.065e+04 7.659e-09
 20.86290   -127.0 1.060e+04 7.157e-09
 20.88283   -126.4 1.058e+04 6.870e-09
 20.90275   -125.8 1.058e+04 6.758e-09
 20.92268   -125.0 1.058e+04 6.739e-09
 20.94260   -124.3 1.064e+04 6.806e-09
 20.96252   -123.2 1.073e+04 7.504e-09
 20.99251   -122.6 1.093e+04 7.903e-09
 21.03245   -121.1 1.125e+04 9.076e-09
 21.05267   -120.1 1.165e+04 1.088e-08
 21.07259   -119.4 1.137e+04 1.016e-08
 21.10209   -119.6 1.170e+04 1.171e-08
 21.12191   -118.8 1.178e+04 1.241e-08
 21.14184   -118.0 1.188e+04 1.325e-08
 21.15237   -117.3 1.204e+04 1.453e-08
 21.16233   -117.5 1.205e+04 1.527e-08
 21.18169   -117.0 1.229e+04 1.738e-08
 21.20161   -116.6 1.252e+04 1.958e-08
 21.22153   -116.1 1.273e+04 2.142e-08
 21.24146   -115.8 1.286e+04 2.242e-08
 21.25227   -115.5 1.292e+04 2.268e-08
 21.25893   -116.2 1.286e+04 2.227e-08
 21.26804   -116.9 1.294e+04 2.276e-08
 21.28131   -116.7 1.280e+04 2.032e-08
 21.30123   -116.8 1.264e+04 1.785e-08
 21.32115   -117.0 1.249e+04 1.591e-08
 21.34108   -117.3 1.242e+04 1.481e-08
 21.35217   -118.0 1.242e+04 1.448e-08
 21.36213   -118.7 1.219e+04 1.405e-08
 21.38093   -119.4 1.229e+04 1.409e-08
 21.40085   -120.3 1.262e+04 1.486e-08
 21.42077   -121.1 1.290e+04 1.641e-08
 21.44070   -122.0 1.313e+04 1.852e-08
 21.45207   -122.9 1.331e+04 2.125e-08
 21.46203   -123.1 1.356e+04 2.330e-08
 21.48055   -124.0 1.386e+04 2.696e-08
 21.50047   -124.9 1.410e+04 2.904e-08
 21.52039   -126.1 1.419e+04 2.946e-08
 21.54032   -127.4 1.413e+04 2.802e-08
 21.55197   -128.9 1.390e+04 2.518e-08
 21.56193   -130.6 1.385e+04 2.395e-08
 21.58016   -132.4 1.339e+04 2.228e-08
 21.60009   -134.1 1.298e+04 2.108e-08
 21.62001   -135.8 1.265e+04 1.955e-08
 21.63994   -137.7 1.232e+04 1.705e-08
 21.65187   -139.8 1.188e+04 1.397e-08
 21.66183   -140.5 1.195e+04 1.422e-08
 21.67978   -142.6 1.149e+04 1.158e-08
 21.69971   -144.5 1.121e+04 1.028e-08
 21.71963   -145.9 1.114e+04 1.002e-08
 21.73956   -146.8 1.115e+04 1.010e-08
 21.75177   -147.4 1.130e+04 1.114e-08
 21.76173   -147.8 1.166e+04 1.287e-08
 21.77940   -148.3 1.193e+04 1.489e-08
 21.79933   -148.7 1.222e+04 1.718e-08
 21.81925   -149.1 1.258e+04 1.999e-08
 21.83918   -149.7 1.301e+04 2.376e-08
 21.85166   -150.3 1.346e+04 2.822e-08
 21.86163   -152.3 1.404e+04 3.129e-08
 21.87332   -153.6 1.413e+04 3.278e-08
 21.88329   -153.5 1.356e+04 2.518e-08
 21.89895   -154.7 1.354e+04 2.535e-08
 21.91887   -155.9 1.341e+04 2.407e-08
 21.93880   -157.1 1.319e+04 2.140e-08
 21.95156   -158.4 1.291e+04 1.850e-08
 21.96152   -161.6 1.252e+04 1.473e-08
 21.97864   -162.9 1.204e+04 1.268e-08
 21.99857   -163.8 1.166e+04 1.162e-08
 22.01849   -164.8 1.159e+04 1.143e-08
 22.03841   -167.6 1.182e+04 1.136e-08
 22.05146   -173.6 1.577e+04 1.364e-08
 22.06142   -181.0 1.823e+04 4.178e-08
 22.07826   -185.9 1.895e+04 1.169e-07
 22.09316   -188.1 1.903e+04 1.966e-07
 22.10131   -189.5 1.907e+04 2.874e-07
 22.10629   -191.6 1.894e+04 3.460e-07
 22.11303   -193.3 1.886e+04 3.919e-07
 22.12299   -194.8 1.881e+04 3.952e-07
 22.13296   -195.9 1.864e+04 3.003e-07
 22.14292   -197.0 1.842e+04 1.780e-07
 22.15126   -198.5 1.798e+04 9.618e-08
 22.16127   -200.2 1.718e+04 6.733e-08
 22.17788   -203.5 1.605e+04 3.283e-08
 22.19781   -206.2 1.552e+04 2.523e-08
 22.21773   -208.5 1.530e+04 2.360e-08
 22.23765   -210.1 1.531e+04 2.526e-08
 22.25126   -211.7 1.559e+04 3.094e-08
 22.26122   -213.4 1.633e+04 4.131e-08
 22.27750   -215.0 1.637e+04 4.169e-08
 22.29743   -217.0 1.633e+04 3.606e-08
 22.31735   -219.8 1.579e+04 2.757e-08
 22.33224   -222.0 1.551e+04 2.390e-08
 22.34216   -224.1 1.495e+04 2.031e-08
 22.35111   -225.9 1.464e+04 1.813e-08
 22.36112   -228.4 1.427e+04 1.659e-08
 22.37712   -230.6 1.402e+04 1.544e-08
 22.39704   -232.2 1.376e+04 1.421e-08
 22.41697   -233.1 1.354e+04 1.342e-08
 22.43689   -233.5 1.348e+04 1.328e-08
 22.45106   -233.7 1.342e+04 1.357e-08
 22.46102   -234.5 1.369e+04 1.850e-08
 22.47674   -234.4 1.365e+04 1.858e-08
 22.48856   -234.0 1.352e+04 1.820e-08
 22.49853   -233.9 1.436e+04 3.224e-08
 22.51659   -233.4 1.428e+04 2.995e-08
 22.53651   -233.1 1.425e+04 2.816e-08
 22.55096   -232.8 1.428e+04 2.712e-08
 22.56092   -233.5 1.425e+04 2.618e-08
 22.57636   -233.4 1.428e+04 2.560e-08
 22.59628   -233.5 1.430e+04 2.548e-08
 22.61621   -233.6 1.447e+04 2.565e-08
 22.63613   -233.8 1.461e+04 2.696e-08
 22.65086   -234.0 1.475e+04 2.886e-08
 22.66082   -234.7 1.474e+04 2.860e-08
 22.67598   -234.8 1.489e+04 3.061e-08
 22.69590   -235.0 1.504e+04 3.237e-08
 22.71583   -235.0 1.516e+04 3.317e-08
 22.73575   -235.1 1.518e+04 3.323e-08
 22.75075   -235.0 1.515e+04 3.302e-08
 22.76072   -235.8 1.518e+04 3.172e-08
 22.77560   -235.5 1.518e+04 3.135e-08
 22.79552   -235.2 1.520e+04 3.146e-08
 22.81545   -234.7 1.525e+04 3.235e-08
 22.83537   -234.2 1.530e+04 3.431e-08
 22.85065   -233.7 1.536e+04 3.717e-08
 22.86062   -234.3 1.473e+04 2.523e-08
 22.87522   -233.7 1.463e+04 2.405e-08
 22.89514   -233.1 1.452e+04 2.223e-08
 22.91507   -232.5 1.440e+04 2.013e-08
 22.93499   -231.9 1.429e+04 1.819e-08
 22.95055   -231.3 1.419e+04 1.672e-08
 22.96051   -231.5 1.330e+04 7.951e-09
 22.97484   -230.7 1.328e+04 7.855e-09
 22.99476   -229.7 1.328e+04 7.987e-09
 23.01469   -228.8 1.332e+04 8.561e-09
 23.03461   -227.7 1.336e+04 9.283e-09
 23.05045   -226.6 1.340e+04 9.919e-09
 23.06041   -226.4 1.282e+04 6.268e-09
 23.07446   -225.2 1.289e+04 6.543e-09
 23.09384   -224.1 1.294e+04 6.707e-09
 23.10381   -224.1 1.266e+04 5.943e-09
 23.11431   -223.1 1.272e+04 6.179e-09
 23.13423   -222.1 1.275e+04 6.404e-09
 23.15035   -221.1 1.276e+04 6.688e-09
 23.16031   -221.2 1.249e+04 5.287e-09
 23.17408   -220.4 1.249e+04 5.771e-09
 23.19400   -219.5 1.250e+04 6.456e-09
 23.21392   -218.6 1.253e+04 7.334e-09
 23.23385   -217.8 1.258e+04 8.365e-09
 23.25025   -217.0 1.266e+04 9.462e-09
 23.26021   -217.6 1.237e+04 8.145e-09
 23.27370   -216.8 1.239e+04 8.850e-09
 23.29362   -216.1 1.236e+04 9.307e-09
 23.31354   -215.3 1.233e+04 9.455e-09
 23.33347   -214.5 1.232e+04 9.478e-09
 23.35015   -213.5 1.227e+04 9.451e-09
 23.36011   -214.0 1.189e+04 7.529e-09
 23.37332   -213.0 1.188e+04 7.528e-09
 23.39324   -211.9 1.187e+04 7.703e-09
 23.41316   -210.9 1.191e+04 8.104e-09
 23.43309   -209.8 1.198e+04 8.681e-09
 23.45005   -208.8 1.208e+04 9.449e-09
 23.46001   -208.8 1.174e+04 7.804e-09
 23.47294   -207.9 1.189e+04 8.669e-09
 23.49286   -207.1 1.206e+04 9.588e-09
 23.51278   -206.4 1.222e+04 1.048e-08
 23.54277   -205.7 1.242e+04 1.163e-08
 23.57265   -205.0 1.254e+04 1.293e-08
 23.59248   -204.0 1.264e+04 1.367e-08
 23.61240   -203.2 1.267e+04 1.378e-08
 23.63233   -202.5 1.267e+04 1.378e-08
 23.64984   -202.1 1.261e+04 1.314e-08
 23.66987   -202.3 1.228e+04 9.176e-09
 23.69932   -201.5 1.219e+04 7.825e-09
 23.71914   -201.3 1.206e+04 7.865e-09
 23.73195   -200.8 1.196e+04 7.104e-09
 23.74974   -200.5 1.186e+04 6.620e-09
 23.75971   -200.4 1.179e+04 5.460e-09
 23.77179   -199.9 1.167e+04 4.743e-09
 23.79172   -199.4 1.166e+04 4.352e-09
 23.81164   -198.8 1.166e+04 4.012e-09
 23.83157   -198.2 1.171e+04 3.755e-09
 23.84964   -197.6 1.177e+04 3.566e-09
 23.85960   -197.7 1.165e+04 3.072e-09
 23.87141   -197.1 1.170e+04 3.005e-09
 23.89134   -196.4 1.172e+04 2.967e-09
 23.91126   -195.8 1.173e+04 2.956e-09
 23.93119   -195.1 1.174e+04 2.956e-09
 23.94954   -194.5 1.172e+04 2.963e-09
 23.95950   -194.4 1.169e+04 2.992e-09
 23.97103   -193.7 1.170e+04 3.000e-09
 23.99096   -193.0 1.170e+04 3.001e-09
 24.01088   -192.3 1.169e+04 2.980e-09
 24.03080   -191.6 1.164e+04 2.942e-09
 24.04944   -190.8 1.158e+04 2.895e-09
 24.05940   -190.5 1.140e+04 3.032e-09
 24.07065   -189.7 1.134e+04 2.984e-09
 24.09058   -188.9 1.129e+04 2.937e-09
 24.11050   -188.1 1.127e+04 2.890e-09
 24.13042   -187.3 1.128e+04 2.851e-09
 24.14934   -186.6 1.128e+04 2.842e-09
 24.15930   -186.5 1.127e+04 2.997e-09
 24.17027   -185.8 1.133e+04 2.989e-09
 24.19020   -185.4 1.134e+04 3.045e-09
 24.22018   -184.9 1.137e+04 3.129e-09
 24.24943   -183.5 1.144e+04 3.647e-09
 24.26936   -183.2 1.150e+04 4.364e-09
 24.29997   -182.2 1.155e+04 4.873e-09
 24.33982   -181.3 1.153e+04 5.498e-09
 24.37967   -180.6 1.143e+04 5.964e-09
 24.41952   -179.8 1.137e+04 6.071e-09
 24.44923   -179.0 1.108e+04 5.534e-09
 24.46915   -178.2 1.095e+04 3.657e-09
 24.49921   -177.4 1.075e+04 3.080e-09
 24.53906   -176.5 1.057e+04 2.396e-09
 24.57891   -175.5 1.039e+04 1.774e-09
 24.61876   -174.4 1.022e+04 1.346e-09
 24.64903   -173.1 1.007e+04 1.154e-09
 24.66895   -172.8 1.015e+04 1.220e-09
 24.69845   -171.5 1.012e+04 1.181e-09
 24.73830   -170.2 1.013e+04 1.180e-09
 24.77815   -169.0 1.014e+04 1.243e-09
 24.81799   -168.0 1.013e+04 1.359e-09
 24.84883   -166.9 1.009e+04 1.461e-09
 24.86875   -167.1 1.037e+04 2.171e-09
 24.89769   -166.0 1.036e+04 2.188e-09
 24.92980   -164.7 1.035e+04 2.116e-09
 24.94972   -165.3 1.034e+04 2.006e-09
 24.97739   -164.0 1.036e+04 1.956e-09
 25.01723   -162.7 1.042e+04 1.972e-09
 25.04862   -161.7 1.063e+04 2.303e-09
 25.06855   -163.0 1.100e+04 3.761e-09
 25.09693   -161.9 1.111e+04 4.368e-09
 25.13678   -160.6 1.111e+04 4.561e-09
 25.15839   -158.7 1.097e+04 4.249e-09
 25.16825   -159.1 1.114e+04 4.852e-09
 25.18639   -157.9 1.111e+04 4.374e-09
 25.21637   -156.3 1.114e+04 3.646e-09
 25.24842   -154.9 1.113e+04 3.205e-09
 25.26835   -155.5 1.121e+04 2.404e-09
 25.29617   -153.3 1.112e+04 1.998e-09
 25.33602   -150.9 1.113e+04 1.819e-09
 25.37586   -148.5 1.115e+04 1.787e-09
 25.41571   -146.3 1.116e+04 1.791e-09
 25.44822   -144.3 1.144e+04 2.021e-09
 25.46814   -144.9 1.161e+04 2.882e-09
 25.49541   -142.9 1.178e+04 3.684e-09
 25.53526   -141.0 1.201e+04 4.747e-09
 25.57510   -139.4 1.230e+04 5.985e-09
 25.61495   -138.0 1.260e+04 7.257e-09
 25.64802   -136.7 1.287e+04 8.361e-09
 25.66794   -137.6 1.307e+04 9.385e-09
 25.69465   -137.1 1.341e+04 1.108e-08
 25.72443   -137.2 1.366e+04 1.160e-08
 25.74426   -138.3 1.423e+04 1.786e-08
 25.75768   -139.5 1.538e+04 3.999e-08
 25.76765   -139.7 1.526e+04 3.864e-08
 25.78411   -140.7 1.616e+04 8.205e-08
 25.80403   -142.2 1.683e+04 1.260e-07
 25.82396   -144.8 1.700e+04 1.387e-07
 25.84388   -147.0 1.647e+04 1.233e-07
 25.85758   -147.7 1.518e+04 6.454e-08
 25.86754   -147.4 1.491e+04 4.766e-08
 25.88373   -147.5 1.375e+04 2.265e-08
 25.90365   -147.6 1.290e+04 1.045e-08
 25.92358   -147.6 1.259e+04 5.889e-09
 25.94350   -147.4 1.251e+04 4.366e-09
 25.95748   -146.7 1.247e+04 3.829e-09
 25.96744   -146.3 1.256e+04 3.924e-09
 25.98335   -145.7 1.253e+04 3.495e-09
 26.00327   -145.1 1.254e+04 3.360e-09
 26.02320   -144.6 1.257e+04 3.350e-09
 26.04752   -144.2 1.271e+04 3.486e-09
 26.06754   -142.7 1.267e+04 2.670e-09
 26.09312   -141.7 1.276e+04 2.671e-09
 26.13297   -140.7 1.300e+04 2.959e-09
 26.16028   -140.1 1.318e+04 3.945e-09
 26.18021   -139.1 1.303e+04 3.135e-09
 26.21267   -138.7 1.317e+04 4.698e-09
 26.24741   -138.2 1.340e+04 6.876e-09
 26.26734   -137.3 1.322e+04 5.249e-09
 26.29236   -137.1 1.351e+04 7.499e-09
 26.33221   -137.5 1.388e+04 1.154e-08
 26.35717   -138.5 1.434e+04 1.798e-08
 26.36704   -138.3 1.418e+04 1.606e-08
 26.38183   -139.1 1.442e+04 2.062e-08
 26.40175   -140.3 1.458e+04 2.485e-08
 26.42167   -141.7 1.454e+04 2.772e-08
 26.44160   -142.9 1.440e+04 2.905e-08
 26.45698   -144.0 1.431e+04 2.935e-08
 26.46694   -144.7 1.431e+04 2.903e-08
 26.48145   -145.7 1.427e+04 3.001e-08
 26.50137   -146.6 1.420e+04 3.021e-08
 26.52129   -147.3 1.372e+04 2.844e-08
 26.54122   -147.8 1.320e+04 2.303e-08
 26.55687   -148.3 1.267e+04 1.715e-08
 26.56684   -149.0 1.283e+04 1.775e-08
 26.58106   -149.5 1.226e+04 1.307e-08
 26.60099   -149.9 1.174e+04 1.006e-08
 26.62091   -150.4 1.133e+04 8.457e-09
 26.64084   -150.8 1.104e+04 7.921e-09
 26.65677   -151.1 1.094e+04 7.834e-09
 26.66674   -152.2 1.149e+04 1.112e-08
 26.68068   -152.4 1.136e+04 1.110e-08
 26.70061   -152.4 1.096e+04 1.114e-08
 26.72053   -152.0 1.055e+04 1.010e-08
 26.74046   -151.2 1.017e+04 8.114e-09
 26.75667   -150.3 9.788e+03 6.050e-09
 26.76663   -150.9 9.586e+03 5.135e-09
 26.77533   -149.9 9.225e+03 3.791e-09
 26.78529   -149.6 9.243e+03 3.850e-09
 26.81029   -148.7 8.987e+03 2.949e-09
 26.84680   -147.7 8.592e+03 2.261e-09
 26.86673   -148.5 8.198e+03 1.732e-09
 26.89008   -145.9 7.742e+03 1.283e-09
 26.92993   -143.5 7.622e+03 1.161e-09
 26.96978   -141.4 7.612e+03 1.146e-09
 27.00962   -139.8 7.744e+03 1.219e-09
 27.04660   -138.6 7.943e+03 1.434e-09
 27.06653   -138.7 7.938e+03 1.433e-09
 27.08932   -137.8 8.025e+03 1.571e-09
 27.12917   -137.0 8.036e+03 1.609e-09
 27.16902   -136.2 8.024e+03 1.578e-09
 27.20886   -135.2 8.028e+03 1.410e-09
 27.24640   -134.1 8.077e+03 1.263e-09
 27.26632   -134.8 8.204e+03 1.517e-09
 27.28856   -133.8 8.208e+03 1.489e-09
 27.32841   -133.3 8.412e+03 1.566e-09
 27.36825   -133.0 8.752e+03 2.028e-09
 27.39076   -132.9 9.114e+03 2.662e-09
 27.41069   -130.6 9.522e+03 3.411e-09
 27.44620   -130.7 9.937e+03 4.141e-09
 27.46602   -132.2 1.033e+04 6.187e-09
 27.47764   -132.9 1.036e+04 6.356e-09
 27.49756   -133.4 1.035e+04 6.370e-09
 27.51749   -133.8 1.032e+04 6.081e-09
 27.53741   -134.0 1.033e+04 5.486e-09
 27.55586   -134.2 1.035e+04 4.981e-09
 27.56583   -134.8 1.067e+04 6.059e-09
 27.57726   -135.0 1.067e+04 5.787e-09
 27.59718   -134.9 1.069e+04 5.632e-09
 27.61711   -134.7 1.074e+04 5.439e-09
 27.63703   -134.2 1.079e+04 5.016e-09
 27.65576   -133.6 1.078e+04 4.449e-09
 27.66572   -134.3 1.096e+04 4.946e-09
 27.67688   -133.5 1.094e+04 4.090e-09
 27.69680   -132.8 1.094e+04 3.400e-09
 27.71673   -132.0 1.105e+04 2.890e-09
 27.73665   -131.6 1.121e+04 2.672e-09
 27.76663   -130.9 1.149e+04 2.437e-09
 27.80658   -129.9 1.158e+04 1.973e-09
 27.84579   -128.4 1.163e+04 1.567e-09
 27.86572   -128.8 1.209e+04 2.444e-09
 27.88628   -127.3 1.204e+04 2.036e-09
 27.92612   -125.8 1.214e+04 1.762e-09
 27.96597   -124.5 1.225e+04 1.713e-09
 28.00582   -123.5 1.246e+04 1.715e-09
 28.04559   -123.6 1.281e+04 2.556e-09
 28.07538   -126.0 1.423e+04 8.372e-09
 28.09528   -126.5 1.440e+04 1.270e-08
 28.11521   -126.8 1.446e+04 1.777e-08
 28.13513   -127.1 1.447e+04 2.279e-08
 28.15505   -127.3 1.438e+04 2.571e-08
 28.16522   -127.4 1.433e+04 2.634e-08
 28.17518   -128.6 1.478e+04 4.174e-08
 28.19490   -128.5 1.455e+04 3.284e-08
 28.21482   -128.3 1.426e+04 2.403e-08
 28.23475   -128.0 1.394e+04 1.702e-08
 28.25467   -127.6 1.371e+04 1.190e-08
 28.26512   -127.1 1.360e+04 8.453e-09
 28.27508   -127.4 1.363e+04 8.203e-09
 28.29452   -126.8 1.361e+04 6.204e-09
 28.31444   -126.1 1.364e+04 5.145e-09
 28.33437   -125.3 1.377e+04 4.623e-09
 28.36435   -124.7 1.387e+04 4.363e-09
 28.39424   -124.7 1.456e+04 4.959e-09
 28.41406   -125.5 1.484e+04 7.624e-09
 28.43399   -126.5 1.501e+04 1.542e-08
 28.45391   -127.6 1.546e+04 3.144e-08
 28.46492   -128.9 1.607e+04 5.456e-08
 28.47488   -129.8 1.647e+04 6.658e-08
 28.49376   -132.4 1.681e+04 7.612e-08
 28.51368   -135.0 1.688e+04 7.856e-08
 28.53361   -137.0 1.658e+04 6.924e-08
 28.55353   -137.9 1.602e+04 4.367e-08
 28.56481   -138.3 1.552e+04 2.526e-08
 28.57478   -139.7 1.562e+04 3.047e-08
 28.59338   -139.1 1.527e+04 1.791e-08
 28.61109   -138.3 1.508e+04 1.116e-08
 28.62105   -138.7 1.506e+04 7.484e-09
 28.63323   -137.9 1.503e+04 5.600e-09
 28.65315   -136.8 1.501e+04 4.627e-09
 28.66471   -135.6 1.503e+04 3.987e-09
 28.67468   -136.1 1.503e+04 4.914e-09
 28.69300   -134.9 1.501e+04 4.417e-09
 28.71292   -133.8 1.499e+04 4.031e-09
 28.73285   -132.8 1.500e+04 3.835e-09
 28.76283   -131.9 1.503e+04 3.798e-09
 28.80278   -129.9 1.487e+04 3.703e-09
 28.84262   -128.0 1.474e+04 3.619e-09
 28.86471   -126.3 1.462e+04 3.497e-09
 28.87457   -126.9 1.495e+04 4.318e-09
 28.89224   -126.2 1.489e+04 4.267e-09
 28.92222   -125.3 1.485e+04 4.268e-09
 28.96217   -123.1 1.468e+04 4.012e-09
 29.00201   -121.2 1.468e+04 3.823e-09
 29.04186   -119.4 1.470e+04 3.738e-09
 29.06450   -117.9 1.481e+04 3.797e-09
 29.08443   -118.4 1.487e+04 3.778e-09
 29.12156   -117.3 1.497e+04 3.911e-09
 29.16141   -116.5 1.486e+04 4.103e-09
 29.20125   -116.0 1.477e+04 4.124e-09
 29.24110   -115.2 1.460e+04 3.708e-09
 29.26430   -114.0 1.456e+04 2.948e-09
 29.28423   -114.3 1.441e+04 3.610e-09
 29.32080   -112.7 1.439e+04 2.937e-09
 29.36064   -111.0 1.441e+04 2.422e-09
 29.40049   -109.3 1.439e+04 2.074e-09
 29.44034   -107.5 1.438e+04 1.839e-09
 29.46410   -105.6 1.435e+04 1.720e-09
 29.48402   -106.0 1.437e+04 2.132e-09
 29.52004   -104.2 1.439e+04 2.115e-09
 29.55988   -102.7 1.449e+04 2.293e-09
 29.59973   -101.5 1.457e+04 2.547e-09
 29.63958   -100.5 1.461e+04 2.629e-09
 29.66390    -99.4 1.458e+04 2.496e-09
 29.68382   -100.3 1.468e+04 2.406e-09
 29.71927    -98.6 1.480e+04 1.621e-09
 29.75912    -96.8 1.497e+04 1.067e-09
 29.79897    -94.9 1.507e+04 7.834e-10
 29.83180    -93.0 1.495e+04 6.835e-10
 29.85173    -92.5 1.488e+04 8.477e-10
 29.86370    -90.5 1.479e+04 8.195e-10
 29.88362    -90.8 1.477e+04 8.132e-10
 29.91851    -88.8 1.474e+04 8.077e-10
 29.95836    -86.9 1.457e+04 8.321e-10
 29.99821    -85.2 1.427e+04 9.494e-10
 30.03806    -83.7 1.412e+04 1.148e-09
 30.06349    -82.4 1.396e+04 1.431e-09
 30.08342    -82.5 1.397e+04 1.421e-09
 30.11775    -81.4 1.377e+04 1.922e-09
 30.15760    -80.5 1.361e+04 2.369e-09
 30.19745    -79.9 1.356e+04 2.470e-09
 30.23730    -78.9 1.325e+04 2.348e-09
 30.26329    -77.3 1.310e+04 1.729e-09
 30.28322    -77.5 1.307e+04 1.971e-09
 30.31699    -75.5 1.312e+04 1.273e-09
 30.35684    -73.4 1.313e+04 8.689e-10
 30.39669    -71.3 1.311e+04 6.594e-10
 30.43654    -69.1 1.305e+04 5.430e-10
 30.46309    -66.8 1.299e+04 4.762e-10
 30.48301    -66.8 1.299e+04 5.240e-10
 30.51623    -64.5 1.295e+04 5.126e-10
 30.55608    -62.3 1.289e+04 5.310e-10
 30.59593    -60.2 1.278e+04 6.066e-10
 30.63577    -58.2 1.265e+04 7.327e-10
 30.66289    -56.4 1.251e+04 8.940e-10
 30.68281    -56.1 1.245e+04 1.233e-09
 30.71547    -54.5 1.238e+04 1.307e-09
 30.75532    -53.0 1.229e+04 1.288e-09
 30.79517    -51.7 1.225e+04 1.159e-09
 30.83501    -50.5 1.219e+04 1.014e-09
 30.86269    -49.3 1.217e+04 9.096e-10
 30.88261    -49.4 1.218e+04 1.058e-09
 30.91471    -48.1 1.210e+04 1.053e-09
 30.95456    -46.6 1.193e+04 1.108e-09
 30.99440    -45.0 1.183e+04 1.163e-09
 31.03425    -43.4 1.176e+04 1.188e-09
 31.06229    -42.0 1.171e+04 1.208e-09
 31.07059    -41.1 1.174e+04 1.239e-09
 31.08241    -41.0 1.173e+04 1.577e-09
 31.11395    -39.7 1.166e+04 1.582e-09
 31.15380    -38.3 1.157e+04 1.543e-09
 31.19364    -36.8 1.148e+04 1.429e-09
 31.23349    -35.1 1.145e+04 1.253e-09
 31.26228    -33.5 1.143e+04 1.100e-09
 31.28220    -33.5 1.140e+04 1.059e-09
 31.31319    -31.6 1.132e+04 9.941e-10
 31.35304    -29.6 1.126e+04 9.319e-10
 31.39288    -27.6 1.124e+04 8.477e-10
 31.43273    -25.7 1.125e+04 7.842e-10
 31.46208    -23.8 1.126e+04 7.722e-10
 31.48200    -24.1 1.138e+04 9.699e-10
 31.51243    -22.3 1.142e+04 1.034e-09
 31.55227    -20.9 1.146e+04 1.162e-09
 31.59212    -19.6 1.137e+04 1.526e-09
 31.63197    -18.2 1.123e+04 2.179e-09
 31.66188    -16.6 1.117e+04 2.704e-09
 31.68180    -16.9 1.116e+04 2.449e-09
 31.71167    -15.2 1.095e+04 2.203e-09
 31.75151    -13.3 1.090e+04 1.394e-09
 31.79136    -11.6 1.091e+04 8.287e-10
 31.83121     -9.9 1.081e+04 6.179e-10
 31.86167     -8.1 1.079e+04 5.526e-10
 31.88160     -7.8 1.082e+04 5.376e-10
 31.91090     -5.7 1.076e+04 5.560e-10
 31.95075     -3.8 1.084e+04 6.180e-10
 31.99060     -1.6 1.068e+04 8.396e-10
 32.03045      0.9 1.069e+04 9.829e-10
 32.06147      3.0 1.078e+04 1.081e-09
 32.08140      3.3 1.086e+04 1.037e-09
 32.11014      5.1 1.090e+04 1.322e-09
 32.14999      7.1 1.092e+04 1.612e-09
 32.18984      9.0 1.094e+04 1.655e-09
 32.22969     11.0 1.097e+04 1.526e-09
 32.26127     13.0 1.091e+04 1.476e-09
 32.28119     12.9 1.104e+04 1.537e-09
 32.29277     14.5 1.108e+04 1.715e-09
 32.31269     15.3 1.109e+04 1.563e-09
 32.34923     16.8 1.119e+04 1.987e-09
 32.38908     18.2 1.129e+04 2.652e-09
 32.42893     19.6 1.141e+04 3.151e-09
 32.46107     20.9 1.145e+04 3.228e-09
 32.48099     20.1 1.153e+04 3.240e-09
 32.50862     21.4 1.155e+04 2.954e-09
 32.54847     22.9 1.157e+04 2.753e-09
 32.58832     24.5 1.163e+04 2.776e-09
 32.62816     25.7 1.178e+04 3.247e-09
 32.66087     26.8 1.226e+04 5.003e-09
 32.68079     24.6 1.233e+04 5.397e-09
 32.70786     24.4 1.288e+04 8.295e-09
 32.73765     23.7 1.343e+04 1.371e-08
 32.75748     22.8 1.383e+04 1.940e-08
 32.77053     21.6 1.419e+04 2.366e-08
 32.78049     20.9 1.389e+04 1.554e-08
 32.79732     19.0 1.413e+04 2.008e-08
 32.81725     17.5 1.421e+04 2.588e-08
 32.83717     16.3 1.427e+04 2.644e-08
 32.85709     15.8 1.418e+04 2.240e-08
 32.87043     15.1 1.421e+04 1.562e-08
 32.88039     15.1 1.431e+04 1.748e-08
 32.89694     14.6 1.403e+04 9.572e-09
 32.90781     13.8 1.389e+04 8.306e-09
 32.91777     14.1 1.392e+04 8.890e-09
 32.94685     14.7 1.359e+04 5.154e-09
 32.98680     15.4 1.356e+04 3.002e-09
 33.02664     16.5 1.339e+04 2.207e-09
 33.06046     18.3 1.321e+04 1.814e-09
 33.08039     18.2 1.318e+04 1.541e-09
 33.10634     20.2 1.306e+04 1.479e-09
 33.14619     22.1 1.315e+04 1.498e-09
 33.18603     23.5 1.321e+04 2.009e-09
 33.22588     24.7 1.325e+04 3.118e-09
 33.25567     26.2 1.319e+04 3.732e-09
 33.27003     26.5 1.329e+04 4.155e-09
 33.28009     26.5 1.326e+04 4.211e-09
 33.29552     27.5 1.333e+04 4.626e-09
 33.31534     27.7 1.350e+04 5.199e-09
 33.33527     27.6 1.368e+04 5.797e-09
 33.35519     27.6 1.374e+04 6.332e-09
 33.36992     27.6 1.381e+04 6.441e-09
 33.37989     27.9 1.389e+04 7.655e-09
 33.39504     27.6 1.402e+04 7.749e-09
 33.41496     26.8 1.424e+04 8.471e-09
 33.43489     25.6 1.446e+04 1.120e-08
 33.45481     24.4 1.454e+04 1.707e-08
 33.46982     23.6 1.455e+04 2.365e-08
 33.47979     23.5 1.480e+04 2.924e-08
 33.49466     23.0 1.466e+04 3.275e-08
 33.51309     23.5 1.404e+04 2.422e-08
 33.52305     24.2 1.458e+04 3.288e-08
 33.53451     24.8 1.390e+04 2.191e-08
 33.55443     25.2 1.326e+04 1.052e-08
 33.56972     24.9 1.295e+04 4.819e-09
 33.57968     25.1 1.279e+04 5.269e-09
 33.59428     24.6 1.278e+04 2.750e-09
 33.61420     24.7 1.235e+04 2.171e-09
 33.63413     24.8 1.216e+04 2.085e-09
 33.65976     26.7 1.202e+04 2.161e-09
 33.67978     27.6 1.204e+04 2.152e-09
 33.70406     30.0 1.171e+04 1.833e-09
 33.74390     32.6 1.148e+04 1.506e-09
 33.78375     35.0 1.138e+04 1.258e-09
 33.82360     37.3 1.126e+04 1.200e-09
 33.85965     39.6 1.125e+04 1.244e-09
 33.87958     40.4 1.108e+04 1.133e-09
 33.90329     42.5 1.101e+04 1.237e-09
 33.94314     44.3 1.096e+04 1.568e-09
 33.98299     46.0 1.105e+04 2.415e-09
 34.02284     47.5 1.124e+04 3.911e-09
 34.05945     48.5 1.138e+04 4.970e-09
 34.07937     49.2 1.098e+04 3.011e-09
 34.10253     49.9 1.098e+04 3.086e-09
 34.14238     50.7 1.085e+04 2.765e-09
 34.18223     51.8 1.065e+04 1.967e-09
 34.22208     52.9 1.049e+04 1.287e-09
 34.25925     54.1 1.019e+04 1.041e-09
 34.27917     55.2 1.016e+04 1.022e-09
 34.30177     56.8 9.996e+03 1.010e-09
 34.34162     58.5 9.976e+03 1.026e-09
 34.38147     60.2 9.960e+03 1.090e-09
 34.42132     61.9 9.985e+03 1.188e-09
 34.45905     63.5 9.971e+03 1.286e-09
 34.47897     64.5 9.819e+03 1.095e-09
 34.50101     66.1 9.781e+03 1.104e-09
 34.54086     67.7 9.725e+03 1.124e-09
 34.58071     69.5 9.651e+03 1.132e-09
 34.62056     71.3 9.562e+03 1.122e-09
 34.65884     73.3 9.502e+03 1.118e-09
 34.67877     74.3 9.416e+03 1.119e-09
 34.70025     76.4 9.362e+03 1.142e-09
 34.73381     78.5 9.331e+03 1.170e-09
 34.75373     79.6 9.300e+03 1.156e-09
 34.77995     81.7 9.286e+03 1.219e-09
 34.81979     83.8 9.276e+03 1.297e-09
 34.85864     85.9 9.270e+03 1.396e-09
 34.87857     86.8 9.201e+03 1.241e-09
 34.89949     88.8 9.222e+03 1.351e-09
 34.93934     90.7 9.223e+03 1.453e-09
 34.97919     92.6 9.212e+03 1.471e-09
 35.01903     94.5 9.182e+03 1.454e-09
 35.05844     96.5 9.112e+03 1.374e-09
 35.07836     97.3 9.042e+03 1.271e-09
 35.09873     99.3 8.980e+03 1.236e-09
 35.13858    101.4 8.913e+03 1.194e-09
 35.17842    103.5 8.838e+03 1.145e-09
 35.21827    105.7 8.794e+03 1.071e-09
 35.25812    108.0 8.699e+03 9.901e-10
 35.29797    111.1 8.639e+03 1.170e-09
 35.33782    113.3 8.561e+03 1.087e-09
 35.37766    115.6 8.499e+03 1.024e-09
 35.41751    117.9 8.484e+03 1.013e-09
 35.45736    120.1 8.484e+03 1.024e-09
 35.47796    122.2 8.494e+03 1.094e-09
 35.49788    122.7 8.572e+03 1.474e-09
 35.53706    124.6 8.625e+03 1.667e-09
 35.57690    126.4 8.735e+03 1.915e-09
 35.61675    128.0 8.910e+03 2.193e-09
 35.65660    129.3 9.137e+03 2.478e-09
 35.67776    130.3 9.359e+03 2.751e-09
 35.69768    130.2 9.331e+03 3.166e-09
 35.72623    130.8 9.387e+03 3.351e-09
 35.74606    131.3 9.463e+03 3.647e-09
 35.76598    131.8 9.661e+03 4.240e-09
 35.77746    131.9 9.912e+03 5.014e-09
 35.78742    131.8 9.988e+03 5.571e-09
 35.80583    131.8 1.020e+04 6.370e-09
 35.82576    131.8 1.040e+04 7.065e-09
 35.84568    131.6 1.048e+04 7.122e-09
 35.86560    131.1 1.047e+04 6.961e-09
 35.87736    130.8 1.038e+04 6.337e-09
 35.89738    130.0 1.007e+04 5.131e-09
 35.93553    129.9 9.493e+03 3.456e-09
 35.96429    130.0 8.837e+03 2.272e-09
 35.98421    130.5 8.676e+03 1.918e-09
 36.01523    131.3 8.464e+03 1.662e-09
 36.05508    133.3 8.562e+03 1.682e-09
 36.07725    134.0 8.640e+03 1.743e-09
 36.08712    134.3 8.602e+03 1.729e-09
 36.10469    134.5 8.804e+03 1.884e-09
 36.12461    134.3 9.144e+03 2.121e-09
 36.14454    133.4 9.921e+03 3.179e-09
 36.16446    132.1 1.109e+04 6.807e-09
 36.17706    130.5 1.265e+04 1.719e-08
 36.18702    130.8 1.293e+04 1.782e-08
 36.20431    128.9 1.489e+04 4.645e-08
 36.22423    126.8 1.636e+04 8.615e-08
 36.24416    123.3 1.719e+04 1.069e-07
 36.26408    118.7 1.731e+04 9.962e-08
 36.27695    113.7 1.681e+04 7.065e-08
 36.28692    115.3 1.731e+04 8.939e-08
 36.30393    110.6 1.589e+04 4.365e-08
 36.32385    106.0 1.344e+04 2.033e-08
 36.34378    103.2 1.145e+04 1.257e-08
 36.36370    102.7 1.096e+04 1.001e-08
 36.37685    102.8 1.076e+04 8.609e-09
 36.38682    102.8 1.057e+04 7.053e-09
 36.40355    103.3 1.034e+04 6.165e-09
 36.42347    103.9 1.007e+04 5.237e-09
 36.44340    104.5 9.830e+03 4.460e-09
 36.46332    105.2 9.676e+03 3.884e-09
 36.47675    105.8 9.566e+03 3.407e-09
 36.49677    105.9 9.487e+03 2.904e-09
 36.53325    107.3 9.236e+03 2.747e-09
 36.57310    109.1 9.217e+03 2.792e-09
 36.60289    110.3 9.136e+03 2.775e-09
 36.62271    111.3 9.134e+03 2.815e-09
 36.64264    112.3 9.179e+03 3.015e-09
 36.66256    113.1 9.346e+03 3.444e-09
 36.67655    113.7 9.581e+03 4.168e-09
 36.68651    114.2 9.196e+03 3.159e-09
 36.70241    114.9 9.443e+03 3.927e-09
 36.72233    115.4 9.684e+03 4.830e-09
 36.74226    115.9 9.893e+03 5.732e-09
 36.76218    116.4 1.007e+04 6.625e-09
 36.77645    116.8 1.023e+04 7.614e-09
 36.78641    117.9 9.874e+03 5.861e-09
 36.80203    118.4 1.002e+04 6.544e-09
 36.82195    118.9 1.025e+04 7.557e-09
 36.84188    119.6 1.046e+04 9.192e-09
 36.86180    120.0 1.067e+04 1.064e-08
 36.87635    119.5 1.160e+04 1.426e-08
 36.88631    121.1 1.071e+04 9.794e-09
 36.90165    119.7 1.230e+04 1.673e-08
 36.92157    115.9 1.534e+04 4.268e-08
 36.93647    113.8 1.649e+04 7.249e-08
 36.94638    111.9 1.749e+04 1.179e-07
 36.95634    109.6 1.851e+04 1.975e-07
 36.96630    107.2 1.932e+04 2.590e-07
 36.97615    104.4 1.948e+04 2.554e-07
 36.98113    106.5 1.944e+04 3.187e-07
 36.98623    103.7 1.942e+04 2.870e-07
 36.99619    101.2 1.926e+04 1.985e-07
 37.00615     98.5 1.911e+04 1.182e-07
 37.02114     94.8 1.906e+04 6.382e-08
 37.04111     87.8 1.739e+04 5.658e-08
 37.06104     82.9 1.699e+04 7.244e-08
 37.07615     80.6 1.703e+04 1.255e-07
 37.08611     80.9 1.529e+04 3.265e-08
 37.10089     79.1 1.568e+04 5.099e-08
 37.12081     78.2 1.540e+04 5.496e-08
 37.14073     77.6 1.471e+04 4.798e-08
 37.16066     76.9 1.356e+04 3.204e-08
 37.17604     75.8 1.234e+04 1.897e-08
 37.18601     77.2 1.240e+04 1.884e-08
 37.19458     75.9 1.150e+04 1.251e-08
 37.20454     75.4 1.157e+04 1.227e-08
 37.22043     74.1 1.078e+04 8.888e-09
 37.24035     73.5 1.029e+04 7.624e-09
 37.26028     73.6 1.019e+04 7.298e-09
 37.27594     73.7 1.021e+04 7.340e-09
 37.28591     74.4 1.032e+04 7.978e-09
 37.30013     74.2 1.046e+04 8.460e-09
 37.32005     73.9 1.068e+04 9.362e-09
 37.33997     73.5 1.094e+04 1.071e-08
 37.35990     72.8 1.122e+04 1.244e-08
 37.37584     72.1 1.146e+04 1.410e-08
 37.38580     71.5 1.193e+04 1.596e-08
 37.39974     70.3 1.212e+04 1.682e-08
 37.41967     69.1 1.212e+04 1.665e-08
 37.43959     67.9 1.201e+04 1.570e-08
 37.45952     66.8 1.183e+04 1.430e-08
 37.47574     65.7 1.169e+04 1.306e-08
 37.48570     64.5 1.180e+04 1.298e-08
 37.49936     63.2 1.183e+04 1.241e-08
 37.51929     62.1 1.188e+04 1.218e-08
 37.53921     61.1 1.194e+04 1.175e-08
 37.55914     60.2 1.195e+04 1.078e-08
 37.57564     59.4 1.185e+04 9.434e-09
 37.58560     57.4 1.145e+04 7.870e-09
 37.59898     56.9 1.132e+04 6.848e-09
 37.61891     56.5 1.131e+04 6.120e-09
 37.63883     56.3 1.137e+04 5.900e-09
 37.65876     56.2 1.143e+04 5.826e-09
 37.67554     55.8 1.154e+04 5.806e-09
 37.68550     52.5 1.124e+04 5.301e-09
 37.69860     52.3 1.117e+04 5.517e-09
 37.71853     52.4 1.117e+04 5.625e-09
 37.73845     52.4 1.123e+04 5.710e-09
 37.75838     52.6 1.127e+04 5.621e-09
 37.77544     52.6 1.134e+04 5.593e-09
 37.78540     52.4 1.128e+04 5.426e-09
 37.80828     52.6 1.152e+04 5.335e-09
 37.84823     53.1 1.185e+04 5.767e-09
 37.87543     49.6 1.300e+04 9.007e-09
 37.88530     46.7 1.318e+04 1.102e-08
 37.89784     44.3 1.489e+04 3.448e-08
 37.91777     43.0 1.536e+04 5.245e-08
 37.93769     42.1 1.504e+04 4.555e-08
 37.95761     41.0 1.438e+04 2.510e-08
 37.97524     37.7 1.355e+04 1.167e-08
 37.98520     34.2 1.328e+04 1.454e-08
 37.99746     31.9 1.288e+04 1.479e-08
 38.01739     31.0 1.291e+04 1.762e-08
 38.03731     30.7 1.327e+04 2.280e-08
 38.05723     30.6 1.371e+04 2.801e-08
 38.07514     30.4 1.397e+04 3.262e-08
 38.08510     27.9 1.398e+04 2.837e-08
 38.09708     27.5 1.388e+04 2.514e-08
 38.11701     27.0 1.369e+04 2.098e-08
 38.13693     26.6 1.341e+04 1.721e-08
 38.15685     26.1 1.318e+04 1.452e-08
 38.17503     25.5 1.305e+04 1.332e-08
 38.18500     22.4 1.270e+04 1.243e-08
 38.19670     21.9 1.279e+04 1.321e-08
 38.21662     21.3 1.299e+04 1.565e-08
 38.23655     20.8 1.328e+04 1.969e-08
 38.25647     20.5 1.358e+04 2.745e-08
 38.27493     20.7 1.390e+04 3.532e-08
 38.28489     19.7 1.301e+04 1.810e-08
 38.29632     19.3 1.297e+04 1.440e-08
 38.31624     18.3 1.274e+04 1.136e-08
 38.33617     17.1 1.244e+04 1.016e-08
 38.35609     16.7 1.214e+04 9.725e-09
 38.37483     16.9 1.189e+04 9.472e-09
 38.38479     16.3 1.143e+04 5.962e-09
 38.39594     17.2 1.130e+04 5.908e-09
 38.41510     17.8 1.121e+04 5.639e-09
 38.42506     17.8 1.120e+04 5.600e-09
 38.43579     19.3 1.097e+04 4.595e-09
 38.45571     19.7 1.103e+04 3.902e-09
 38.47483     21.1 1.065e+04 2.691e-09
 38.49485     20.9 1.053e+04 2.442e-09
 38.52564     23.0 1.025e+04 1.712e-09
 38.56549     25.1 1.017e+04 1.247e-09
 38.60534     27.2 1.013e+04 1.118e-09
 38.64518     29.6 1.014e+04 1.122e-09
 38.67472     32.0 1.019e+04 1.138e-09
 38.69465     31.1 1.025e+04 1.158e-09
 38.72488     33.3 1.030e+04 1.214e-09
 38.76473     35.3 1.033e+04 1.381e-09
 38.80458     37.0 1.051e+04 1.768e-09
 38.84442     38.2 1.079e+04 2.513e-09
 38.87421     38.0 1.096e+04 3.631e-09
 38.88429     38.2 1.106e+04 4.781e-09
 38.89425     37.0 1.129e+04 6.675e-09
 38.91396     37.3 1.145e+04 7.980e-09
 38.93389     37.4 1.150e+04 8.211e-09
 38.95381     37.5 1.142e+04 7.891e-09
 38.97373     37.6 1.120e+04 6.940e-09
 38.98419     37.8 1.094e+04 5.775e-09
 38.99415     36.7 1.089e+04 6.179e-09
 39.01358     36.8 1.064e+04 4.931e-09
 39.03034     37.1 1.049e+04 4.028e-09
 39.04030     37.3 1.053e+04 4.255e-09
 39.05343     37.4 1.043e+04 3.715e-09
 39.07335     37.9 1.026e+04 3.308e-09
 39.08409     38.2 1.013e+04 3.030e-09
 39.09405     37.5 1.018e+04 3.137e-09
 39.12326     38.4 9.996e+03 2.789e-09
 39.16321     40.0 9.845e+03 2.477e-09
 39.20305     41.8 9.722e+03 2.209e-09
 39.24290     43.8 9.617e+03 1.920e-09
 39.27412     45.9 9.533e+03 1.638e-09
 39.29404     45.3 9.492e+03 1.595e-09
 39.32260     47.5 9.451e+03 1.417e-09
 39.36244     49.9 9.433e+03 1.382e-09
 39.40229     52.3 9.441e+03 1.401e-09
 39.44214     54.7 9.486e+03 1.518e-09
 39.47392     57.0 9.583e+03 1.844e-09
 39.49384     56.6 9.548e+03 1.828e-09
 39.52184     58.9 9.663e+03 2.318e-09
 39.56168     61.3 9.844e+03 2.816e-09
 39.60153     63.3 9.989e+03 2.878e-09
 39.63581     65.2 9.998e+03 2.714e-09
 39.65573     64.9 1.001e+04 2.570e-09
 39.67371     67.0 9.932e+03 1.988e-09
 39.69364     66.8 9.744e+03 1.298e-09
 39.72107     69.0 9.694e+03 9.928e-10
 39.76092     71.3 9.663e+03 8.648e-10
 39.80077     73.7 9.706e+03 8.485e-10
 39.84062     76.2 9.725e+03 8.778e-10
 39.87351     78.7 9.789e+03 9.611e-10
 39.89343     78.7 9.769e+03 1.066e-09
 39.92031     81.1 9.865e+03 1.267e-09
 39.96016     83.3 9.977e+03 1.541e-09
 40.00001     85.3 1.013e+04 1.879e-09
 40.03986     87.0 1.031e+04 2.241e-09
 40.07331     88.5 1.044e+04 2.573e-09
 40.09323     88.0 1.046e+04 2.702e-09
 40.11955     89.2 1.052e+04 2.892e-09
 40.15940     90.3 1.054e+04 2.823e-09
 40.19925     91.4 1.058e+04 2.773e-09
 40.23910     92.4 1.061e+04 2.812e-09
 40.27311     93.4 1.073e+04 3.009e-09
 40.29303     93.3 1.064e+04 2.539e-09
 40.31879     94.3 1.083e+04 2.777e-09
 40.35864     95.3 1.093e+04 2.816e-09
 40.39849     96.4 1.097e+04 2.705e-09
 40.43834     97.6 1.105e+04 2.315e-09
 40.47290     98.9 1.116e+04 1.839e-09
 40.49283     99.1 1.106e+04 1.549e-09
 40.51803    100.6 1.117e+04 1.365e-09
 40.55788    102.2 1.121e+04 1.421e-09
 40.59773    103.9 1.131e+04 1.618e-09
 40.63757    105.7 1.142e+04 1.922e-09
 40.67270    107.5 1.152e+04 2.235e-09
 40.69263    107.9 1.147e+04 2.301e-09
 40.71727    109.6 1.160e+04 2.457e-09
 40.75712    111.4 1.173e+04 2.493e-09
 40.79697    113.3 1.191e+04 2.555e-09
 40.83681    115.3 1.211e+04 2.676e-09
 40.86619    116.6 1.222e+04 2.720e-09
 40.88196    118.3 1.231e+04 2.806e-09
 40.89242    118.3 1.233e+04 2.724e-09
 40.90645    119.0 1.239e+04 2.839e-09
 40.92628    119.7 1.247e+04 3.068e-09
 40.94620    120.6 1.260e+04 3.438e-09
 40.96612    121.3 1.272e+04 3.871e-09
 40.98217    122.0 1.283e+04 4.327e-09
 40.99213    122.2 1.272e+04 3.714e-09
 41.00597    122.9 1.281e+04 4.028e-09
 41.02590    123.5 1.291e+04 4.377e-09
 41.04582    124.0 1.304e+04 4.798e-09
 41.06574    124.4 1.320e+04 5.310e-09
 41.08206    124.6 1.335e+04 5.775e-09
 41.09203    125.1 1.325e+04 5.254e-09
 41.10559    125.2 1.340e+04 5.864e-09
 41.12551    125.2 1.353e+04 6.496e-09
 41.14544    125.1 1.363e+04 7.324e-09
 41.16536    124.6 1.369e+04 8.388e-09
 41.18196    124.0 1.366e+04 9.561e-09
 41.19193    124.7 1.384e+04 1.058e-08
 41.20521    124.0 1.383e+04 1.201e-08
 41.22513    123.2 1.373e+04 1.261e-08
 41.24506    122.4 1.362e+04 1.227e-08
 41.26498    121.8 1.341e+04 1.086e-08
 41.28186    121.3 1.318e+04 8.605e-09
 41.29182    122.0 1.354e+04 1.223e-08
 41.30483    121.5 1.327e+04 9.656e-09
 41.32475    121.1 1.301e+04 7.312e-09
 41.34468    121.0 1.282e+04 5.518e-09
 41.36460    121.0 1.271e+04 4.256e-09
 41.38176    121.1 1.268e+04 3.371e-09
 41.39172    121.3 1.284e+04 4.846e-09
 41.40445    121.5 1.283e+04 3.538e-09
 41.42437    121.7 1.281e+04 2.623e-09
 41.44430    121.7 1.280e+04 2.301e-09
 41.47180    122.8 1.276e+04 2.074e-09
 41.49182    122.4 1.339e+04 2.513e-09
 41.51423    123.8 1.335e+04 2.051e-09
 41.55407    126.0 1.321e+04 1.893e-09
 41.59392    128.9 1.329e+04 1.940e-09
 41.63377    132.0 1.339e+04 1.954e-09
 41.67169    135.6 1.366e+04 1.951e-09
 41.69152    135.3 1.487e+04 2.280e-09
 41.70331    137.0 1.516e+04 2.274e-09
 41.72323    138.8 1.595e+04 2.327e-09
 41.74316    140.4 1.665e+04 2.446e-09
 41.76308    139.9 2.013e+04 3.545e-09
 41.78136    138.6 2.499e+04 4.697e-09
 41.79127    135.1 2.240e+04 1.291e-07
 41.79384    133.7 2.125e+04 3.431e-07
 41.79882    136.9 2.207e+04 2.299e-07
 41.80781    135.9 2.052e+04 6.431e-07
 41.81777    134.5 1.944e+04 1.725e-06
 41.82773    132.6 1.797e+04 4.252e-06
 41.83619    130.2 1.756e+04 6.072e-06
 41.84115    125.7 1.689e+04 1.047e-05
 41.84512    122.9 1.771e+04 6.491e-06
 41.85010    121.6 1.798e+04 5.104e-06
 41.85508    118.5 1.890e+04 3.099e-06
 41.86006    117.1 1.940e+04 2.388e-06
 41.86756    112.4 2.062e+04 1.415e-06
 41.87754    107.9 2.080e+04 6.355e-07
 41.88614    103.5 2.016e+04 2.850e-07
 41.89112    100.1 1.868e+04 9.532e-08
 41.89747     97.9 1.751e+04 7.350e-08
 41.90743     97.6 1.728e+04 6.642e-08
 41.91739     97.6 1.720e+04 5.904e-08
 41.92735     97.8 1.701e+04 5.179e-08
 41.93609     98.0 1.673e+04 4.501e-08
 41.94107     97.8 1.603e+04 2.732e-08
 41.94728     97.8 1.588e+04 2.579e-08
 41.95724     97.9 1.565e+04 2.618e-08
 41.96720     98.0 1.555e+04 2.605e-08
 41.97716     97.9 1.549e+04 2.610e-08
 41.98604     97.8 1.543e+04 2.571e-08
 41.99107     98.9 1.548e+04 2.243e-08
 42.00217     98.5 1.574e+04 2.487e-08
 42.02209     97.7 1.615e+04 2.815e-08
 42.04201     96.6 1.684e+04 4.160e-08
 42.05691     96.2 1.676e+04 5.049e-08
 42.06682     96.3 1.687e+04 5.855e-08
 42.07678     96.2 1.738e+04 8.800e-08
 42.08594     96.4 1.770e+04 1.116e-07
 42.09097     96.7 1.749e+04 9.269e-08
 42.09658     96.8 1.794e+04 1.355e-07
 42.10654     97.8 1.736e+04 8.120e-08
 42.12171     97.9 1.789e+04 1.216e-07
 42.14163     97.9 1.818e+04 1.438e-07
 42.16156     97.9 1.813e+04 1.370e-07
 42.18095     98.2 1.768e+04 1.169e-07
 42.19091     99.8 1.654e+04 6.796e-08
 42.20141     99.9 1.594e+04 5.170e-08
 42.22133    100.5 1.522e+04 3.575e-08
 42.24125    101.1 1.453e+04 2.332e-08
 42.26118    101.7 1.400e+04 1.523e-08
 42.28085    102.2 1.366e+04 1.078e-08
 42.29081    103.2 1.344e+04 9.790e-09
 42.30103    103.7 1.322e+04 8.050e-09
 42.32095    104.4 1.287e+04 7.601e-09
 42.34087    105.3 1.278e+04 7.620e-09
 42.36080    106.2 1.275e+04 7.706e-09
 42.38072    107.1 1.266e+04 8.109e-09
 42.40064    108.6 1.263e+04 8.311e-09
 42.43063    108.3 1.258e+04 9.970e-09
 42.47057    109.5 1.247e+04 1.022e-08
 42.49081    109.7 1.238e+04 9.972e-09
 42.51073    111.6 1.245e+04 9.959e-09
 42.55027    111.8 1.220e+04 8.947e-09
 42.59012    111.6 1.199e+04 7.495e-09
 42.62996    112.0 1.173e+04 5.936e-09
 42.66981    112.8 1.152e+04 4.658e-09
 42.69060    114.0 1.137e+04 3.802e-09
 42.71053    114.6 1.140e+04 3.608e-09
 42.74951    116.0 1.129e+04 3.124e-09
 42.78936    117.5 1.121e+04 2.848e-09
 42.82920    119.2 1.114e+04 2.682e-09
 42.86905    121.1 1.105e+04 2.600e-09
 42.89040    123.2 1.100e+04 2.584e-09
 42.91033    123.6 1.105e+04 2.475e-09
 42.94875    125.7 1.103e+04 2.371e-09
 42.98860    127.8 1.107e+04 2.321e-09
 43.02844    129.9 1.112e+04 2.331e-09
 43.06829    131.9 1.123e+04 2.361e-09
 43.09020    133.8 1.133e+04 2.369e-09
 43.11012    134.3 1.133e+04 1.615e-09
 43.14799    136.2 1.140e+04 1.604e-09
 43.18783    138.0 1.146e+04 1.571e-09
 43.22768    139.9 1.151e+04 1.498e-09
 43.26753    141.9 1.153e+04 1.393e-09
 43.29000    144.1 1.156e+04 1.294e-09
 43.30988    144.8 1.163e+04 1.057e-09
 43.34718    147.4 1.169e+04 1.234e-09
 43.38707    149.9 1.171e+04 1.290e-09
 43.42692    152.5 1.175e+04 1.374e-09
 43.46677    155.2 1.179e+04 1.465e-09
 43.48980    157.9 1.185e+04 1.522e-09
 43.50972    158.5 1.188e+04 1.207e-09
 43.54646    161.3 1.194e+04 1.197e-09
 43.58631    164.1 1.200e+04 1.191e-09
 43.62616    166.8 1.213e+04 1.198e-09
 43.66601    169.3 1.232e+04 1.254e-09
 43.68959    171.7 1.250e+04 1.365e-09
 43.70952    172.5 1.237e+04 9.817e-10
 43.74570    175.0 1.253e+04 1.075e-09
 43.78555    177.4 1.270e+04 1.219e-09
 43.82540    179.6 1.285e+04 1.423e-09
 43.86525    181.5 1.297e+04 1.690e-09
 43.88939    183.1 1.303e+04 1.968e-09
 43.90931    184.7 1.300e+04 1.474e-09
 43.94494    186.4 1.309e+04 1.772e-09
 43.98479    188.1 1.312e+04 2.074e-09
 44.02464    190.0 1.304e+04 2.296e-09
 44.05443    192.4 1.306e+04 2.666e-09
 44.07425    193.6 1.314e+04 3.043e-09
 44.08899    195.1 1.325e+04 3.633e-09
 44.10902    196.1 1.312e+04 3.204e-09
 44.14418    198.5 1.331e+04 4.278e-09
 44.18403    200.0 1.365e+04 5.930e-09
 44.22388    201.0 1.395e+04 7.960e-09
 44.26373    201.2 1.418e+04 1.002e-08
 44.28899    201.2 1.430e+04 1.083e-08
 44.30891    202.0 1.422e+04 9.702e-09
 44.34342    201.8 1.420e+04 9.580e-09
 44.38327    201.8 1.406e+04 8.405e-09
 44.42312    202.1 1.384e+04 6.222e-09
 44.46296    202.9 1.361e+04 4.170e-09
 44.48878    204.2 1.342e+04 2.764e-09
 44.50871    205.4 1.345e+04 2.460e-09
 44.53781    207.1 1.333e+04 1.868e-09
 44.55774    206.9 1.325e+04 1.997e-09
 44.58251    208.8 1.319e+04 1.659e-09
 44.62236    210.8 1.307e+04 1.484e-09
 44.66220    212.8 1.297e+04 1.382e-09
 44.68858    214.7 1.296e+04 1.419e-09
 44.70851    215.5 1.313e+04 1.591e-09
 44.74190    217.4 1.310e+04 1.636e-09
 44.78175    219.3 1.303e+04 1.692e-09
 44.82159    221.3 1.296e+04 1.791e-09
 44.86144    223.3 1.298e+04 1.935e-09
 44.88838    225.2 1.306e+04 2.154e-09
 44.90830    225.6 1.335e+04 2.533e-09
 44.94114    227.3 1.344e+04 2.866e-09
 44.98099    229.5 1.351e+04 3.315e-09
 45.02083    231.9 1.367e+04 3.969e-09
 45.05062    232.0 1.380e+04 4.747e-09
 45.07045    232.4 1.385e+04 5.510e-09
 45.08798    233.0 1.388e+04 6.285e-09
 45.09794    233.1 1.395e+04 7.122e-09
 45.11030    233.8 1.402e+04 8.161e-09
 45.13022    234.4 1.409e+04 9.347e-09
 45.15014    234.9 1.413e+04 1.056e-08
 45.16282    235.3 1.414e+04 1.152e-08
 45.17278    235.8 1.420e+04 1.129e-08
 45.18788    235.9 1.414e+04 1.194e-08
 45.19784    235.7 1.413e+04 1.463e-08
 45.20992    235.7 1.407e+04 1.457e-08
 45.22984    235.7 1.386e+04 1.408e-08
 45.24976    235.8 1.358e+04 1.302e-08
 45.26969    235.9 1.334e+04 1.173e-08
 45.28778    236.0 1.313e+04 1.058e-08
 45.29774    235.3 1.307e+04 1.048e-08
 45.30953    235.3 1.290e+04 9.630e-09
 45.32946    235.3 1.277e+04 9.087e-09
 45.34938    235.2 1.265e+04 8.562e-09
 45.36931    235.0 1.251e+04 7.831e-09
 45.38768    234.9 1.234e+04 6.931e-09
 45.39764    233.6 1.210e+04 5.645e-09
 45.41921    234.7 1.191e+04 5.006e-09
 45.45916    236.1 1.146e+04 3.579e-09
 45.48777    237.8 1.100e+04 2.386e-09
 45.50770    237.7 1.062e+04 1.688e-09
 45.53885    239.5 1.029e+04 1.475e-09
 45.57870    241.3 1.027e+04 1.475e-09
 45.61855    243.3 1.024e+04 1.498e-09
 45.65840    245.2 1.020e+04 1.582e-09
 45.68757    247.2 1.018e+04 1.742e-09
 45.70750    247.0 1.003e+04 1.606e-09
 45.73809    249.1 9.987e+03 1.745e-09
 45.76830    251.2 9.995e+03 1.929e-09
 45.78822    250.5 9.821e+03 1.632e-09
 45.81779    252.6 9.765e+03 1.721e-09
 45.85764    254.5 9.750e+03 1.846e-09
 45.88737    256.4 9.789e+03 2.007e-09
 45.90729    256.5 9.650e+03 2.031e-09
 45.93733    258.3 9.723e+03 2.299e-09
 45.97718    259.8 9.703e+03 2.402e-09
 46.01703    261.1 9.701e+03 2.450e-09
 46.05688    262.4 9.600e+03 2.433e-09
 46.08717    264.2 9.611e+03 2.663e-09
 46.10709    264.6 9.651e+03 2.855e-09
 46.12651    264.8 9.574e+03 2.876e-09
 46.14634    265.2 9.525e+03 3.103e-09
 46.16626    265.6 9.559e+03 3.612e-09
 46.18619    266.2 9.703e+03 4.430e-09
 46.19683    266.8 9.965e+03 5.594e-09
 46.20679    267.3 1.003e+04 6.044e-09
 46.22603    268.0 1.039e+04 7.625e-09
 46.24596    268.7 1.078e+04 9.606e-09
 46.26588    269.4 1.119e+04 1.187e-08
 46.28581    270.0 1.154e+04 1.412e-08
 46.29673    270.6 1.177e+04 1.574e-08
 46.30669    271.0 1.185e+04 1.610e-08
 46.32565    271.4 1.192e+04 1.638e-08
 46.34558    271.6 1.192e+04 1.629e-08
 46.36550    271.7 1.186e+04 1.584e-08
 46.38334    271.9 1.168e+04 1.482e-08
 46.39330    271.4 1.126e+04 1.300e-08
 46.39663    271.5 1.114e+04 1.246e-08
 46.40659    272.0 1.115e+04 1.234e-08
 46.42527    272.0 1.103e+04 1.197e-08
 46.44520    271.9 1.096e+04 1.186e-08
 46.46512    271.6 1.096e+04 1.190e-08
 46.48505    270.9 1.098e+04 1.224e-08
 46.49653    269.7 1.110e+04 1.311e-08
 46.50649    270.5 1.135e+04 1.423e-08
 46.52489    268.6 1.180e+04 1.691e-08
 46.54482    266.0 1.229e+04 2.019e-08
 46.56474    263.0 1.268e+04 2.292e-08
 46.58466    259.8 1.281e+04 2.346e-08
 46.59643    256.5 1.280e+04 2.321e-08
 46.60639    257.4 1.324e+04 2.666e-08
 46.62451    254.3 1.295e+04 2.433e-08
 46.64444    251.6 1.277e+04 2.324e-08
 46.66436    249.2 1.282e+04 2.348e-08
 46.68428    247.1 1.310e+04 2.574e-08
 46.69633    246.2 1.349e+04 3.074e-08
 46.70629    246.9 1.329e+04 2.810e-08
 46.72413    246.9 1.404e+04 3.668e-08
 46.73903    246.9 1.460e+04 4.501e-08
 46.74618    246.8 1.527e+04 5.655e-08
 46.75116    246.9 1.520e+04 5.505e-08
 46.75890    246.9 1.583e+04 6.917e-08
 46.76886    246.8 1.662e+04 9.351e-08
 46.77883    246.7 1.741e+04 1.294e-07
 46.78879    246.6 1.810e+04 1.743e-07
 46.79613    246.3 1.875e+04 2.193e-07
 46.80111    246.3 1.830e+04 1.721e-07
 46.80871    245.3 1.878e+04 1.967e-07
 46.81867    243.4 1.905e+04 2.053e-07
 46.82863    241.2 1.900e+04 2.036e-07
 46.83860    239.7 1.876e+04 1.941e-07
 46.84608    238.8 1.830e+04 1.753e-07
 46.85106    239.0 1.848e+04 1.702e-07
 46.85852    238.2 1.813e+04 1.511e-07
 46.86848    237.4 1.776e+04 1.263e-07
 46.87844    236.2 1.758e+04 1.046e-07
 46.88841    234.6 1.772e+04 9.718e-08
 46.89603    232.5 1.782e+04 9.750e-08
 46.90101    232.8 1.800e+04 1.074e-07
 46.90833    230.1 1.860e+04 1.180e-07
 46.91829    227.1 1.934e+04 1.578e-07
 46.92825    223.9 1.986e+04 2.517e-07
 46.93822    220.5 2.012e+04 4.203e-07
 46.94598    216.6 2.030e+04 6.239e-07
 46.95096    216.0 2.010e+04 9.450e-07
 46.95814    210.6 2.007e+04 1.037e-06
 46.96810    204.9 2.028e+04 8.706e-07
 46.97806    199.6 2.055e+04 5.184e-07
 46.98803    194.7 2.051e+04 2.366e-07
 46.99593    189.7 1.943e+04 9.851e-08
 47.00091    186.6 1.857e+04 6.293e-08
 47.00347    181.8 1.490e+04 3.522e-08
 47.00845    184.4 1.799e+04 5.531e-08
 47.01791    179.9 1.466e+04 3.430e-08
 47.02787    177.1 1.336e+04 3.011e-08
 47.03784    175.0 1.303e+04 2.787e-08
 47.04588    174.0 1.292e+04 2.679e-08
 47.05086    172.6 1.278e+04 2.460e-08
 47.05776    171.2 1.290e+04 2.356e-08
 47.06772    170.7 1.293e+04 2.331e-08
 47.08271    168.4 1.322e+04 2.409e-08
 47.09592    166.7 1.289e+04 2.250e-08
 47.10588    163.3 1.252e+04 1.875e-08
 47.12261    161.0 1.174e+04 1.697e-08
 47.14253    158.6 1.139e+04 1.631e-08
 47.16246    156.6 1.135e+04 1.640e-08
 47.18238    155.5 1.148e+04 1.664e-08
 47.19582    155.1 1.164e+04 1.677e-08
 47.20578    153.6 1.162e+04 1.665e-08
 47.22223    153.2 1.177e+04 1.716e-08
 47.24215    153.0 1.204e+04 1.859e-08
 47.26208    153.1 1.239e+04 2.052e-08
 47.28200    153.4 1.260e+04 2.206e-08
 47.29572    153.9 1.267e+04 2.275e-08
 47.30568    152.4 1.364e+04 3.227e-08
 47.32185    153.2 1.346e+04 3.069e-08
 47.34177    154.1 1.319e+04 2.803e-08
 47.36170    155.1 1.288e+04 2.504e-08
 47.38162    156.2 1.257e+04 2.228e-08
 47.39562    157.4 1.229e+04 2.001e-08
 47.40558    156.5 1.263e+04 2.212e-08
 47.42147    157.8 1.237e+04 1.980e-08
 47.44139    159.3 1.219e+04 1.814e-08
 47.46132    160.8 1.209e+04 1.720e-08
 47.48124    162.3 1.206e+04 1.685e-08
 47.49552    163.7 1.210e+04 1.705e-08
 47.50548    162.8 1.228e+04 1.756e-08
 47.52109    164.2 1.235e+04 1.790e-08
 47.54101    165.4 1.255e+04 1.865e-08
 47.56094    166.5 1.277e+04 1.999e-08
 47.58086    167.5 1.302e+04 2.164e-08
 47.59542    168.3 1.326e+04 2.329e-08
 47.60538    167.2 1.326e+04 2.297e-08
 47.61382    168.1 1.341e+04 2.407e-08
 47.62378    167.8 1.338e+04 2.165e-08
 47.64063    168.7 1.361e+04 2.305e-08
 47.66056    169.5 1.380e+04 2.520e-08
 47.68048    170.5 1.409e+04 2.771e-08
 47.69532    171.5 1.448e+04 3.145e-08
 47.70528    171.1 1.463e+04 3.458e-08
 47.72033    171.9 1.503e+04 3.969e-08
 47.74025    172.7 1.565e+04 4.986e-08
 47.76017    174.0 1.665e+04 7.349e-08
 47.78010    175.2 1.769e+04 1.132e-07
 47.79499    175.4 1.809e+04 1.356e-07
 47.80010    175.6 1.846e+04 1.627e-07
 47.80508    175.6 1.807e+04 1.514e-07
 47.81487    176.2 1.853e+04 1.958e-07
 47.82483    176.7 1.905e+04 2.739e-07
 47.83479    176.9 1.950e+04 4.238e-07
 47.84475    176.8 1.979e+04 7.027e-07
 47.85005    175.7 1.993e+04 1.127e-06
 47.85503    175.1 1.965e+04 7.049e-07
 47.86468    173.1 1.970e+04 9.895e-07
 47.87464    170.8 1.981e+04 1.105e-06
 47.88460    169.1 1.985e+04 1.049e-06
 47.89456    168.2 1.981e+04 8.179e-07
 47.90000    167.7 1.970e+04 5.755e-07
 47.90498    168.9 1.976e+04 5.798e-07
 47.91449    168.4 1.967e+04 4.353e-07
 47.92135    168.0 1.953e+04 3.240e-07
 47.92633    167.0 1.898e+04 1.847e-07
 47.93441    166.4 1.876e+04 1.377e-07
 47.94437    165.6 1.841e+04 9.433e-08
 47.95937    165.5 1.834e+04 8.713e-08
 47.97934    164.4 1.709e+04 4.791e-08
 47.99501    164.4 1.576e+04 3.229e-08
 48.00497    165.4 1.627e+04 3.772e-08
 48.01919    165.0 1.478e+04 2.356e-08
 48.03911    164.6 1.357e+04 1.729e-08
 48.05903    164.5 1.289e+04 1.511e-08
 48.07896    164.7 1.262e+04 1.387e-08
 48.09491    165.4 1.241e+04 1.212e-08
 48.10487    165.9 1.231e+04 1.143e-08
 48.11881    167.0 1.214e+04 9.692e-09
 48.13873    168.3 1.193e+04 7.619e-09
 48.15865    169.5 1.168e+04 5.605e-09
 48.17858    170.7 1.140e+04 4.042e-09
 48.19481    171.7 1.108e+04 3.090e-09
 48.20477    172.2 1.139e+04 3.408e-09
 48.21842    173.2 1.119e+04 2.719e-09
 48.22906    174.4 1.100e+04 2.348e-09
 48.23903    174.1 1.097e+04 2.679e-09
 48.25827    175.7 1.093e+04 2.648e-09
 48.27820    177.3 1.093e+04 2.654e-09
 48.29471    178.9 1.098e+04 2.671e-09
 48.30467    179.1 1.110e+04 3.292e-09
 48.31804    180.7 1.111e+04 3.243e-09
 48.33797    182.2 1.113e+04 3.188e-09
 48.35789    183.8 1.115e+04 3.091e-09
 48.37782    185.3 1.114e+04 2.970e-09
 48.39461    186.8 1.110e+04 2.835e-09
 48.40457    187.0 1.122e+04 3.533e-09
 48.41766    188.5 1.113e+04 3.331e-09
 48.43759    190.0 1.102e+04 3.118e-09
 48.45751    191.6 1.092e+04 2.920e-09
 48.47744    193.1 1.084e+04 2.740e-09
 48.49451    194.7 1.073e+04 2.615e-09
 48.50447    194.9 1.093e+04 3.138e-09
 48.51728    196.5 1.086e+04 2.923e-09
 48.53721    198.1 1.079e+04 2.765e-09
 48.55713    199.6 1.069e+04 2.666e-09
 48.57706    201.2 1.058e+04 2.601e-09
 48.59441    202.8 1.045e+04 2.579e-09
 48.60437    202.9 1.074e+04 2.831e-09
 48.61690    204.5 1.062e+04 2.686e-09
 48.63683    206.0 1.047e+04 2.603e-09
 48.65675    207.4 1.033e+04 2.582e-09
 48.67667    208.9 1.027e+04 2.594e-09
 48.69431    210.4 1.026e+04 2.607e-09
 48.70427    210.3 1.050e+04 2.715e-09
 48.71652    211.7 1.044e+04 2.726e-09
 48.73645    213.1 1.041e+04 2.777e-09
 48.75637    214.5 1.038e+04 2.906e-09
 48.77629    215.9 1.038e+04 3.116e-09
 48.79420    217.2 1.041e+04 3.419e-09
 48.80417    216.9 1.068e+04 3.983e-09
 48.81614    218.2 1.068e+04 4.322e-09
 48.83434    219.5 1.068e+04 4.732e-09
 48.84430    219.4 1.068e+04 4.749e-09
 48.85599    220.7 1.070e+04 5.202e-09
 48.87591    221.9 1.076e+04 5.746e-09
 48.89410    223.1 1.085e+04 6.338e-09
 48.90407    222.5 1.085e+04 6.334e-09
 48.91576    223.6 1.092e+04 6.863e-09
 48.93569    224.7 1.099e+04 7.383e-09
 48.95561    225.8 1.107e+04 7.877e-09
 48.97553    226.9 1.117e+04 8.371e-09
 48.99400    228.0 1.129e+04 8.897e-09
 49.00396    226.7 1.164e+04 9.287e-09
 49.01538    227.7 1.196e+04 1.022e-08
 49.03530    228.6 1.238e+04 1.167e-08
 49.05523    229.6 1.282e+04 1.390e-08
 49.07515    230.6 1.332e+04 1.711e-08
 49.09390    231.6 1.382e+04 2.153e-08
 49.10386    230.0 1.431e+04 3.029e-08
 49.11500    231.1 1.464e+04 3.584e-08
 49.13492    232.2 1.496e+04 4.170e-08
 49.15485    233.3 1.535e+04 4.804e-08
 49.17477    234.5 1.568e+04 5.453e-08
 49.19380    235.9 1.596e+04 6.081e-08
 49.20376    234.5 1.523e+04 4.756e-08
 49.21462    235.7 1.528e+04 4.605e-08
 49.23454    236.8 1.524e+04 4.242e-08
 49.25447    238.0 1.511e+04 3.800e-08
 49.27439    239.2 1.496e+04 3.303e-08
 49.29370    240.5 1.494e+04 2.905e-08
 49.30366    238.3 1.203e+04 9.284e-09
 49.31424    239.4 1.195e+04 8.209e-09
 49.33416    240.6 1.200e+04 7.654e-09
 49.35409    241.7 1.199e+04 7.662e-09
 49.37401    242.7 1.200e+04 7.847e-09
 49.39360    243.9 1.203e+04 8.250e-09
 49.40356    242.7 1.037e+04 5.233e-09
 49.41386    244.0 1.052e+04 5.746e-09
 49.43378    245.3 1.069e+04 6.323e-09
 49.44958    246.5 1.085e+04 6.964e-09
 49.45955    246.2 1.045e+04 5.813e-09
 49.47363    247.3 1.057e+04 6.329e-09
 49.49350    248.4 1.070e+04 6.878e-09
 49.51342    248.7 1.068e+04 6.951e-09
 49.53340    249.6 1.084e+04 7.582e-09
 49.55333    250.4 1.100e+04 8.155e-09
 49.57325    251.1 1.112e+04 8.670e-09
 49.59317    251.8 1.121e+04 9.090e-09
 49.60336    252.4 1.131e+04 9.278e-09
 49.61332    251.4 1.119e+04 9.457e-09
 49.63302    252.0 1.125e+04 9.891e-09
 49.65295    252.6 1.131e+04 1.014e-08
 49.67287    253.2 1.134e+04 1.031e-08
 49.69279    253.8 1.136e+04 1.053e-08
 49.70326    254.4 1.141e+04 1.099e-08
 49.71322    253.7 1.171e+04 1.316e-08
 49.73264    254.3 1.187e+04 1.411e-08
 49.75257    254.7 1.214e+04 1.542e-08
 49.77249    255.0 1.243e+04 1.712e-08
 49.79241    255.0 1.275e+04 1.923e-08
 49.80316    254.7 1.303e+04 2.076e-08
 49.81312    254.1 1.290e+04 1.926e-08
 49.83226    253.8 1.303e+04 2.022e-08
 49.85218    253.4 1.313e+04 2.081e-08
 49.87211    252.8 1.321e+04 2.140e-08
 49.89203    251.7 1.338e+04 2.302e-08
 49.90305    250.0 1.385e+04 2.808e-08
 49.91302    250.7 1.333e+04 2.381e-08
 49.93188    249.0 1.426e+04 3.365e-08
 49.95180    247.0 1.546e+04 5.140e-08
 49.97173    244.6 1.659e+04 7.102e-08
 49.99165    241.3 1.703e+04 7.365e-08
 50.00295    237.6 1.698e+04 6.785e-08
 50.01292    239.4 1.655e+04 6.050e-08
 50.03150    235.7 1.610e+04 4.680e-08
 50.05142    231.7 1.491e+04 2.997e-08
 50.06482    227.0 1.326e+04 1.932e-08
 50.07479    225.4 1.200e+04 1.392e-08
 50.09127    221.4 1.153e+04 1.214e-08
 50.10285    218.0 1.148e+04 1.189e-08
 50.11281    218.2 1.169e+04 1.310e-08
 50.13112    215.3 1.191e+04 1.424e-08
 50.15104    212.9 1.227e+04 1.623e-08
 50.17097    210.8 1.261e+04 1.887e-08
 50.19089    208.8 1.299e+04 2.262e-08
 50.20275    206.7 1.359e+04 2.864e-08
 50.21271    207.4 1.427e+04 3.494e-08
 50.23074    205.5 1.470e+04 4.102e-08
 50.25066    203.3 1.512e+04 4.659e-08
 50.27059    200.7 1.537e+04 4.791e-08
 50.29051    197.7 1.534e+04 4.673e-08
 50.30265    194.9 1.510e+04 4.233e-08
 50.31261    196.3 1.423e+04 3.129e-08
 50.33036    193.9 1.367e+04 2.688e-08
 50.35028    192.1 1.306e+04 2.240e-08
 50.37021    190.7 1.249e+04 1.736e-08
 50.40019    190.3 1.219e+04 1.181e-08
 50.44014    187.2 1.109e+04 5.212e-09
 50.47998    185.7 9.174e+03 3.010e-09
 50.50264    185.6 8.757e+03 2.851e-09
 50.52257    189.9 9.753e+03 3.687e-09
 50.54962    188.3 9.257e+03 3.212e-09
 50.56945    187.6 9.119e+03 3.102e-09
 50.58937    187.9 9.023e+03 3.119e-09
 50.60235    188.4 8.924e+03 3.181e-09
 50.61231    190.3 8.898e+03 3.469e-09
 50.62922    191.2 8.901e+03 3.740e-09
 50.64914    192.5 8.936e+03 4.044e-09
 50.66907    194.1 8.992e+03 4.356e-09
 50.68007    195.7 9.115e+03 4.755e-09
 50.69003    194.2 9.372e+03 5.584e-09
 50.70225    194.4 1.048e+04 8.121e-09
 50.71221    196.5 1.105e+04 1.012e-08
 50.72884    196.5 1.268e+04 1.609e-08
 50.74876    196.4 1.366e+04 2.219e-08
 50.76365    197.0 1.398e+04 2.497e-08
 50.77357    197.2 1.448e+04 2.867e-08
 50.78353    197.0 1.546e+04 3.771e-08
 50.79349    196.6 1.625e+04 5.068e-08
 50.80205    196.2 1.718e+04 6.443e-08
 50.80703    196.9 1.760e+04 7.401e-08
 50.81342    194.8 2.056e+04 1.251e-07
 50.82338    188.9 2.266e+04 3.599e-07
 50.83334    184.3 2.204e+04 7.541e-07
 50.84079    181.2 2.103e+04 1.274e-06
 50.84574    178.3 2.039e+04 1.840e-06
 50.85072    174.3 1.943e+04 3.726e-06
 50.85444    167.1 1.704e+04 1.779e-05
 50.85693    165.0 1.818e+04 8.901e-06
 50.86069    153.5 1.714e+04 2.100e-05
 50.86567    143.3 1.665e+04 2.774e-05
 50.87065    133.8 1.682e+04 2.346e-05
 50.87563    126.6 1.717e+04 1.572e-05
 50.87941    123.7 1.763e+04 9.915e-06
 50.88190    122.2 1.876e+04 5.115e-06
 50.88559    117.7 1.929e+04 3.423e-06
 50.89309    114.4 2.003e+04 2.269e-06
 50.90195    108.1 2.167e+04 6.683e-07
 50.90693    108.9 2.000e+04 8.872e-07
 50.91304    105.6 2.063e+04 6.010e-07
 50.92300    102.6 2.109e+04 4.179e-07
 50.93296    100.1 2.122e+04 2.726e-07
 50.94292     98.0 2.093e+04 1.836e-07
 50.95190     96.6 2.032e+04 1.371e-07
 50.95688     96.8 2.030e+04 1.686e-07
 50.96284     95.0 1.991e+04 1.376e-07
 50.97281     93.7 1.957e+04 1.233e-07
 50.98780     93.4 1.913e+04 9.243e-08
 51.00194     92.1 1.904e+04 8.364e-08
 51.00687     89.3 1.924e+04 1.044e-07
 51.01265     88.5 1.937e+04 1.060e-07
 51.02262     88.0 1.953e+04 1.098e-07
 51.03258     87.3 1.980e+04 1.154e-07
 51.04254     86.6 2.006e+04 1.215e-07
 51.05179     86.1 2.031e+04 1.271e-07
 51.05677     84.9 2.051e+04 2.177e-07
 51.06246     84.3 2.059e+04 2.356e-07
 51.07243     83.6 2.060e+04 2.396e-07
 51.08239     82.9 2.053e+04 2.376e-07
 51.09235     82.7 2.046e+04 2.301e-07
 51.10174     82.7 2.045e+04 2.162e-07
 51.10672     81.7 2.049e+04 2.787e-07
 51.11227     82.2 2.048e+04 2.503e-07
 51.12224     82.5 2.052e+04 2.224e-07
 51.13220     82.8 2.054e+04 1.981e-07
 51.14719     82.4 2.050e+04 1.669e-07
 51.16716     83.4 2.023e+04 1.404e-07
 51.18709     84.1 1.984e+04 1.205e-07
 51.20174     85.0 1.938e+04 1.029e-07
 51.21170     82.8 1.673e+04 5.214e-08
 51.22693     83.8 1.620e+04 4.559e-08
 51.24686     84.8 1.596e+04 4.360e-08
 51.26678     86.2 1.583e+04 4.295e-08
 51.28534     87.8 1.577e+04 4.314e-08
 51.29531     89.2 1.663e+04 5.284e-08
 51.30164     90.8 1.656e+04 5.351e-08
 51.31160     89.8 1.455e+04 3.050e-08
 51.32655     91.5 1.484e+04 3.318e-08
 51.34648     93.1 1.496e+04 3.482e-08
 51.36640     94.8 1.494e+04 3.496e-08
 51.38633     96.6 1.478e+04 3.380e-08
 51.40154     98.4 1.455e+04 3.153e-08
 51.41150     98.3 1.351e+04 2.470e-08
 51.42617    100.1 1.348e+04 2.476e-08
 51.44610    102.0 1.343e+04 2.461e-08
 51.46602    104.0 1.340e+04 2.474e-08
 51.48595    106.1 1.345e+04 2.501e-08
 51.50144    108.0 1.352e+04 2.551e-08
 51.51140    108.3 1.308e+04 2.347e-08
 51.52579    110.2 1.322e+04 2.443e-08
 51.54572    112.0 1.337e+04 2.532e-08
 51.56564    113.9 1.353e+04 2.612e-08
 51.58556    115.7 1.372e+04 2.706e-08
 51.60134    117.4 1.391e+04 2.782e-08
 51.61130    117.7 1.383e+04 2.658e-08
 51.62541    119.2 1.423e+04 2.867e-08
 51.64534    120.8 1.467e+04 3.042e-08
 51.66526    122.3 1.516e+04 3.035e-08
 51.68518    123.8 1.549e+04 2.862e-08
 51.70123    124.5 1.570e+04 2.426e-08
 51.71120    125.2 1.612e+04 3.274e-08
 51.72503    125.3 1.650e+04 2.728e-08
 51.74496    125.2 1.645e+04 2.383e-08
 51.76488    124.9 1.605e+04 2.341e-08
 51.78480    124.7 1.579e+04 2.444e-08
 51.80113    125.0 1.532e+04 2.716e-08
 51.81110    125.4 1.610e+04 3.527e-08
 51.82465    125.8 1.577e+04 3.549e-08
 51.84458    126.7 1.526e+04 3.473e-08
 51.86450    127.7 1.488e+04 3.348e-08
 51.88442    128.7 1.463e+04 3.274e-08
 51.90059    129.7 1.454e+04 3.279e-08
 51.90723    130.4 1.321e+04 2.426e-08
 51.91099    131.0 1.325e+04 2.260e-08
 51.92427    131.9 1.333e+04 2.367e-08
 51.94419    132.7 1.341e+04 2.486e-08
 51.96412    133.5 1.333e+04 2.544e-08
 51.98404    134.5 1.325e+04 2.535e-08
 52.00093    135.6 1.306e+04 2.471e-08
 52.01089    136.2 1.294e+04 2.247e-08
 52.02389    137.4 1.272e+04 2.152e-08
 52.04381    138.8 1.245e+04 1.999e-08
 52.06374    140.3 1.214e+04 1.802e-08
 52.08366    141.9 1.181e+04 1.584e-08
 52.10083    143.4 1.147e+04 1.362e-08
 52.11079    144.1 1.140e+04 1.289e-08
 52.12351    145.7 1.108e+04 1.112e-08
 52.14343    147.2 1.079e+04 9.649e-09
 52.16336    148.7 1.055e+04 8.524e-09
 52.18328    150.2 1.035e+04 7.743e-09
 52.20073    151.7 1.019e+04 7.226e-09
 52.21069    152.5 1.024e+04 7.257e-09
 52.22313    154.0 1.017e+04 6.984e-09
 52.24305    155.6 1.013e+04 6.829e-09
 52.26298    157.2 1.011e+04 6.695e-09
 52.28290    158.8 1.008e+04 6.538e-09
 52.30063    160.3 1.003e+04 6.328e-09
 52.31059    161.1 1.030e+04 7.171e-09
 52.32275    162.7 1.022e+04 6.779e-09
 52.34267    164.4 1.009e+04 6.460e-09
 52.36260    166.2 1.017e+04 6.254e-09
 52.39258    168.1 1.035e+04 6.883e-09
 52.43253    170.5 1.011e+04 6.072e-09
 52.47237    172.9 9.912e+03 5.354e-09
 52.50062    175.2 9.720e+03 4.609e-09
 52.52055    176.3 1.050e+04 6.538e-09
 52.55207    178.4 1.011e+04 5.070e-09
 52.59192    180.4 9.898e+03 4.246e-09
 52.63176    182.6 9.639e+03 3.456e-09
 52.66155    183.1 9.529e+03 3.377e-09
 52.68138    184.0 9.533e+03 3.437e-09
 52.70022    185.2 9.586e+03 3.628e-09
 52.71019    185.8 1.004e+04 5.000e-09
 52.72123    187.1 1.018e+04 5.369e-09
 52.74115    188.4 1.037e+04 5.933e-09
 52.76107    189.6 1.061e+04 6.688e-09
 52.78100    190.7 1.089e+04 7.638e-09
 52.80012    191.7 1.120e+04 8.790e-09
 52.81008    192.6 1.150e+04 9.888e-09
 52.82085    193.6 1.182e+04 1.124e-08
 52.84077    194.7 1.215e+04 1.290e-08
 52.86069    195.7 1.240e+04 1.439e-08
 52.88062    196.4 1.247e+04 1.464e-08
 52.90002    196.7 1.244e+04 1.445e-08
 52.90998    197.6 1.292e+04 1.589e-08
 52.92047    197.4 1.314e+04 1.600e-08
 52.94039    196.3 1.358e+04 1.660e-08
 52.96031    194.1 1.426e+04 1.879e-08
 52.98024    191.4 1.481e+04 2.344e-08
 52.99992    188.8 1.497e+04 3.046e-08
 53.00988    187.0 1.662e+04 6.471e-08
 53.02009    185.9 1.637e+04 6.460e-08
 53.04001    185.5 1.601e+04 5.966e-08
 53.05993    185.0 1.580e+04 4.839e-08
 53.07986    184.3 1.567e+04 3.571e-08
 53.09978    183.3 1.530e+04 2.617e-08
 53.11971    177.3 1.458e+04 2.246e-08
 53.13107    177.3 1.372e+04 2.000e-08
 53.14103    176.4 1.291e+04 1.780e-08
 53.15955    177.4 1.251e+04 1.612e-08
 53.17948    178.8 1.221e+04 1.440e-08
 53.19940    180.1 1.194e+04 1.278e-08
 53.20968    181.3 1.169e+04 1.149e-08
 53.21964    178.8 1.174e+04 1.178e-08
 53.23925    179.9 1.154e+04 1.091e-08
 53.25917    181.0 1.153e+04 1.081e-08
 53.27910    182.2 1.158e+04 1.084e-08
 53.29902    182.9 1.179e+04 1.137e-08
 53.30958    182.4 1.234e+04 1.354e-08
 53.31954    178.4 1.234e+04 1.305e-08
 53.33887    177.6 1.301e+04 1.686e-08
 53.35879    176.7 1.402e+04 2.225e-08
 53.37872    175.0 1.573e+04 2.740e-08
 53.39361    171.8 1.701e+04 2.723e-08
 53.40352    170.0 1.683e+04 2.691e-08
 53.40938    168.3 1.676e+04 2.692e-08
 53.41436    165.9 1.675e+04 2.409e-08
 53.42345    164.1 1.694e+04 2.488e-08
 53.43341    159.6 1.765e+04 2.872e-08
 53.43859    149.5 2.037e+04 5.167e-08
 53.44357    149.8 2.009e+04 4.843e-08
 53.45333    136.7 2.199e+04 1.432e-07
 53.45933    125.3 2.175e+04 3.374e-07
 53.46431    123.9 2.124e+04 2.523e-07
 53.47326    116.0 2.095e+04 3.737e-07
 53.48322    108.0 2.184e+04 3.940e-07
 53.49318     94.9 2.363e+04 3.926e-07
 53.50314     74.4 2.547e+04 4.568e-07
 53.50928     52.6 2.229e+04 9.899e-07
 53.51426     47.8 2.133e+04 1.450e-06
 53.52307     29.4 2.026e+04 2.292e-06
 53.53303     10.4 2.129e+04 2.391e-06
 53.54299     -7.1 2.347e+04 1.216e-06
 53.55295    -18.9 2.338e+04 4.467e-07
 53.55923    -23.8 2.098e+04 2.440e-07
 53.56421    -25.6 2.041e+04 1.838e-07
 53.57288    -25.2 1.996e+04 1.393e-07
 53.58284    -24.7 1.976e+04 1.002e-07
 53.59280    -24.1 1.852e+04 6.415e-08
 53.60276    -24.5 1.722e+04 4.668e-08
 53.60918    -23.6 1.550e+04 3.276e-08
 53.61919    -23.9 1.524e+04 3.086e-08
 53.63773    -22.8 1.347e+04 2.096e-08
 53.65765    -22.1 1.183e+04 1.387e-08
 53.67757    -21.5 1.080e+04 9.896e-09
 53.69750    -21.0 1.022e+04 7.720e-09
 53.70917    -20.7 9.861e+03 6.665e-09
 53.71914    -20.9 9.723e+03 6.292e-09
 53.73635    -21.0 9.727e+03 6.333e-09
 53.74631    -18.7 1.009e+04 7.224e-09
 53.75727    -19.1 1.019e+04 7.534e-09
 53.77719    -20.5 1.072e+04 9.274e-09
 53.79712    -22.5 1.167e+04 1.329e-08
 53.80907    -24.0 1.257e+04 1.983e-08
 53.81904    -24.0 1.249e+04 2.018e-08
 53.83697    -24.6 1.313e+04 2.654e-08
 53.85689    -25.3 1.323e+04 2.694e-08
 53.87681    -25.8 1.279e+04 2.233e-08
 53.89674    -26.9 1.187e+04 1.525e-08
 53.90897    -28.4 1.071e+04 9.427e-09
 53.91893    -28.4 1.042e+04 8.514e-09
 53.93659    -29.9 9.424e+03 5.441e-09
 53.95651    -31.4 8.824e+03 3.863e-09
 53.97643    -32.8 8.621e+03 3.355e-09
 53.99636    -33.6 8.623e+03 3.370e-09
 54.00887    -34.5 8.738e+03 3.605e-09
 54.01883    -34.2 8.753e+03 3.665e-09
 54.03620    -35.0 9.141e+03 4.577e-09
 54.05613    -35.8 9.659e+03 6.065e-09
 54.07605    -36.5 1.025e+04 8.118e-09
 54.09598    -37.1 1.091e+04 1.094e-08
 54.10877    -38.2 1.176e+04 1.453e-08
 54.11873    -37.8 1.176e+04 1.459e-08
 54.13582    -39.4 1.280e+04 2.066e-08
 54.15575    -40.8 1.360e+04 2.744e-08
 54.17567    -41.7 1.379e+04 3.128e-08
 54.19560    -41.8 1.340e+04 2.816e-08
 54.20867    -42.0 1.278e+04 2.237e-08
 54.21863    -41.1 1.289e+04 2.324e-08
 54.23544    -41.5 1.222e+04 1.630e-08
 54.25537    -41.9 1.131e+04 1.265e-08
 54.27529    -41.8 1.076e+04 8.983e-09
 54.29522    -42.6 1.065e+04 7.586e-09
 54.30857    -42.6 1.048e+04 7.822e-09
 54.31853    -41.6 1.048e+04 7.822e-09
 54.33506    -41.1 1.047e+04 7.891e-09
 54.35159    -41.0 1.090e+04 8.876e-09
 54.36155    -41.2 1.168e+04 1.318e-08
 54.37491    -41.4 1.237e+04 1.693e-08
 54.39484    -41.4 1.271e+04 2.067e-08
 54.40847    -40.1 1.253e+04 2.368e-08
 54.41843    -39.3 1.259e+04 2.442e-08
 54.43468    -37.8 1.287e+04 2.372e-08
 54.45461    -38.2 1.334e+04 2.234e-08
 54.47453    -41.2 1.458e+04 2.758e-08
 54.49445    -44.4 1.576e+04 4.480e-08
 54.50837    -45.3 1.650e+04 8.220e-08
 54.51833    -44.3 1.600e+04 6.554e-08
 54.53430    -44.0 1.686e+04 1.004e-07
 54.55423    -45.1 1.754e+04 1.093e-07
 54.57415    -47.1 1.740e+04 9.137e-08
 54.59407    -48.8 1.661e+04 7.616e-08
 54.60826    -49.4 1.592e+04 5.536e-08
 54.61823    -48.0 1.583e+04 5.533e-08
 54.63392    -48.3 1.537e+04 4.338e-08
 54.65385    -48.7 1.491e+04 3.300e-08
 54.67377    -49.2 1.417e+04 2.771e-08
 54.69369    -49.0 1.388e+04 2.612e-08
 54.70816    -48.4 1.382e+04 2.577e-08
 54.71813    -47.2 1.380e+04 2.520e-08
 54.73354    -46.9 1.373e+04 2.467e-08
 54.75347    -46.4 1.377e+04 2.674e-08
 54.77339    -45.8 1.408e+04 3.070e-08
 54.79331    -45.2 1.440e+04 3.464e-08
 54.80806    -44.7 1.471e+04 3.788e-08
 54.81802    -43.9 1.483e+04 3.948e-08
 54.83316    -43.8 1.520e+04 4.433e-08
 54.85308    -44.4 1.568e+04 4.935e-08
 54.87301    -45.4 1.600e+04 5.433e-08
 54.89293    -47.1 1.612e+04 5.573e-08
 54.90796    -48.6 1.596e+04 5.674e-08
 54.91792    -48.1 1.609e+04 5.945e-08
 54.93278    -49.1 1.574e+04 5.328e-08
 54.95270    -49.5 1.531e+04 4.367e-08
 54.96683    -49.6 1.472e+04 3.173e-08
 54.97679    -48.6 1.462e+04 3.156e-08
 54.99255    -48.6 1.426e+04 2.459e-08
 55.00786    -48.7 1.397e+04 1.913e-08
 55.01782    -48.1 1.388e+04 1.782e-08
 55.03240    -48.1 1.364e+04 1.483e-08
 55.05232    -48.1 1.334e+04 1.388e-08
 55.07225    -47.3 1.309e+04 1.383e-08
 55.09217    -46.5 1.315e+04 1.360e-08
 55.10776    -46.1 1.329e+04 1.314e-08
 55.11772    -45.1 1.336e+04 1.445e-08
 55.13202    -45.2 1.324e+04 1.389e-08
 55.15194    -44.6 1.301e+04 1.434e-08
 55.17187    -43.5 1.297e+04 1.414e-08
 55.19179    -43.0 1.317e+04 1.256e-08
 55.20766    -44.4 1.372e+04 1.236e-08
 55.21762    -42.2 1.323e+04 1.098e-08
 55.23164    -43.7 1.328e+04 1.171e-08
 55.25156    -44.6 1.339e+04 1.623e-08
 55.27149    -44.2 1.358e+04 2.213e-08
 55.29141    -43.9 1.430e+04 3.086e-08
 55.30756    -43.9 1.504e+04 3.685e-08
 55.31752    -42.0 1.382e+04 2.374e-08
 55.33126    -42.9 1.461e+04 2.634e-08
 55.35118    -44.2 1.512e+04 3.554e-08
 55.37111    -44.7 1.591e+04 5.599e-08
 55.39103    -44.5 1.718e+04 8.872e-08
 55.40746    -45.3 1.820e+04 1.163e-07
 55.41742    -42.9 1.774e+04 1.001e-07
 55.43088    -44.1 1.873e+04 1.470e-07
 55.44577    -45.6 1.899e+04 1.915e-07
 55.45569    -46.0 1.891e+04 2.136e-07
 55.46229    -46.3 1.858e+04 2.393e-07
 55.46727    -45.7 1.885e+04 3.337e-07
 55.47561    -45.6 1.861e+04 3.444e-07
 55.48557    -45.5 1.859e+04 2.943e-07
 55.49553    -45.4 1.883e+04 1.842e-07
 55.50731    -48.9 1.951e+04 4.095e-08
 55.51727    -45.9 1.954e+04 1.693e-07
 55.53045    -48.2 1.968e+04 8.186e-08
 55.55042    -53.3 1.680e+04 2.069e-08
 55.57035    -56.7 1.182e+04 1.078e-08
 55.58207    -57.2 1.064e+04 9.838e-09
 55.59203    -56.5 1.066e+04 9.802e-09
 55.60725    -55.9 1.070e+04 1.013e-08
 55.61722    -55.0 1.071e+04 1.005e-08
 55.63012    -54.4 1.104e+04 1.183e-08
 55.65004    -54.2 1.139e+04 1.415e-08
 55.66997    -54.2 1.184e+04 1.759e-08
 55.68989    -54.2 1.247e+04 2.251e-08
 55.70715    -54.8 1.309e+04 2.777e-08
 55.71711    -53.8 1.284e+04 2.489e-08
 55.72974    -54.9 1.337e+04 2.961e-08
 55.74966    -56.4 1.367e+04 3.371e-08
 55.76958    -58.1 1.380e+04 3.509e-08
 55.78951    -60.3 1.383e+04 3.467e-08
 55.80705    -63.0 1.384e+04 3.405e-08
 55.81701    -61.4 1.385e+04 3.475e-08
 55.82936    -64.2 1.387e+04 3.465e-08
 55.84928    -67.3 1.397e+04 3.589e-08
 55.86920    -70.2 1.413e+04 3.808e-08
 55.88913    -72.9 1.423e+04 3.945e-08
 55.90695    -75.5 1.414e+04 3.805e-08
 55.91691    -74.1 1.446e+04 4.239e-08
 55.92898    -76.6 1.406e+04 3.701e-08
 55.94890    -78.9 1.319e+04 2.750e-08
 55.96882    -80.7 1.216e+04 1.939e-08
 55.98875    -81.9 1.132e+04 1.407e-08
 56.01873    -83.4 1.069e+04 1.021e-08
 56.04862    -84.3 1.039e+04 8.998e-09
 56.06844    -84.6 1.038e+04 8.901e-09
 56.08837    -85.2 1.045e+04 9.037e-09
 56.10675    -85.9 1.053e+04 9.433e-09
 56.11671    -85.2 1.080e+04 1.054e-08
 56.12821    -86.0 1.103e+04 1.195e-08
 56.14814    -86.7 1.121e+04 1.303e-08
 56.16806    -87.5 1.133e+04 1.347e-08
 56.18735    -88.5 1.138e+04 1.359e-08
 56.19731    -87.9 1.140e+04 1.355e-08
 56.20665    -89.2 1.148e+04 1.360e-08
 56.21661    -88.8 1.203e+04 1.776e-08
 56.22783    -90.4 1.200e+04 1.707e-08
 56.24776    -92.1 1.201e+04 1.680e-08
 56.26768    -94.1 1.218e+04 1.756e-08
 56.28761    -96.3 1.246e+04 1.933e-08
 56.30655    -98.6 1.273e+04 2.140e-08
 56.31651    -98.0 1.290e+04 2.254e-08
 56.32745   -100.1 1.311e+04 2.417e-08
 56.34738   -102.1 1.317e+04 2.447e-08
 56.36730   -104.0 1.310e+04 2.361e-08
 56.38723   -105.8 1.290e+04 2.172e-08
 56.40645   -107.6 1.271e+04 1.997e-08
 56.41641   -106.4 1.319e+04 2.180e-08
 56.42707   -108.1 1.296e+04 2.010e-08
 56.44700   -109.7 1.281e+04 1.925e-08
 56.46692   -111.1 1.275e+04 1.877e-08
 56.48685   -112.4 1.275e+04 1.789e-08
 56.50634   -113.6 1.270e+04 1.602e-08
 56.51631   -112.6 1.275e+04 1.689e-08
 56.52669   -113.6 1.264e+04 1.444e-08
 56.54662   -114.7 1.245e+04 1.184e-08
 56.56654   -115.7 1.219e+04 9.551e-09
 56.58646   -116.6 1.192e+04 7.816e-09
 56.60624   -117.4 1.176e+04 6.500e-09
 56.61620   -116.2 1.201e+04 7.250e-09
 56.62631   -116.9 1.190e+04 6.185e-09
 56.64624   -117.4 1.182e+04 5.350e-09
 56.66616   -117.9 1.171e+04 4.701e-09
 56.68608   -118.4 1.153e+04 4.228e-09
 56.70601   -118.7 1.131e+04 3.929e-09
 56.71610   -119.0 1.113e+04 3.774e-09
 56.72607   -118.0 1.138e+04 4.263e-09
 56.74586   -118.2 1.131e+04 4.249e-09
 56.76578   -118.4 1.124e+04 4.401e-09
 56.78570   -118.7 1.130e+04 4.766e-09
 56.80259   -119.1 1.145e+04 5.075e-09
 56.81255   -119.1 1.156e+04 5.577e-09
 56.81600   -119.7 1.168e+04 5.724e-09
 56.82596   -118.6 1.202e+04 7.378e-09
 56.84548   -119.3 1.208e+04 7.483e-09
 56.86540   -120.2 1.207e+04 7.411e-09
 56.88532   -120.9 1.187e+04 6.684e-09
 56.90525   -121.5 1.152e+04 5.584e-09
 56.91590   -122.0 1.115e+04 4.453e-09
 56.92586   -121.4 1.154e+04 6.084e-09
 56.94509   -121.9 1.115e+04 4.646e-09
 56.96502   -122.2 1.087e+04 3.572e-09
 56.98494   -122.4 1.074e+04 2.918e-09
 57.00487   -122.5 1.074e+04 2.665e-09
 57.01580   -122.5 1.075e+04 2.629e-09
 57.02576   -122.3 1.076e+04 2.759e-09
 57.05477   -123.1 1.076e+04 2.675e-09
 57.09472   -123.2 1.066e+04 2.660e-09
 57.11589   -123.2 1.058e+04 2.666e-09
 57.12576   -122.3 1.081e+04 2.806e-09
 57.14433   -122.2 1.079e+04 2.832e-09
 57.16426   -122.1 1.072e+04 2.900e-09
 57.18418   -122.2 1.073e+04 2.897e-09
 57.20411   -122.3 1.070e+04 2.972e-09
 57.21560   -122.2 1.086e+04 3.411e-09
 57.22556   -122.8 1.110e+04 3.857e-09
 57.24395   -122.8 1.121e+04 4.496e-09
 57.26388   -122.6 1.133e+04 5.302e-09
 57.28380   -122.3 1.152e+04 6.232e-09
 57.30373   -122.0 1.176e+04 7.180e-09
 57.31550   -121.7 1.203e+04 7.995e-09
 57.33552   -122.7 1.215e+04 7.783e-09
 57.37365   -122.3 1.243e+04 8.209e-09
 57.41350   -122.3 1.288e+04 9.210e-09
 57.45335   -122.5 1.324e+04 1.173e-08
 57.48314   -122.5 1.333e+04 1.336e-08
 57.50296   -122.3 1.338e+04 1.516e-08
 57.51530   -121.8 1.338e+04 1.700e-08
 57.52526   -121.6 1.334e+04 1.641e-08
 57.54281   -120.9 1.333e+04 1.808e-08
 57.56274   -120.1 1.331e+04 1.892e-08
 57.58266   -119.4 1.331e+04 1.908e-08
 57.60258   -118.8 1.323e+04 1.863e-08
 57.61519   -117.9 1.321e+04 1.779e-08
 57.62516   -117.6 1.328e+04 1.767e-08
 57.64243   -116.8 1.331e+04 1.721e-08
 57.66236   -116.1 1.335e+04 1.701e-08
 57.68228   -115.8 1.338e+04 1.714e-08
 57.70220   -114.9 1.341e+04 1.685e-08
 57.71519   -114.2 1.336e+04 1.609e-08
 57.73521   -114.1 1.349e+04 1.711e-08
 57.77213   -112.8 1.354e+04 1.716e-08
 57.80192   -111.8 1.353e+04 1.656e-08
 57.81499   -111.1 1.346e+04 1.624e-08
 57.82495   -110.9 1.348e+04 1.665e-08
 57.84167   -109.8 1.338e+04 1.637e-08
 57.86159   -108.6 1.334e+04 1.599e-08
 57.88152   -107.9 1.334e+04 1.603e-08
 57.90144   -107.3 1.341e+04 1.663e-08
 57.91489   -106.7 1.357e+04 1.747e-08
 57.92485   -106.6 1.440e+04 2.647e-08
 57.94129   -106.2 1.483e+04 3.117e-08
 57.96121   -106.0 1.511e+04 3.423e-08
 57.98114   -105.9 1.521e+04 3.562e-08
 58.00106   -105.6 1.518e+04 3.538e-08
 58.01479   -105.5 1.505e+04 3.349e-08
 58.02475   -105.5 1.530e+04 3.778e-08
 58.03307   -105.5 1.495e+04 3.214e-08
 58.04303   -105.2 1.448e+04 2.397e-08
 58.06083   -105.1 1.427e+04 2.211e-08
 58.08076   -104.8 1.409e+04 2.091e-08
 58.10068   -104.5 1.400e+04 2.050e-08
 58.11469   -104.2 1.405e+04 2.135e-08
 58.12465   -104.2 1.423e+04 2.249e-08
 58.14053   -103.9 1.438e+04 2.470e-08
 58.16045   -103.6 1.449e+04 2.722e-08
 58.18038   -103.3 1.450e+04 2.829e-08
 58.20030   -103.0 1.443e+04 2.833e-08
 58.21459   -102.4 1.410e+04 2.558e-08
 58.22455   -102.1 1.410e+04 2.601e-08
 58.24015   -101.3 1.364e+04 2.099e-08
 58.26007   -100.4 1.315e+04 1.629e-08
 58.28000    -99.5 1.280e+04 1.291e-08
 58.29992    -98.6 1.273e+04 1.124e-08
 58.31458    -98.2 1.276e+04 1.055e-08
 58.33461    -97.3 1.279e+04 1.134e-08
 58.36985    -96.5 1.274e+04 1.078e-08
 58.40970    -96.1 1.275e+04 1.062e-08
 58.43949    -95.1 1.293e+04 1.210e-08
 58.45931    -94.7 1.303e+04 1.281e-08
 58.48930    -96.2 1.288e+04 1.247e-08
 58.51438    -97.1 1.293e+04 1.330e-08
 58.53431    -97.4 1.278e+04 1.215e-08
 58.56909   -100.9 1.269e+04 1.150e-08
 58.60894   -104.5 1.278e+04 1.226e-08
 58.64878   -107.3 1.279e+04 1.283e-08
 58.68863   -109.2 1.227e+04 1.139e-08
 58.71418   -109.5 1.172e+04 9.121e-09
 58.73410   -109.0 1.194e+04 1.018e-08
 58.75827   -110.4 1.156e+04 7.162e-09
 58.77809   -111.7 1.167e+04 6.735e-09
 58.79802   -114.5 1.187e+04 7.007e-09
 58.81398   -117.1 1.290e+04 1.155e-08
 58.82394   -114.0 1.251e+04 1.118e-08
 58.83787   -117.0 1.376e+04 1.785e-08
 58.85779   -121.4 1.529e+04 2.753e-08
 58.87771   -127.7 1.656e+04 3.924e-08
 58.89764   -134.9 1.719e+04 5.346e-08
 58.91388   -141.8 1.742e+04 7.049e-08
 58.92384   -143.4 1.876e+04 1.106e-07
 58.93749   -149.8 1.856e+04 1.204e-07
 58.95741   -156.1 1.838e+04 1.190e-07
 58.97733   -162.2 1.855e+04 1.217e-07
 58.99726   -167.5 1.868e+04 1.496e-07
 59.01215   -171.4 1.831e+04 1.587e-07
 59.01866   -173.0 1.866e+04 1.818e-07
 59.02364   -176.4 1.913e+04 1.456e-07
 59.03203   -180.3 2.090e+04 2.155e-07
 59.04199   -187.1 2.198e+04 4.032e-07
 59.05195   -195.6 2.142e+04 7.976e-07
 59.06191   -204.3 2.014e+04 1.249e-06
 59.06861   -211.9 1.972e+04 1.381e-06
 59.07359   -215.4 1.936e+04 1.367e-06
 59.08184   -220.3 1.882e+04 1.002e-06
 59.09180   -224.7 1.884e+04 4.426e-07
 59.10176   -229.8 1.833e+04 1.415e-07
 59.11172   -235.9 1.618e+04 4.134e-08
 59.11856   -241.8 1.320e+04 1.838e-08
 59.12354   -243.6 1.234e+04 1.537e-08
 59.13668   -246.7 1.161e+04 1.305e-08
 59.15665   -251.6 1.110e+04 1.190e-08
 59.17657   -257.2 1.084e+04 1.169e-08
 59.19650   -261.8 1.115e+04 1.354e-08
 59.21358   -265.5 1.283e+04 2.222e-08
 59.22354   -267.8 1.368e+04 2.839e-08
 59.23634   -271.7 1.473e+04 4.037e-08
 59.25359   -275.9 1.521e+04 4.731e-08
 59.26355   -276.7 1.525e+04 4.750e-08
 59.27619   -281.1 1.529e+04 4.853e-08
 59.29612   -284.9 1.485e+04 4.537e-08
 59.31348   -287.9 1.399e+04 3.485e-08
 59.32344   -290.6 1.344e+04 2.938e-08
 59.33596   -292.8 1.242e+04 2.137e-08
 59.35589   -294.4 1.166e+04 1.686e-08
 59.37581   -295.2 1.122e+04 1.457e-08
 59.39574   -295.5 1.099e+04 1.334e-08
 59.41337   -295.7 1.082e+04 1.236e-08
 59.42334   -296.6 1.059e+04 1.107e-08
 59.43558   -296.3 1.038e+04 9.834e-09
 59.45551   -296.0 1.018e+04 8.682e-09
 59.47543   -295.6 1.001e+04 7.712e-09
 59.49535   -295.2 9.882e+03 6.971e-09
 59.51327   -294.9 9.803e+03 6.459e-09
 59.52324   -295.7 9.574e+03 5.356e-09
 59.53520   -295.3 9.563e+03 5.151e-09
 59.55513   -294.8 9.567e+03 5.105e-09
 59.57505   -294.3 9.614e+03 5.097e-09
 59.59497   -293.8 9.739e+03 5.265e-09
 59.61317   -293.3 9.824e+03 5.586e-09
 59.62313   -293.6 9.588e+03 4.427e-09
 59.63482   -293.3 9.656e+03 4.657e-09
 59.65475   -293.3 9.702e+03 5.309e-09
 59.67467   -293.8 9.902e+03 8.493e-09
 59.69459   -294.7 1.267e+04 1.762e-08
 59.71307   -295.8 1.562e+04 4.221e-08
 59.72303   -296.9 1.579e+04 4.082e-08
 59.73444   -298.8 1.799e+04 1.068e-07
 59.74934   -301.2 1.889e+04 1.906e-07
 59.75925   -303.4 1.926e+04 2.665e-07
 59.76790   -305.6 1.947e+04 3.316e-07
 59.77288   -306.2 1.947e+04 3.376e-07
 59.77917   -309.3 1.949e+04 3.527e-07
 59.78913   -312.0 1.928e+04 3.415e-07
 59.79910   -313.8 1.872e+04 2.592e-07
 59.80906   -314.9 1.811e+04 1.714e-07
 59.81785   -315.8 1.743e+04 1.128e-07
 59.82283   -316.5 1.750e+04 1.108e-07
 59.82898   -317.4 1.688e+04 8.018e-08
 59.83894   -318.2 1.628e+04 5.965e-08
 59.85394   -319.5 1.561e+04 4.297e-08
 59.86883   -321.0 1.405e+04 2.303e-08
 59.87879   -321.5 1.320e+04 1.639e-08
 59.89383   -322.9 1.253e+04 1.220e-08
 59.91287   -323.8 1.234e+04 1.145e-08
 59.92283   -324.3 1.261e+04 1.447e-08
 59.93368   -324.7 1.260e+04 1.449e-08
 59.95360   -325.2 1.299e+04 1.698e-08
 59.97353   -325.7 1.358e+04 2.185e-08
 59.99345   -326.4 1.409e+04 2.761e-08
 60.01277   -327.1 1.439e+04 3.195e-08
 60.02273   -327.3 1.444e+04 3.219e-08
 60.03330   -327.9 1.478e+04 3.769e-08
 60.05322   -328.6 1.486e+04 3.969e-08
 60.07315   -329.4 1.478e+04 3.924e-08
 60.09307   -329.9 1.433e+04 3.201e-08
 60.11267   -330.2 1.361e+04 2.260e-08
 60.12263   -330.6 1.473e+04 3.993e-08
 60.13292   -330.7 1.391e+04 2.728e-08
 60.15284   -330.7 1.296e+04 1.725e-08
 60.17277   -330.8 1.204e+04 1.101e-08
 60.19269   -330.8 1.131e+04 7.640e-09
 60.21257   -330.4 1.084e+04 5.986e-09
 60.23249   -330.1 1.082e+04 6.283e-09
 60.25246   -329.5 1.061e+04 5.516e-09
 60.27239   -328.8 1.048e+04 5.051e-09
 60.29231   -328.1 1.037e+04 4.667e-09
 60.31223   -327.3 1.027e+04 4.311e-09
 60.32243   -326.4 1.020e+04 4.010e-09
 60.33239   -326.8 1.037e+04 4.663e-09
 60.35208   -326.0 1.035e+04 4.500e-09
 60.37201   -325.2 1.035e+04 4.455e-09
 60.39193   -324.4 1.036e+04 4.455e-09
 60.41185   -323.8 1.045e+04 4.468e-09
 60.42233   -323.4 1.076e+04 4.804e-09
 60.43229   -324.3 1.095e+04 5.769e-09
 60.45170   -324.0 1.122e+04 6.757e-09
 60.47163   -323.9 1.152e+04 8.121e-09
 60.48407   -324.0 1.184e+04 9.713e-09
 60.49403   -325.0 1.184e+04 9.972e-09
 60.51147   -325.2 1.211e+04 1.136e-08
 60.52222   -325.6 1.228e+04 1.211e-08
 60.53219   -326.6 1.183e+04 9.966e-09
 60.55132   -327.1 1.183e+04 9.762e-09
 60.57125   -327.5 1.175e+04 9.113e-09
 60.59117   -327.8 1.162e+04 8.182e-09
 60.61109   -327.9 1.147e+04 7.188e-09
 60.62212   -327.9 1.133e+04 6.261e-09
 60.63209   -328.0 1.102e+04 5.104e-09
 60.65094   -327.9 1.098e+04 4.668e-09
 60.67086   -327.6 1.097e+04 4.321e-09
 60.69079   -327.3 1.096e+04 4.057e-09
 60.71071   -327.0 1.098e+04 3.853e-09
 60.72202   -326.5 1.102e+04 3.693e-09
 60.73198   -326.4 1.094e+04 3.668e-09
 60.75056   -325.9 1.104e+04 3.646e-09
 60.77048   -325.4 1.112e+04 3.635e-09
 60.79041   -324.9 1.123e+04 3.583e-09
 60.81033   -324.4 1.135e+04 3.514e-09
 60.82192   -323.9 1.146e+04 3.432e-09
 60.83188   -323.8 1.150e+04 3.743e-09
 60.85018   -323.3 1.162e+04 3.669e-09
 60.87010   -322.9 1.173e+04 3.573e-09
 60.89003   -322.5 1.186e+04 3.466e-09
 60.90995   -322.0 1.198e+04 3.378e-09
 60.92182   -321.5 1.210e+04 3.320e-09
 60.93178   -321.5 1.208e+04 3.633e-09
 60.94980   -320.9 1.220e+04 3.583e-09
 60.96972   -320.3 1.236e+04 3.549e-09
 60.98965   -319.6 1.253e+04 3.547e-09
 61.00957   -318.9 1.269e+04 3.577e-09
 61.02172   -318.2 1.280e+04 3.639e-09
 61.03168   -318.4 1.278e+04 3.875e-09
 61.04942   -317.6 1.287e+04 3.940e-09
 61.06934   -316.8 1.292e+04 4.026e-09
 61.08927   -316.1 1.293e+04 4.120e-09
 61.10919   -315.7 1.284e+04 4.613e-09
 61.12162   -314.8 1.284e+04 4.658e-09
 61.13158   -315.3 1.288e+04 4.785e-09
 61.14904   -314.5 1.286e+04 4.731e-09
 61.16896   -313.6 1.286e+04 4.621e-09
 61.18889   -312.6 1.286e+04 4.417e-09
 61.20881   -311.5 1.285e+04 4.121e-09
 61.22152   -310.3 1.283e+04 3.789e-09
 61.23148   -309.6 1.265e+04 3.307e-09
 61.24866   -308.5 1.269e+04 3.208e-09
 61.27864   -307.3 1.276e+04 3.167e-09
 61.31165   -305.7 1.274e+04 3.091e-09
 61.33157   -305.8 1.252e+04 2.625e-09
 61.35843   -303.7 1.248e+04 2.610e-09
 61.39828   -301.6 1.246e+04 2.616e-09
 61.43813   -299.5 1.240e+04 2.720e-09
 61.47798   -297.5 1.243e+04 3.024e-09
 61.51145   -295.6 1.253e+04 3.556e-09
 61.53137   -296.1 1.226e+04 2.431e-09
 61.55767   -294.2 1.235e+04 2.845e-09
 61.59752   -292.4 1.244e+04 3.475e-09
 61.63737   -290.7 1.250e+04 4.261e-09
 61.67722   -289.2 1.253e+04 5.002e-09
 61.70479   -287.8 1.250e+04 5.449e-09
 61.71889   -288.3 1.248e+04 5.304e-09
 61.73117   -288.0 1.230e+04 3.370e-09
 61.75691   -286.3 1.224e+04 3.701e-09
 61.79676   -284.5 1.217e+04 3.851e-09
 61.83661   -282.5 1.199e+04 3.779e-09
 61.87646   -280.3 1.188e+04 3.487e-09
 61.91104   -278.1 1.177e+04 3.160e-09
 61.93097   -277.8 1.182e+04 2.901e-09
 61.95615   -275.7 1.180e+04 2.833e-09
 61.99600   -273.7 1.181e+04 2.790e-09
 62.03585   -272.0 1.183e+04 2.957e-09
 62.07570   -270.7 1.202e+04 3.765e-09
 62.11084   -269.9 1.226e+04 5.095e-09
 62.13076   -270.3 1.238e+04 5.283e-09
 62.15539   -270.1 1.271e+04 7.356e-09
 62.19524   -270.2 1.294e+04 9.323e-09
 62.23509   -270.3 1.303e+04 1.069e-08
 62.27493   -270.6 1.307e+04 1.112e-08
 62.31064   -270.7 1.304e+04 1.115e-08
 62.33056   -271.8 1.328e+04 1.301e-08
 62.35463   -271.5 1.291e+04 1.087e-08
 62.39448   -270.5 1.247e+04 8.464e-09
 62.43433   -269.0 1.207e+04 6.332e-09
 62.47417   -267.4 1.174e+04 4.733e-09
 62.51044   -265.6 1.148e+04 3.731e-09
 62.53036   -265.3 1.156e+04 3.780e-09
 62.55387   -263.3 1.141e+04 3.312e-09
 62.59372   -261.5 1.130e+04 2.995e-09
 62.63356   -259.8 1.122e+04 2.753e-09
 62.67341   -258.2 1.115e+04 2.538e-09
 62.71023   -256.5 1.111e+04 2.306e-09
 62.73016   -255.9 1.131e+04 2.419e-09
 62.75311   -254.4 1.119e+04 2.035e-09
 62.79296   -252.9 1.109e+04 1.696e-09
 62.83280   -251.1 1.103e+04 1.417e-09
 62.87265   -249.2 1.107e+04 1.202e-09
 62.91003   -247.1 1.114e+04 1.062e-09
 62.92996   -246.7 1.116e+04 1.054e-09
 62.93527   -244.6 1.127e+04 9.605e-10
 62.95519   -244.8 1.136e+04 9.082e-10
 62.99220   -242.6 1.141e+04 8.495e-10
 63.03204   -240.4 1.143e+04 8.343e-10
 63.07189   -238.3 1.157e+04 8.586e-10
 63.10983   -236.3 1.172e+04 9.889e-10
 63.12975   -235.8 1.173e+04 7.610e-10
 63.15159   -233.9 1.188e+04 8.641e-10
 63.19143   -232.0 1.203e+04 1.058e-09
 63.23128   -230.0 1.219e+04 1.319e-09
 63.27113   -227.8 1.232e+04 1.619e-09
 63.30963   -225.6 1.237e+04 1.910e-09
 63.32955   -224.8 1.231e+04 1.527e-09
 63.35083   -222.5 1.233e+04 1.854e-09
 63.39067   -220.4 1.232e+04 2.082e-09
 63.43052   -218.3 1.230e+04 2.147e-09
 63.47037   -216.2 1.225e+04 2.074e-09
 63.50942   -214.0 1.217e+04 1.998e-09
 63.52935   -213.4 1.219e+04 2.007e-09
 63.55006   -211.1 1.215e+04 1.960e-09
 63.58991   -208.7 1.215e+04 1.957e-09
 63.62976   -206.7 1.224e+04 2.126e-09
 63.66961   -205.2 1.244e+04 2.712e-09
 63.70922   -203.9 1.266e+04 3.518e-09
 63.72915   -203.0 1.264e+04 3.217e-09
 63.74930   -201.8 1.285e+04 3.913e-09
 63.77909   -200.6 1.285e+04 4.333e-09
 63.79892   -200.5 1.286e+04 4.527e-09
 63.81884   -200.3 1.306e+04 4.951e-09
 63.83877   -199.5 1.342e+04 5.398e-09
 63.85869   -201.1 1.469e+04 9.433e-09
 63.87861   -203.1 1.581e+04 2.310e-08
 63.89854   -205.1 1.672e+04 5.373e-08
 63.91846   -206.7 1.740e+04 9.286e-08
 63.92875   -208.0 1.793e+04 1.143e-07
 63.93871   -205.2 1.756e+04 9.709e-08
 63.95831   -206.7 1.800e+04 1.103e-07
 63.97320   -208.5 1.830e+04 1.264e-07
 63.97860   -210.2 1.827e+04 1.265e-07
 63.98358   -207.8 1.833e+04 1.212e-07
 63.99308   -209.8 1.828e+04 1.224e-07
 64.00304   -211.4 1.787e+04 1.064e-07
 64.01300   -212.8 1.734e+04 8.573e-08
 64.02296   -214.1 1.673e+04 6.580e-08
 64.02855   -215.3 1.607e+04 4.963e-08
 64.03353   -213.9 1.677e+04 6.649e-08
 64.04289   -215.3 1.626e+04 5.261e-08
 64.05285   -216.5 1.579e+04 4.172e-08
 64.06281   -217.5 1.543e+04 3.422e-08
 64.07780   -218.0 1.526e+04 2.988e-08
 64.09778   -219.3 1.493e+04 2.325e-08
 64.11770   -220.3 1.433e+04 1.587e-08
 64.12855   -221.1 1.363e+04 1.137e-08
 64.13851   -220.7 1.444e+04 2.174e-08
 64.15559   -221.0 1.375e+04 1.537e-08
 64.16556   -221.9 1.388e+04 2.107e-08
 64.17747   -222.0 1.330e+04 1.525e-08
 64.19740   -221.6 1.310e+04 1.261e-08
 64.21732   -221.0 1.297e+04 1.084e-08
 64.22845   -220.5 1.292e+04 9.831e-09
 64.23841   -220.5 1.306e+04 1.201e-08
 64.25717   -220.1 1.306e+04 1.172e-08
 64.27709   -219.7 1.307e+04 1.157e-08
 64.29702   -219.5 1.308e+04 1.137e-08
 64.31694   -219.3 1.307e+04 1.088e-08
 64.32834   -219.2 1.303e+04 1.013e-08
 64.33831   -219.3 1.323e+04 1.342e-08
 64.35679   -219.1 1.310e+04 1.157e-08
 64.37671   -219.0 1.297e+04 9.617e-09
 64.39664   -218.8 1.285e+04 8.081e-09
 64.41656   -218.6 1.275e+04 7.019e-09
 64.42824   -218.2 1.264e+04 6.340e-09
 64.43821   -218.1 1.258e+04 6.312e-09
 64.45641   -217.5 1.248e+04 5.705e-09
 64.47633   -216.9 1.241e+04 5.275e-09
 64.49625   -216.2 1.236e+04 4.924e-09
 64.51618   -215.4 1.233e+04 4.613e-09
 64.52814   -214.5 1.230e+04 4.336e-09
 64.53810   -214.2 1.226e+04 4.097e-09
 64.55603   -213.2 1.225e+04 3.903e-09
 64.57595   -212.3 1.226e+04 3.778e-09
 64.59587   -211.3 1.228e+04 3.729e-09
 64.61580   -210.3 1.230e+04 3.723e-09
 64.62804   -209.4 1.236e+04 3.775e-09
 64.63800   -209.0 1.241e+04 3.786e-09
 64.65565   -208.1 1.250e+04 3.933e-09
 64.67557   -207.2 1.258e+04 4.058e-09
 64.69549   -206.4 1.265e+04 4.160e-09
 64.71542   -205.7 1.271e+04 4.251e-09
 64.72794   -204.9 1.276e+04 4.352e-09
 64.73790   -204.7 1.283e+04 4.838e-09
 64.75527   -203.9 1.282e+04 4.823e-09
 64.77084   -203.1 1.283e+04 4.824e-09
 64.78080   -202.7 1.294e+04 4.846e-09
 64.79511   -201.9 1.300e+04 5.181e-09
 64.81504   -201.1 1.307e+04 5.692e-09
 64.82784   -200.3 1.315e+04 6.331e-09
 64.83780   -200.1 1.313e+04 6.244e-09
 64.85488   -199.3 1.323e+04 6.783e-09
 64.87481   -198.7 1.335e+04 7.589e-09
 64.89473   -198.0 1.347e+04 8.941e-09
 64.91466   -197.4 1.362e+04 1.108e-08
 64.92774   -196.7 1.382e+04 1.421e-08
 64.93770   -196.7 1.361e+04 1.080e-08
 64.95450   -196.2 1.378e+04 1.369e-08
 64.97443   -195.7 1.398e+04 1.713e-08
 64.99435   -195.3 1.415e+04 2.043e-08
 65.01428   -195.0 1.426e+04 2.275e-08
 65.02764   -194.8 1.432e+04 2.373e-08
 65.03760   -194.5 1.395e+04 1.818e-08
 65.05412   -194.2 1.404e+04 1.955e-08
 65.07405   -194.1 1.414e+04 2.059e-08
 65.09397   -194.1 1.430e+04 2.198e-08
 65.11390   -194.3 1.463e+04 2.563e-08
 65.12754   -194.7 1.515e+04 3.397e-08
 65.13750   -194.4 1.486e+04 3.101e-08
 65.15374   -194.9 1.536e+04 4.157e-08
 65.17367   -195.6 1.585e+04 5.341e-08
 65.19359   -196.8 1.617e+04 6.201e-08
 65.21352   -198.1 1.625e+04 6.507e-08
 65.22744   -199.2 1.622e+04 6.511e-08
 65.23740   -198.9 1.569e+04 4.941e-08
 65.25336   -199.7 1.560e+04 4.866e-08
 65.27329   -200.3 1.545e+04 4.694e-08
 65.29321   -200.4 1.526e+04 4.376e-08
 65.31313   -200.5 1.505e+04 3.901e-08
 65.32733   -200.4 1.475e+04 3.335e-08
 65.33730   -200.4 1.417e+04 2.379e-08
 65.35298   -200.1 1.379e+04 1.855e-08
 65.37291   -199.6 1.342e+04 1.412e-08
 65.38608   -198.9 1.312e+04 1.106e-08
 65.39604   -198.5 1.355e+04 1.316e-08
 65.41275   -197.7 1.336e+04 1.113e-08
 65.42723   -196.8 1.324e+04 1.002e-08
 65.43719   -196.7 1.269e+04 6.815e-09
 65.45260   -195.5 1.262e+04 6.712e-09
 65.47253   -194.1 1.260e+04 6.710e-09
 65.49245   -192.7 1.263e+04 6.791e-09
 65.51237   -191.7 1.298e+04 7.180e-09
 65.52713   -191.0 1.368e+04 9.995e-09
 65.53709   -190.7 1.288e+04 7.763e-09
 65.55222   -190.2 1.374e+04 1.312e-08
 65.57215   -189.5 1.478e+04 2.810e-08
 65.59207   -188.6 1.588e+04 6.066e-08
 65.61199   -187.6 1.679e+04 1.154e-07
 65.62703   -187.3 1.746e+04 1.790e-07
 65.63699   -188.1 1.696e+04 1.116e-07
 65.65184   -188.2 1.737e+04 1.402e-07
 65.67176   -189.0 1.747e+04 1.441e-07
 65.68191   -190.0 1.721e+04 1.042e-07
 65.68684   -190.0 1.700e+04 9.575e-08
 65.69360   -190.6 1.690e+04 8.519e-08
 65.69858   -190.8 1.762e+04 1.540e-07
 65.70653   -191.5 1.773e+04 1.725e-07
 65.71650   -192.0 1.775e+04 1.822e-07
 65.72646   -192.6 1.777e+04 1.972e-07
 65.73181   -193.3 1.781e+04 2.153e-07
 65.73679   -193.3 1.754e+04 1.498e-07
 65.74638   -193.8 1.759e+04 1.613e-07
 65.75634   -194.4 1.761e+04 1.704e-07
 65.76631   -195.0 1.760e+04 1.733e-07
 65.77627   -195.6 1.750e+04 1.732e-07
 65.78176   -195.8 1.719e+04 1.586e-07
 65.78674   -195.3 1.686e+04 1.129e-07
 65.79619   -195.5 1.655e+04 9.826e-08
 65.80615   -195.6 1.613e+04 8.178e-08
 65.81612   -195.5 1.560e+04 6.611e-08
 65.82608   -195.4 1.505e+04 5.344e-08
 65.83171   -195.4 1.468e+04 4.671e-08
 65.83674   -195.2 1.453e+04 3.958e-08
 65.85108   -195.4 1.413e+04 3.495e-08
 65.87100   -195.3 1.364e+04 2.990e-08
 65.89093   -194.9 1.327e+04 2.666e-08
 65.91085   -194.5 1.315e+04 2.570e-08
 65.92673   -194.2 1.311e+04 2.558e-08
 65.93669   -193.5 1.318e+04 2.621e-08
 65.95070   -193.3 1.319e+04 2.630e-08
 65.97062   -193.1 1.310e+04 2.563e-08
 65.99055   -193.1 1.288e+04 2.306e-08
 66.00132   -193.3 1.260e+04 1.918e-08
 66.01128   -192.9 1.224e+04 1.405e-08
 66.02663   -193.4 1.193e+04 1.139e-08
 66.03659   -192.4 1.224e+04 1.355e-08
 66.05032   -193.2 1.195e+04 1.104e-08
 66.07024   -194.0 1.165e+04 9.082e-09
 66.09017   -194.9 1.139e+04 7.783e-09
 66.11009   -195.7 1.120e+04 7.060e-09
 66.12653   -196.4 1.111e+04 6.760e-09
 66.13649   -195.8 1.135e+04 7.504e-09
 66.14994   -196.5 1.125e+04 7.236e-09
 66.16986   -197.1 1.118e+04 7.121e-09
 66.18979   -197.4 1.111e+04 7.066e-09
 66.20971   -197.6 1.104e+04 7.049e-09
 66.22642   -197.7 1.098e+04 7.035e-09
 66.23639   -197.3 1.106e+04 6.908e-09
 66.24956   -197.3 1.097e+04 6.749e-09
 66.26948   -197.2 1.091e+04 6.649e-09
 66.28941   -196.9 1.089e+04 6.617e-09
 66.30933   -196.6 1.088e+04 6.670e-09
 66.32632   -196.1 1.094e+04 6.830e-09
 66.33628   -195.8 1.089e+04 6.267e-09
 66.34918   -195.3 1.097e+04 6.528e-09
 66.36910   -194.6 1.107e+04 6.896e-09
 66.38903   -194.0 1.118e+04 7.310e-09
 66.40895   -193.4 1.129e+04 7.724e-09
 66.42622   -192.7 1.141e+04 8.123e-09
 66.43618   -192.3 1.136e+04 7.607e-09
 66.44880   -191.7 1.149e+04 8.032e-09
 66.46872   -191.1 1.165e+04 8.535e-09
 66.48865   -190.7 1.186e+04 9.250e-09
 66.50857   -190.3 1.213e+04 1.035e-08
 66.52612   -189.9 1.247e+04 1.208e-08
 66.53608   -189.5 1.259e+04 1.224e-08
 66.54842   -189.3 1.308e+04 1.550e-08
 66.56834   -189.0 1.351e+04 1.998e-08
 66.58826   -188.8 1.389e+04 2.500e-08
 66.60660   -188.6 1.417e+04 2.945e-08
 66.61656   -190.4 1.419e+04 2.989e-08
 66.62602   -189.9 1.417e+04 2.993e-08
 66.63598   -189.9 1.470e+04 3.619e-08
 66.64804   -189.3 1.451e+04 3.289e-08
 66.66796   -188.6 1.434e+04 2.826e-08
 66.68788   -188.2 1.417e+04 2.264e-08
 66.70781   -188.0 1.397e+04 1.720e-08
 66.72592   -188.0 1.361e+04 1.251e-08
 66.73588   -188.1 1.414e+04 1.867e-08
 66.74766   -188.2 1.364e+04 1.374e-08
 66.76758   -188.6 1.292e+04 1.017e-08
 66.78750   -188.9 1.212e+04 8.022e-09
 66.80743   -188.9 1.151e+04 6.818e-09
 66.82582   -188.6 1.118e+04 6.144e-09
 66.83578   -188.6 1.133e+04 6.481e-09
 66.84728   -188.1 1.098e+04 5.665e-09
 66.86720   -187.5 1.077e+04 5.142e-09
 66.88712   -186.7 1.060e+04 4.788e-09
 66.90705   -185.9 1.049e+04 4.581e-09
 66.92572   -184.9 1.044e+04 4.513e-09
 66.93568   -184.9 1.041e+04 4.459e-09
 66.94689   -183.9 1.041e+04 4.452e-09
 66.96682   -182.9 1.041e+04 4.466e-09
 66.98674   -182.0 1.042e+04 4.619e-09
 67.00667   -181.2 1.048e+04 4.925e-09
 67.02562   -180.4 1.058e+04 5.353e-09
 67.03558   -180.6 1.061e+04 5.519e-09
 67.04651   -180.0 1.077e+04 6.318e-09
 67.06644   -179.5 1.099e+04 7.443e-09
 67.08636   -179.1 1.123e+04 8.854e-09
 67.10629   -178.6 1.146e+04 1.043e-08
 67.12551   -178.1 1.164e+04 1.198e-08
 67.13548   -178.7 1.193e+04 1.426e-08
 67.14613   -178.2 1.204e+04 1.563e-08
 67.16606   -177.6 1.212e+04 1.663e-08
 67.18598   -176.9 1.216e+04 1.735e-08
 67.20591   -176.2 1.220e+04 1.795e-08
 67.22184   -175.6 1.223e+04 1.867e-08
 67.23138   -174.8 1.226e+04 1.862e-08
 67.23538   -175.3 1.254e+04 2.202e-08
 67.24575   -174.9 1.261e+04 2.360e-08
 67.26568   -174.6 1.281e+04 2.686e-08
 67.28560   -174.3 1.322e+04 3.296e-08
 67.30553   -174.0 1.383e+04 4.282e-08
 67.32531   -173.9 1.453e+04 5.624e-08
 67.33527   -174.4 1.456e+04 5.570e-08
 67.34537   -174.6 1.512e+04 6.790e-08
 67.36530   -175.2 1.555e+04 8.077e-08
 67.38522   -176.0 1.581e+04 9.136e-08
 67.40514   -176.8 1.593e+04 9.673e-08
 67.42507   -177.3 1.596e+04 9.783e-08
 67.43517   -177.7 1.583e+04 9.106e-08
 67.44513   -178.6 1.545e+04 7.831e-08
 67.46492   -178.9 1.527e+04 7.175e-08
 67.48484   -179.0 1.507e+04 6.603e-08
 67.50476   -178.9 1.491e+04 6.196e-08
 67.52469   -178.6 1.482e+04 5.961e-08
 67.53507   -178.1 1.477e+04 5.898e-08
 67.54503   -178.7 1.457e+04 5.834e-08
 67.56454   -178.2 1.470e+04 6.100e-08
 67.58446   -177.6 1.481e+04 6.388e-08
 67.60438   -177.1 1.491e+04 6.638e-08
 67.62431   -176.8 1.495e+04 6.717e-08
 67.63497   -176.5 1.500e+04 6.653e-08
 67.64493   -177.0 1.417e+04 5.029e-08
 67.66416   -176.8 1.412e+04 4.658e-08
 67.68408   -176.7 1.409e+04 4.339e-08
 67.70400   -176.7 1.414e+04 4.136e-08
 67.72393   -176.6 1.417e+04 4.097e-08
 67.73487   -176.5 1.428e+04 4.119e-08
 67.74483   -177.1 1.339e+04 2.938e-08
 67.76377   -176.9 1.356e+04 3.082e-08
 67.78370   -176.6 1.374e+04 3.326e-08
 67.80362   -176.3 1.385e+04 3.513e-08
 67.82355   -176.0 1.386e+04 3.534e-08
 67.83477   -175.7 1.383e+04 3.419e-08
 67.83834   -176.2 1.297e+04 2.418e-08
 67.84704   -174.9 1.293e+04 2.286e-08
 67.86339   -174.7 1.292e+04 2.363e-08
 67.88332   -174.5 1.292e+04 2.477e-08
 67.90324   -174.4 1.289e+04 2.598e-08
 67.92317   -174.3 1.283e+04 2.656e-08
 67.93467   -174.3 1.278e+04 2.664e-08
 67.94463   -174.1 1.204e+04 2.010e-08
 67.96301   -173.9 1.181e+04 2.002e-08
 67.98294   -173.3 1.148e+04 1.856e-08
 68.00286   -172.6 1.111e+04 1.591e-08
 68.02279   -171.8 1.072e+04 1.313e-08
 68.03457   -170.9 1.037e+04 1.079e-08
 68.04453   -170.3 1.021e+04 9.927e-09
 68.06263   -169.4 1.001e+04 8.747e-09
 68.08256   -168.5 9.892e+03 8.000e-09
 68.10248   -167.6 9.830e+03 7.560e-09
 68.12241   -166.7 9.809e+03 7.309e-09
 68.13447   -165.8 9.827e+03 7.150e-09
 68.14443   -165.3 9.895e+03 7.894e-09
 68.16225   -164.5 9.930e+03 7.907e-09
 68.18218   -163.8 1.000e+04 7.749e-09
 68.20210   -163.2 1.002e+04 7.476e-09
 68.22202   -162.8 1.000e+04 7.028e-09
 68.23436   -162.5 9.930e+03 6.559e-09
 68.24433   -162.1 1.002e+04 7.488e-09
 68.26187   -161.8 9.923e+03 6.977e-09
 68.28180   -161.6 9.834e+03 6.593e-09
 68.30172   -161.5 9.758e+03 6.342e-09
 68.32164   -161.4 9.697e+03 6.172e-09
 68.33426   -161.4 9.681e+03 6.065e-09
 68.34423   -161.1 9.570e+03 6.095e-09
 68.36149   -161.2 9.555e+03 6.044e-09
 68.38142   -161.9 9.568e+03 6.042e-09
 68.40134   -163.2 9.897e+03 6.636e-09
 68.42126   -165.0 1.054e+04 8.902e-09
 68.43416   -167.0 1.129e+04 1.266e-08
 68.44412   -167.3 1.128e+04 1.277e-08
 68.45232   -169.5 1.205e+04 1.819e-08
 68.46228   -167.8 1.189e+04 1.717e-08
 68.48104   -170.0 1.244e+04 2.180e-08
 68.50096   -172.2 1.286e+04 2.559e-08
 68.52088   -174.3 1.308e+04 2.765e-08
 68.53406   -176.4 1.310e+04 2.821e-08
 68.54402   -176.8 1.280e+04 2.678e-08
 68.56073   -178.7 1.264e+04 2.541e-08
 68.58065   -180.5 1.245e+04 2.372e-08
 68.60058   -182.3 1.232e+04 2.250e-08
 68.62050   -183.9 1.222e+04 2.178e-08
 68.63396   -185.2 1.217e+04 2.140e-08
 68.64392   -185.4 1.193e+04 1.976e-08
 68.66035   -186.6 1.211e+04 2.120e-08
 68.68027   -187.6 1.230e+04 2.297e-08
 68.70020   -188.5 1.241e+04 2.424e-08
 68.72012   -189.2 1.242e+04 2.456e-08
 68.73386   -189.7 1.227e+04 2.317e-08
 68.74382   -190.2 1.256e+04 2.726e-08
 68.75997   -190.5 1.218e+04 2.354e-08
 68.77989   -190.8 1.172e+04 1.794e-08
 68.79982   -191.3 1.122e+04 1.300e-08
 68.81974   -191.9 1.072e+04 9.466e-09
 68.83376   -192.5 1.030e+04 7.239e-09
 68.84372   -192.8 1.030e+04 7.374e-09
 68.85959   -193.4 1.004e+04 6.072e-09
 68.87951   -194.1 9.974e+03 5.713e-09
 68.89944   -194.9 9.973e+03 5.663e-09
 68.91936   -196.1 1.016e+04 5.836e-09
 68.93366   -197.7 1.054e+04 7.013e-09
 68.94362   -198.0 1.042e+04 6.485e-09
 68.95921   -199.8 1.072e+04 7.954e-09
 68.97913   -201.6 1.102e+04 9.901e-09
 68.99906   -203.4 1.134e+04 1.206e-08
 69.01898   -205.1 1.167e+04 1.400e-08
 69.03356   -206.8 1.197e+04 1.518e-08
 69.04352   -207.5 1.185e+04 1.413e-08
 69.05760   -209.1 1.199e+04 1.440e-08
 69.06756   -210.3 1.195e+04 1.429e-08
 69.07875   -211.8 1.199e+04 1.396e-08
 69.09868   -212.9 1.197e+04 1.308e-08
 69.11860   -213.8 1.187e+04 1.215e-08
 69.13345   -214.4 1.172e+04 1.116e-08
 69.14342   -214.5 1.144e+04 9.547e-09
 69.15845   -214.8 1.129e+04 8.742e-09
 69.17837   -214.8 1.118e+04 8.114e-09
 69.19830   -214.9 1.110e+04 7.534e-09
 69.21822   -214.8 1.101e+04 6.971e-09
 69.23335   -214.5 1.095e+04 6.518e-09
 69.24332   -214.3 1.092e+04 6.670e-09
 69.25807   -213.8 1.093e+04 6.685e-09
 69.27799   -213.4 1.097e+04 6.739e-09
 69.29792   -213.3 1.107e+04 6.856e-09
 69.31784   -214.0 1.170e+04 7.735e-09
 69.33325   -215.4 1.326e+04 1.414e-08
 69.34321   -215.4 1.349e+04 1.627e-08
 69.35769   -216.6 1.484e+04 3.386e-08
 69.37761   -217.8 1.574e+04 5.891e-08
 69.39754   -219.5 1.611e+04 7.704e-08
 69.41746   -221.4 1.613e+04 8.081e-08
 69.43315   -222.4 1.543e+04 7.364e-08
 69.44311   -222.4 1.546e+04 7.554e-08
 69.45731   -222.6 1.440e+04 5.006e-08
 69.47723   -222.6 1.334e+04 2.992e-08
 69.49715   -222.7 1.248e+04 1.751e-08
 69.51708   -222.8 1.199e+04 1.144e-08
 69.53305   -222.8 1.196e+04 9.414e-09
 69.54301   -223.8 1.302e+04 1.505e-08
 69.55693   -224.3 1.404e+04 1.871e-08
 69.57685   -224.7 1.513e+04 2.855e-08
 69.59677   -224.7 1.592e+04 4.525e-08
 69.61670   -224.5 1.642e+04 6.587e-08
 69.63295   -224.4 1.667e+04 8.413e-08
 69.64291   -226.0 1.706e+04 1.193e-07
 69.65655   -225.8 1.696e+04 1.190e-07
 69.67284   -225.4 1.660e+04 1.047e-07
 69.68280   -226.3 1.637e+04 1.006e-07
 69.69639   -225.4 1.554e+04 7.137e-08
 69.71632   -224.3 1.466e+04 4.908e-08
 69.73285   -223.0 1.390e+04 3.450e-08
 69.74281   -223.4 1.311e+04 2.214e-08
 69.75617   -222.2 1.266e+04 1.695e-08
 69.77609   -220.9 1.233e+04 1.368e-08
 69.79601   -219.4 1.208e+04 1.145e-08
 69.81594   -217.9 1.189e+04 9.788e-09
 69.83275   -216.4 1.176e+04 8.436e-09
 69.84271   -216.5 1.146e+04 5.632e-09
 69.85578   -214.9 1.141e+04 4.985e-09
 69.87571   -213.3 1.139e+04 4.413e-09
 69.89563   -211.7 1.141e+04 3.913e-09
 69.91556   -210.1 1.144e+04 3.483e-09
 69.93265   -208.4 1.148e+04 3.126e-09
 69.94261   -208.1 1.141e+04 2.457e-09
 69.96546   -206.2 1.146e+04 2.397e-09
 70.00541   -204.0 1.147e+04 2.357e-09
 70.04526   -201.8 1.144e+04 2.245e-09
 70.08511   -199.6 1.144e+04 2.147e-09
 70.12268   -197.4 1.140e+04 2.035e-09
 70.14260   -197.6 1.132e+04 1.911e-09
 70.16480   -195.3 1.127e+04 1.777e-09
 70.20465   -192.9 1.116e+04 1.684e-09
 70.24450   -190.5 1.098e+04 1.620e-09
 70.27831   -187.9 1.076e+04 1.558e-09
 70.29824   -188.4 1.099e+04 1.586e-09
 70.32247   -185.9 1.083e+04 1.579e-09
 70.34240   -185.9 1.094e+04 1.555e-09
 70.36404   -183.4 1.078e+04 1.628e-09
 70.40389   -181.0 1.071e+04 1.732e-09
 70.44374   -178.7 1.068e+04 1.868e-09
 70.48358   -176.5 1.066e+04 2.025e-09
 70.52227   -174.3 1.066e+04 2.215e-09
 70.54220   -174.5 1.061e+04 2.104e-09
 70.56328   -172.3 1.058e+04 2.143e-09
 70.60313   -170.0 1.057e+04 2.167e-09
 70.64297   -167.8 1.061e+04 2.198e-09
 70.68282   -165.8 1.072e+04 2.228e-09
 70.72207   -164.0 1.091e+04 2.336e-09
 70.74199   -163.7 1.096e+04 1.750e-09
 70.76252   -162.0 1.119e+04 2.060e-09
 70.80237   -160.6 1.137e+04 2.690e-09
 70.84221   -159.4 1.161e+04 3.570e-09
 70.88206   -158.5 1.189e+04 4.515e-09
 70.92187   -157.9 1.215e+04 5.373e-09
 70.96172   -157.6 1.253e+04 6.179e-09
 71.00160   -157.4 1.259e+04 6.259e-09
 71.04145   -156.8 1.259e+04 5.522e-09
 71.08130   -155.8 1.250e+04 4.052e-09
 71.12115   -154.5 1.238e+04 2.929e-09
 71.14159   -153.1 1.234e+04 2.306e-09
 71.16151   -153.2 1.249e+04 2.537e-09
 71.20084   -151.8 1.252e+04 2.360e-09
 71.24069   -150.5 1.254e+04 2.291e-09
 71.28054   -149.4 1.253e+04 2.175e-09
 71.32039   -148.4 1.246e+04 1.890e-09
 71.34139   -147.2 1.235e+04 1.446e-09
 71.36131   -147.6 1.238e+04 2.153e-09
 71.40008   -146.2 1.224e+04 1.435e-09
 71.43993   -144.5 1.223e+04 8.672e-10
 71.47978   -142.7 1.226e+04 5.575e-10
 71.50879   -140.7 1.216e+04 4.405e-10
 71.52872   -139.9 1.227e+04 4.673e-10
 71.54119   -137.8 1.197e+04 4.185e-10
 71.56111   -138.1 1.228e+04 4.513e-10
 71.59932   -135.9 1.218e+04 4.134e-10
 71.63917   -133.5 1.212e+04 4.096e-10
 71.67902   -131.0 1.204e+04 4.244e-10
 71.71887   -128.5 1.201e+04 4.939e-10
 71.74098   -126.0 1.195e+04 5.920e-10
 71.76091   -126.6 1.209e+04 5.596e-10
 71.79856   -124.1 1.204e+04 6.367e-10
 71.83841   -121.6 1.203e+04 6.963e-10
 71.87826   -119.1 1.204e+04 7.237e-10
 71.91810   -116.5 1.206e+04 7.321e-10
 71.94078   -114.0 1.213e+04 7.350e-10
 71.96071   -114.9 1.236e+04 6.658e-10
 71.99780   -112.8 1.243e+04 7.771e-10
 72.03765   -111.1 1.259e+04 1.117e-09
 72.07750   -109.6 1.266e+04 1.932e-09
 72.11734   -108.5 1.279e+04 3.402e-09
 72.14058   -107.7 1.302e+04 5.383e-09
 72.16050   -110.2 1.310e+04 5.520e-09
 72.19704   -110.1 1.334e+04 6.482e-09
 72.23689   -110.3 1.361e+04 6.760e-09
 72.27673   -110.6 1.400e+04 6.947e-09
 72.30652   -111.7 1.434e+04 6.411e-09
 72.32635   -112.0 1.454e+04 7.847e-09
 72.34018   -112.4 1.466e+04 9.383e-09
 72.35014   -113.0 1.458e+04 8.305e-09
 72.36620   -113.4 1.461e+04 9.225e-09
 72.38612   -113.9 1.457e+04 9.448e-09
 72.40604   -114.1 1.429e+04 9.056e-09
 72.42597   -114.3 1.407e+04 7.972e-09
 72.44008   -114.4 1.392e+04 7.007e-09
 72.45004   -115.0 1.390e+04 7.003e-09
 72.46582   -115.0 1.378e+04 6.373e-09
 72.48574   -115.0 1.367e+04 6.005e-09
 72.50566   -115.0 1.359e+04 5.728e-09
 72.52559   -114.9 1.350e+04 5.413e-09
 72.53998   -114.7 1.339e+04 5.005e-09
 72.54994   -115.2 1.333e+04 4.337e-09
 72.56544   -114.9 1.326e+04 3.864e-09
 72.58536   -114.5 1.323e+04 3.502e-09
 72.60528   -114.0 1.321e+04 3.326e-09
 72.63527   -113.6 1.323e+04 3.168e-09
 72.67521   -112.2 1.310e+04 2.865e-09
 72.71506   -110.6 1.291e+04 2.486e-09
 72.73928   -108.9 1.274e+04 2.197e-09
 72.74426   -107.2 1.250e+04 2.122e-09
 72.75990   -107.9 1.244e+04 1.656e-09
 72.79476   -106.0 1.248e+04 1.600e-09
 72.83460   -104.3 1.253e+04 1.576e-09
 72.87445   -102.7 1.261e+04 1.569e-09
 72.91430   -101.4 1.268e+04 1.637e-09
 72.93977   -100.3 1.290e+04 1.831e-09
 72.95969   -100.9 1.294e+04 1.762e-09
 72.99400   -100.2 1.314e+04 2.208e-09
 73.03384    -99.9 1.344e+04 3.040e-09
 73.06363   -100.4 1.356e+04 3.921e-09
 73.08346   -100.6 1.350e+04 4.996e-09
 73.10338   -100.8 1.351e+04 6.043e-09
 73.12331   -101.1 1.351e+04 6.714e-09
 73.13937   -101.5 1.349e+04 7.113e-09
 73.14933   -101.3 1.341e+04 6.157e-09
 73.16315   -101.6 1.336e+04 6.589e-09
 73.18308   -101.9 1.331e+04 6.898e-09
 73.20300   -102.3 1.329e+04 6.992e-09
 73.22292   -102.7 1.327e+04 7.000e-09
 73.23927   -102.9 1.322e+04 6.915e-09
 73.24923   -102.3 1.319e+04 6.621e-09
 73.26277   -102.6 1.319e+04 6.290e-09
 73.28270   -102.8 1.319e+04 6.040e-09
 73.30262   -102.9 1.318e+04 5.898e-09
 73.32254   -102.8 1.316e+04 5.778e-09
 73.33917   -102.7 1.315e+04 5.601e-09
 73.34913   -102.1 1.315e+04 5.396e-09
 73.35432   -101.9 1.314e+04 5.226e-09
 73.36428   -101.1 1.307e+04 5.288e-09
 73.38232   -100.8 1.307e+04 5.244e-09
 73.40224   -100.6 1.305e+04 5.059e-09
 73.42216   -100.3 1.300e+04 4.810e-09
 73.43907   -100.0 1.294e+04 4.577e-09
 73.44903    -99.3 1.298e+04 4.690e-09
 73.46201    -98.9 1.296e+04 4.569e-09
 73.48194    -98.5 1.296e+04 4.527e-09
 73.50186    -98.1 1.298e+04 4.572e-09
 73.52178    -97.8 1.300e+04 4.683e-09
 73.53897    -97.5 1.299e+04 4.785e-09
 73.54893    -97.0 1.314e+04 5.112e-09
 73.56163    -96.9 1.314e+04 5.144e-09
 73.58155    -96.8 1.311e+04 5.192e-09
 73.60148    -96.6 1.313e+04 5.272e-09
 73.62140    -96.5 1.314e+04 5.344e-09
 73.63887    -96.4 1.318e+04 5.386e-09
 73.64883    -96.3 1.323e+04 5.373e-09
 73.66125    -96.2 1.329e+04 5.397e-09
 73.68117    -96.2 1.331e+04 5.358e-09
 73.70110    -96.2 1.336e+04 5.358e-09
 73.72102    -96.2 1.337e+04 5.387e-09
 73.73877    -96.3 1.345e+04 5.464e-09
 73.74873    -96.6 1.345e+04 5.313e-09
 73.76087    -96.8 1.351e+04 5.383e-09
 73.78079    -97.0 1.363e+04 5.513e-09
 73.80072    -97.4 1.376e+04 5.773e-09
 73.82064    -97.8 1.387e+04 6.338e-09
 73.83867    -98.2 1.405e+04 7.324e-09
 73.84863    -99.1 1.420e+04 7.994e-09
 73.86049    -99.4 1.429e+04 9.836e-09
 73.88041    -99.8 1.434e+04 1.164e-08
 73.90034   -100.2 1.437e+04 1.264e-08
 73.92026   -101.0 1.438e+04 1.272e-08
 73.93856   -102.0 1.428e+04 1.208e-08
 73.94853   -103.6 1.456e+04 1.206e-08
 73.95960   -105.1 1.458e+04 1.211e-08
 73.96956   -105.1 1.433e+04 1.083e-08
 73.98003   -106.5 1.451e+04 1.218e-08
 73.99996   -107.7 1.456e+04 1.329e-08
 74.01988   -108.8 1.458e+04 1.435e-08
 74.03846   -109.8 1.459e+04 1.472e-08
 74.04842   -111.3 1.476e+04 1.604e-08
 74.05973   -111.9 1.464e+04 1.459e-08
 74.07965   -112.3 1.451e+04 1.239e-08
 74.09958   -112.6 1.439e+04 9.859e-09
 74.11950   -112.9 1.450e+04 8.958e-09
 74.13836   -113.6 1.511e+04 7.763e-09
 74.14832   -113.4 1.479e+04 7.350e-09
 74.15935   -113.9 1.589e+04 7.438e-09
 74.17927   -115.1 1.712e+04 8.201e-09
 74.19920   -117.3 1.841e+04 1.506e-08
 74.21912   -120.1 1.829e+04 3.204e-08
 74.23826   -123.1 1.781e+04 4.398e-08
 74.24822   -124.0 1.881e+04 1.344e-07
 74.25897   -125.9 1.784e+04 1.406e-07
 74.27889   -127.1 1.741e+04 1.326e-07
 74.29882   -127.7 1.697e+04 1.104e-07
 74.31874   -128.0 1.640e+04 7.978e-08
 74.33816   -128.4 1.571e+04 5.360e-08
 74.34812   -128.6 1.669e+04 9.092e-08
 74.35859   -129.0 1.608e+04 6.419e-08
 74.37851   -129.2 1.567e+04 5.182e-08
 74.39844   -129.2 1.530e+04 4.210e-08
 74.41836   -129.1 1.485e+04 3.104e-08
 74.43806   -128.8 1.432e+04 2.087e-08
 74.44802   -129.3 1.488e+04 3.114e-08
 74.45821   -128.7 1.425e+04 1.989e-08
 74.47813   -128.0 1.370e+04 1.303e-08
 74.49805   -127.4 1.331e+04 9.576e-09
 74.51798   -126.7 1.306e+04 7.942e-09
 74.53806   -125.8 1.281e+04 6.635e-09
 74.55808   -126.0 1.305e+04 7.601e-09
 74.58791   -124.1 1.276e+04 6.509e-09
 74.62776   -121.8 1.249e+04 5.305e-09
 74.66760   -119.8 1.236e+04 4.472e-09
 74.69739   -118.1 1.224e+04 3.902e-09
 74.71722   -117.6 1.217e+04 3.801e-09
 74.73785   -116.0 1.206e+04 3.459e-09
 74.75787   -116.5 1.217e+04 3.479e-09
 74.78715   -114.5 1.206e+04 3.081e-09
 74.82699   -112.7 1.202e+04 2.880e-09
 74.86684   -110.9 1.204e+04 2.830e-09
 74.90669   -109.3 1.248e+04 3.507e-09
 74.93775   -108.4 1.294e+04 5.598e-09
 74.95767   -110.6 1.290e+04 5.446e-09
 74.98639   -110.0 1.336e+04 9.105e-09
 75.01617   -110.1 1.368e+04 1.413e-08
 75.03600   -110.5 1.383e+04 1.970e-08
 75.04741   -110.5 1.412e+04 2.491e-08
 75.05738   -111.2 1.390e+04 1.789e-08
 75.07585   -111.3 1.399e+04 1.823e-08
 75.09577   -111.3 1.411e+04 1.751e-08
 75.11570   -111.1 1.416e+04 1.520e-08
 75.13562   -110.9 1.413e+04 1.287e-08
 75.14731   -110.6 1.404e+04 1.119e-08
 75.15727   -110.6 1.396e+04 9.116e-09
 75.17547   -110.1 1.389e+04 8.457e-09
 75.19008   -109.4 1.383e+04 8.018e-09
 75.20004   -109.7 1.378e+04 8.529e-09
 75.21532   -108.8 1.378e+04 8.140e-09
 75.23524   -107.9 1.379e+04 7.759e-09
 75.24721   -107.0 1.379e+04 7.314e-09
 75.25717   -107.0 1.377e+04 6.203e-09
 75.27509   -106.1 1.373e+04 5.736e-09
 75.29501   -105.0 1.369e+04 5.256e-09
 75.31493   -104.0 1.363e+04 4.764e-09
 75.33486   -102.7 1.357e+04 4.301e-09
 75.34711   -101.3 1.356e+04 3.908e-09
 75.35707   -101.3 1.362e+04 3.304e-09
 75.38477    -99.6 1.368e+04 2.907e-09
 75.42471    -97.3 1.361e+04 2.737e-09
 75.46456    -95.0 1.359e+04 2.660e-09
 75.50441    -92.4 1.364e+04 2.682e-09
 75.53714    -90.1 1.367e+04 2.784e-09
 75.55707    -90.6 1.377e+04 2.869e-09
 75.58410    -88.5 1.391e+04 3.320e-09
 75.62395    -86.6 1.411e+04 4.154e-09
 75.64691    -84.3 1.427e+04 4.652e-09
 75.65677    -84.8 1.430e+04 4.923e-09
 75.67356    -84.2 1.436e+04 5.325e-09
 75.70355    -83.0 1.438e+04 6.150e-09
 75.73694    -80.9 1.444e+04 6.855e-09
 75.75686    -82.1 1.455e+04 6.316e-09
 75.78334    -79.5 1.448e+04 5.540e-09
 75.82319    -77.0 1.454e+04 4.920e-09
 75.86304    -74.9 1.448e+04 4.460e-09
 75.90289    -72.6 1.447e+04 4.226e-09
 75.93267    -70.5 1.448e+04 3.787e-09
 75.94650    -70.2 1.444e+04 3.752e-09
 75.95656    -70.2 1.448e+04 3.443e-09
 75.98258    -67.9 1.455e+04 3.475e-09
 76.01237    -66.0 1.465e+04 3.335e-09
 76.03220    -65.5 1.459e+04 3.227e-09
 76.06218    -63.3 1.476e+04 3.134e-09
 76.10212    -61.2 1.487e+04 2.863e-09
 76.13654    -58.7 1.501e+04 2.305e-09
 76.15646    -58.2 1.506e+04 2.230e-09
 76.18182    -55.9 1.509e+04 2.052e-09
 76.22167    -53.5 1.515e+04 2.023e-09
 76.26152    -51.3 1.515e+04 2.021e-09
 76.30136    -49.1 1.530e+04 1.975e-09
 76.33633    -47.1 1.535e+04 2.049e-09
 76.35626    -47.1 1.537e+04 2.935e-09
 76.38106    -45.4 1.540e+04 2.954e-09
 76.41080    -43.8 1.525e+04 3.141e-09
 76.43062    -43.8 1.532e+04 3.201e-09
 76.46066    -42.9 1.521e+04 3.355e-09
 76.50060    -41.4 1.524e+04 2.876e-09
 76.53613    -39.5 1.503e+04 2.680e-09
 76.55605    -39.8 1.508e+04 2.583e-09
 76.58030    -37.8 1.508e+04 2.422e-09
 76.62015    -35.7 1.489e+04 2.525e-09
 76.65999    -33.8 1.506e+04 2.246e-09
 76.69984    -32.6 1.486e+04 2.564e-09
 76.73593    -31.2 1.451e+04 3.325e-09
 76.75585    -31.4 1.461e+04 4.044e-09
 76.77954    -30.3 1.441e+04 4.363e-09
 76.81938    -29.0 1.442e+04 3.793e-09
 76.85923    -28.0 1.435e+04 3.337e-09
 76.89908    -26.8 1.419e+04 3.196e-09
 76.93573    -25.3 1.409e+04 3.080e-09
 76.95565    -26.1 1.440e+04 3.619e-09
 76.97878    -24.2 1.428e+04 3.240e-09
 77.01862    -22.1 1.427e+04 2.850e-09
 77.05847    -19.8 1.424e+04 2.422e-09
 77.09832    -17.5 1.417e+04 2.061e-09
 77.13552    -15.3 1.417e+04 1.751e-09
 77.15545    -15.7 1.424e+04 2.196e-09
 77.17802    -13.5 1.428e+04 1.910e-09
 77.21786    -11.3 1.438e+04 1.754e-09
 77.25771     -9.0 1.445e+04 1.724e-09
 77.29756     -6.8 1.460e+04 1.734e-09
 77.33532     -4.8 1.478e+04 1.888e-09
 77.35525     -5.4 1.478e+04 2.342e-09
 77.37725     -3.6 1.474e+04 2.726e-09
 77.41710     -2.0 1.474e+04 3.122e-09
 77.45695     -0.7 1.480e+04 3.493e-09
 77.49680      0.2 1.483e+04 4.122e-09
 77.53512      0.9 1.481e+04 4.949e-09
 77.55504     -0.5 1.494e+04 5.920e-09
 77.57649      0.0 1.496e+04 5.482e-09
 77.61634      0.6 1.499e+04 4.658e-09
 77.64128      1.4 1.506e+04 3.675e-09
 77.66120      0.1 1.490e+04 3.535e-09
 77.69604      1.3 1.496e+04 2.927e-09
 77.73492      2.5 1.504e+04 2.599e-09
 77.75484      1.8 1.505e+04 2.592e-09
 77.77573      3.1 1.512e+04 2.622e-09
 77.81558      4.4 1.512e+04 2.752e-09
 77.85543      5.6 1.509e+04 2.888e-09
 77.89528      6.8 1.505e+04 2.868e-09
 77.93472      8.2 1.498e+04 2.721e-09
 77.95464      7.6 1.492e+04 2.666e-09
 77.97497      9.3 1.486e+04 2.234e-09
 78.01482     11.2 1.494e+04 1.813e-09
 78.05467     13.2 1.494e+04 1.606e-09
 78.09451     15.3 1.492e+04 1.610e-09
 78.13436     17.4 1.491e+04 1.674e-09
 78.17421     18.9 1.494e+04 1.832e-09
 78.21406     20.2 1.490e+04 2.159e-09
 78.25391     21.2 1.478e+04 2.920e-09
 78.28369     21.4 1.476e+04 4.644e-09
 78.30352     21.4 1.475e+04 4.943e-09
 78.32344     21.7 1.477e+04 5.952e-09
 78.34337     21.8 1.472e+04 6.764e-09
 78.35404     22.1 1.482e+04 6.946e-09
 78.36400     21.7 1.489e+04 7.582e-09
 78.38322     21.8 1.491e+04 7.556e-09
 78.40314     22.2 1.492e+04 7.008e-09
 78.42306     22.4 1.497e+04 6.394e-09
 78.44299     22.9 1.499e+04 5.365e-09
 78.45394     23.0 1.499e+04 5.028e-09
 78.46390     22.6 1.504e+04 5.464e-09
 78.49290     23.8 1.500e+04 4.117e-09
 78.53284     24.9 1.507e+04 3.358e-09
 78.55403     26.2 1.508e+04 3.359e-09
 78.57396     25.6 1.507e+04 3.871e-09
 78.61254     27.1 1.500e+04 3.956e-09
 78.65238     28.6 1.493e+04 3.897e-09
 78.69223     30.3 1.474e+04 3.618e-09
 78.73208     32.1 1.461e+04 2.994e-09
 78.75383     34.0 1.463e+04 2.341e-09
 78.77375     33.6 1.478e+04 2.578e-09
 78.81178     35.4 1.485e+04 2.161e-09
 78.85162     37.3 1.458e+04 2.116e-09
 78.87176     39.2 1.452e+04 2.138e-09
 78.89169     39.0 1.454e+04 1.992e-09
 78.93132     41.1 1.443e+04 2.048e-09
 78.95363     43.2 1.435e+04 2.096e-09
 78.97355     42.5 1.463e+04 2.350e-09
 79.01101     44.5 1.464e+04 2.244e-09
 79.05086     46.4 1.463e+04 2.113e-09
 79.09071     48.3 1.453e+04 1.993e-09
 79.13056     50.1 1.444e+04 1.893e-09
 79.15343     51.9 1.442e+04 1.859e-09
 79.17335     50.8 1.463e+04 2.050e-09
 79.21025     52.6 1.453e+04 2.259e-09
 79.25010     54.4 1.442e+04 2.570e-09
 79.28995     56.1 1.430e+04 2.940e-09
 79.32980     57.8 1.414e+04 3.348e-09
 79.35322     59.5 1.392e+04 3.765e-09
 79.37315     58.5 1.401e+04 3.859e-09
 79.40949     60.1 1.377e+04 4.167e-09
 79.44934     61.4 1.362e+04 4.359e-09
 79.48919     62.4 1.354e+04 4.476e-09
 79.52904     63.3 1.347e+04 4.472e-09
 79.55302     64.1 1.337e+04 4.289e-09
 79.57295     62.8 1.351e+04 4.665e-09
 79.60873     63.8 1.333e+04 4.199e-09
 79.64858     64.9 1.313e+04 3.701e-09
 79.68843     66.2 1.307e+04 3.074e-09
 79.72827     67.6 1.305e+04 2.417e-09
 79.75282     69.2 1.307e+04 1.911e-09
 79.77274     68.6 1.324e+04 1.702e-09
 79.80797     70.3 1.336e+04 1.494e-09
 79.84782     72.1 1.343e+04 1.453e-09
 79.88767     73.9 1.345e+04 1.456e-09
 79.92751     75.8 1.348e+04 1.495e-09
 79.95262     77.6 1.342e+04 1.562e-09
 79.97254     77.4 1.351e+04 1.554e-09
 80.00721     79.2 1.338e+04 1.588e-09
 80.04706     81.0 1.321e+04 1.614e-09
 80.08232     82.8 1.327e+04 1.633e-09
 80.10224     82.3 1.339e+04 1.884e-09
 80.12675     83.9 1.339e+04 2.373e-09
 80.15242     85.3 1.352e+04 2.982e-09
 80.17234     84.4 1.384e+04 3.679e-09
 80.19639     85.4 1.381e+04 3.706e-09
 80.21622     85.9 1.380e+04 4.015e-09
 80.23614     86.2 1.381e+04 4.412e-09
 80.25212     86.7 1.383e+04 4.720e-09
 80.26208     85.9 1.397e+04 4.771e-09
 80.27599     86.3 1.409e+04 4.985e-09
 80.29591     86.6 1.431e+04 5.246e-09
 80.31583     86.7 1.457e+04 5.584e-09
 80.33576     86.8 1.482e+04 6.046e-09
 80.35202     86.7 1.507e+04 6.677e-09
 80.36198     85.5 1.515e+04 6.811e-09
 80.37561     85.3 1.527e+04 7.711e-09
 80.39553     85.0 1.534e+04 8.904e-09
 80.41545     84.6 1.539e+04 1.061e-08
 80.43538     84.0 1.542e+04 1.330e-08
 80.45192     83.3 1.539e+04 1.765e-08
 80.46188     82.5 1.511e+04 1.643e-08
 80.47523     81.9 1.497e+04 1.873e-08
 80.49515     81.0 1.496e+04 1.873e-08
 80.51507     80.0 1.487e+04 1.835e-08
 80.53500     79.3 1.464e+04 1.681e-08
 80.55182     78.7 1.439e+04 1.406e-08
 80.56178     78.7 1.432e+04 1.092e-08
 80.57485     78.6 1.425e+04 8.922e-09
 80.59477     78.5 1.429e+04 7.198e-09
 80.61469     78.2 1.433e+04 6.127e-09
 80.63462     78.1 1.429e+04 5.945e-09
 80.65171     78.1 1.428e+04 6.008e-09
 80.66168     78.4 1.429e+04 6.031e-09
 80.67446     78.4 1.428e+04 6.751e-09
 80.69439     78.4 1.436e+04 8.263e-09
 80.70733     78.3 1.444e+04 1.075e-08
 80.71729     78.4 1.439e+04 1.036e-08
 80.73424     78.4 1.444e+04 1.105e-08
 80.75171     78.4 1.441e+04 1.371e-08
 80.77173     79.5 1.477e+04 1.634e-08
 80.79411     79.1 1.490e+04 1.961e-08
 80.81393     78.6 1.499e+04 2.098e-08
 80.83386     78.0 1.504e+04 2.181e-08
 80.85151     77.4 1.504e+04 2.050e-08
 80.86147     77.6 1.521e+04 2.257e-08
 80.88376     76.5 1.508e+04 1.650e-08
 80.92371     75.5 1.510e+04 1.101e-08
 80.95161     75.5 1.516e+04 8.105e-09
 80.97153     75.5 1.524e+04 8.895e-09
 81.00340     75.5 1.523e+04 8.803e-09
 81.04325     75.9 1.527e+04 9.035e-09
 81.08310     76.9 1.522e+04 9.751e-09
 81.11289     76.2 1.562e+04 1.165e-08
 81.13271     75.4 1.597e+04 1.471e-08
 81.15121     74.5 1.615e+04 2.029e-08
 81.16117     73.8 1.616e+04 2.344e-08
 81.17256     72.9 1.622e+04 3.105e-08
 81.19249     72.1 1.620e+04 3.486e-08
 81.21241     71.2 1.614e+04 3.336e-08
 81.23233     70.8 1.588e+04 2.564e-08
 81.25111     70.4 1.562e+04 2.044e-08
 81.26107     69.8 1.555e+04 1.861e-08
 81.28224     71.1 1.534e+04 1.412e-08
 81.31280     72.3 1.527e+04 8.178e-09
 81.33273     71.0 1.527e+04 4.768e-09
 81.35120     73.3 1.522e+04 3.983e-09
 81.37113     73.2 1.541e+04 3.056e-09
 81.40188     75.1 1.547e+04 3.049e-09
 81.44173     77.1 1.552e+04 3.071e-09
 81.48158     79.3 1.553e+04 3.239e-09
 81.51137     80.2 1.545e+04 3.310e-09
 81.53119     80.8 1.540e+04 3.379e-09
 81.55080     82.0 1.531e+04 3.721e-09
 81.56077     81.9 1.530e+04 3.490e-09
 81.57104     83.0 1.529e+04 4.049e-09
 81.59096     83.8 1.530e+04 4.874e-09
 81.61089     84.6 1.524e+04 5.946e-09
 81.63081     85.2 1.520e+04 7.187e-09
 81.65070     85.9 1.532e+04 8.093e-09
 81.67063     86.0 1.565e+04 8.439e-09
 81.69058     86.4 1.573e+04 8.259e-09
 81.71051     86.9 1.570e+04 8.164e-09
 81.73043     87.3 1.554e+04 8.329e-09
 81.75036     88.4 1.535e+04 9.565e-09
 81.76056     88.8 1.531e+04 1.011e-08
 81.77062     88.5 1.534e+04 1.017e-08
 81.79030     89.6 1.532e+04 1.045e-08
 81.81013     89.9 1.535e+04 1.122e-08
 81.83005     89.8 1.543e+04 1.306e-08
 81.84998     89.4 1.554e+04 1.512e-08
 81.86046     89.0 1.556e+04 1.564e-08
 81.87043     88.6 1.553e+04 1.589e-08
 81.88982     88.5 1.550e+04 1.558e-08
 81.90975     88.6 1.544e+04 1.397e-08
 81.92785     88.7 1.536e+04 1.157e-08
 81.93781     89.6 1.526e+04 1.192e-08
 81.94959     89.8 1.522e+04 9.959e-09
 81.96036     90.2 1.501e+04 9.197e-09
 81.97032     90.0 1.499e+04 9.298e-09
 81.98944     90.5 1.498e+04 9.379e-09
 82.00937     90.9 1.498e+04 9.992e-09
 82.02929     91.1 1.501e+04 1.224e-08
 82.04921     91.1 1.504e+04 1.653e-08
 82.06026     91.1 1.511e+04 2.240e-08
 82.07022     91.1 1.509e+04 2.131e-08
 82.08906     91.0 1.525e+04 2.337e-08
 82.10899     90.6 1.527e+04 2.311e-08
 82.12891     90.4 1.525e+04 2.121e-08
 82.14883     90.5 1.521e+04 1.683e-08
 82.16016     90.8 1.519e+04 1.185e-08
 82.17012     91.4 1.515e+04 1.047e-08
 82.18868     91.7 1.524e+04 7.249e-09
 82.20861     91.5 1.545e+04 5.026e-09
 82.23859     91.5 1.553e+04 3.803e-09
 82.27853     92.7 1.550e+04 3.001e-09
 82.31838     94.4 1.561e+04 2.814e-09
 82.35019     96.3 1.569e+04 2.789e-09
 82.37012     97.7 1.552e+04 2.495e-09
 82.39808     99.6 1.572e+04 2.536e-09
 82.43793    101.2 1.585e+04 2.798e-09
 82.47777    102.6 1.571e+04 3.155e-09
 82.50756    104.2 1.553e+04 3.528e-09
 82.52739    105.4 1.538e+04 4.431e-09
 82.54309    106.5 1.540e+04 5.872e-09
 82.55305    106.6 1.534e+04 5.975e-09
 82.55976    107.6 1.543e+04 7.315e-09
 82.56972    108.1 1.538e+04 6.376e-09
 82.58716    108.9 1.552e+04 7.729e-09
 82.60708    109.1 1.564e+04 8.771e-09
 82.62701    109.2 1.567e+04 9.847e-09
 82.64693    109.3 1.563e+04 1.097e-08
 82.65965    109.3 1.554e+04 1.198e-08
 82.66962    109.7 1.557e+04 1.390e-08
 82.68678    109.6 1.553e+04 1.506e-08
 82.70670    109.6 1.549e+04 1.503e-08
 82.72663    109.7 1.545e+04 1.452e-08
 82.74655    109.8 1.542e+04 1.329e-08
 82.75955    109.9 1.537e+04 1.178e-08
 82.76952    110.1 1.538e+04 1.217e-08
 82.78640    110.3 1.530e+04 1.079e-08
 82.80632    110.5 1.524e+04 1.058e-08
 82.82625    110.7 1.523e+04 1.065e-08
 82.84617    111.0 1.523e+04 1.129e-08
 82.85945    111.2 1.526e+04 1.254e-08
 82.86941    111.5 1.522e+04 1.183e-08
 82.88602    111.7 1.528e+04 1.255e-08
 82.90594    111.7 1.530e+04 1.247e-08
 82.92587    111.5 1.535e+04 1.190e-08
 82.94579    110.9 1.536e+04 9.993e-09
 82.95935    110.4 1.530e+04 8.938e-09
 82.96941    111.3 1.530e+04 8.370e-09
 82.99580    112.1 1.505e+04 5.859e-09
 83.03564    113.4 1.488e+04 3.937e-09
 83.07549    114.7 1.472e+04 3.538e-09
 83.11534    116.0 1.469e+04 3.573e-09
 83.14938    117.2 1.463e+04 3.718e-09
 83.16931    118.8 1.480e+04 3.783e-09
 83.19503    119.6 1.477e+04 3.901e-09
 83.23488    120.5 1.475e+04 3.869e-09
 83.27473    121.6 1.468e+04 3.750e-09
 83.31458    123.0 1.461e+04 3.629e-09
 83.34918    124.7 1.460e+04 3.634e-09
 83.36910    125.9 1.476e+04 3.917e-09
 83.39427    127.7 1.474e+04 4.164e-09
 83.43412    129.8 1.479e+04 4.798e-09
 83.47397    131.9 1.485e+04 5.765e-09
 83.51382    133.9 1.495e+04 6.969e-09
 83.54898    135.6 1.512e+04 7.814e-09
 83.56890    136.4 1.524e+04 8.258e-09
 83.59351    137.7 1.525e+04 8.324e-09
 83.63336    139.1 1.522e+04 8.034e-09
 83.67321    140.7 1.516e+04 7.111e-09
 83.71306    142.6 1.510e+04 5.932e-09
 83.74878    144.5 1.506e+04 4.933e-09
 83.76870    145.5 1.501e+04 5.081e-09
 83.77377    147.5 1.504e+04 4.301e-09
 83.79369    146.8 1.518e+04 2.294e-09
 83.83260    148.4 1.530e+04 2.068e-09
 83.87245    149.9 1.538e+04 1.945e-09
 83.91229    151.2 1.521e+04 1.973e-09
 83.94857    152.6 1.514e+04 2.009e-09
 83.96850    153.3 1.495e+04 2.362e-09
 83.99199    154.8 1.484e+04 2.504e-09
 84.03184    156.6 1.485e+04 2.775e-09
 84.07169    158.4 1.491e+04 3.227e-09
 84.10147    158.3 1.482e+04 4.037e-09
 84.12130    158.5 1.471e+04 5.011e-09
 84.14122    158.8 1.464e+04 5.987e-09
 84.15814    159.2 1.465e+04 6.717e-09
 84.16810    159.1 1.464e+04 6.996e-09
 84.18107    159.4 1.469e+04 7.226e-09
 84.20100    159.7 1.475e+04 7.324e-09
 84.22092    159.7 1.479e+04 7.425e-09
 84.24084    159.5 1.482e+04 7.547e-09
 84.27083    159.8 1.466e+04 7.636e-09
 84.31077    160.5 1.456e+04 7.827e-09
 84.34817    160.5 1.452e+04 7.986e-09
 84.36809    161.4 1.440e+04 8.319e-09
 84.39047    161.3 1.447e+04 8.389e-09
 84.43032    160.8 1.450e+04 8.232e-09
 84.47016    159.9 1.454e+04 7.777e-09
 84.51001    159.0 1.445e+04 7.105e-09
 84.54797    158.3 1.418e+04 6.450e-09
 84.56789    159.4 1.408e+04 6.726e-09
 84.58971    159.4 1.379e+04 6.013e-09
 84.62956    159.7 1.355e+04 5.316e-09
 84.66940    160.3 1.334e+04 4.669e-09
 84.70925    161.3 1.316e+04 4.174e-09
 84.74777    162.5 1.298e+04 3.828e-09
 84.76769    163.5 1.292e+04 2.963e-09
 84.78895    164.9 1.272e+04 2.664e-09
 84.82879    166.5 1.249e+04 2.510e-09
 84.86864    168.2 1.232e+04 2.480e-09
 84.90849    170.0 1.229e+04 2.486e-09
 84.94756    171.7 1.221e+04 2.647e-09
 84.96749    173.0 1.213e+04 2.290e-09
 84.98432    174.5 1.212e+04 2.968e-09
 85.00425    175.5 1.204e+04 2.948e-09
 85.02803    177.3 1.215e+04 3.768e-09
 85.06788    177.8 1.228e+04 4.943e-09
 85.10773    178.0 1.244e+04 6.566e-09
 85.14736    177.7 1.265e+04 8.573e-09
 85.16719    177.4 1.264e+04 8.481e-09
 85.18733    177.6 1.269e+04 9.008e-09
 85.22727    177.0 1.251e+04 8.204e-09
 85.26712    177.2 1.215e+04 6.384e-09
 85.30697    178.0 1.181e+04 5.021e-09
 85.34682    179.4 1.163e+04 4.461e-09
 85.36699    180.0 1.165e+04 4.543e-09
 85.37685    180.3 1.165e+04 4.557e-09
 85.39643    181.1 1.167e+04 4.710e-09
 85.41635    181.8 1.172e+04 5.068e-09
 85.43628    182.5 1.183e+04 5.687e-09
 85.45620    183.2 1.198e+04 6.661e-09
 85.46679    183.7 1.215e+04 7.940e-09
 85.47675    183.9 1.225e+04 8.479e-09
 85.49605    184.3 1.249e+04 1.070e-08
 85.51597    184.4 1.275e+04 1.348e-08
 85.53590    184.4 1.300e+04 1.673e-08
 85.55582    184.4 1.325e+04 2.014e-08
 85.56669    184.1 1.348e+04 2.294e-08
 85.57665    183.8 1.380e+04 2.653e-08
 85.59567    183.1 1.392e+04 2.678e-08
 85.60933    182.2 1.390e+04 2.627e-08
 85.61929    182.4 1.403e+04 2.982e-08
 85.63552    181.5 1.398e+04 2.874e-08
 85.65544    180.7 1.377e+04 2.497e-08
 85.66658    179.9 1.343e+04 1.971e-08
 85.67655    179.5 1.301e+04 1.461e-08
 85.69529    178.9 1.259e+04 1.035e-08
 85.71521    178.3 1.222e+04 7.461e-09
 85.73514    177.9 1.192e+04 5.638e-09
 85.75506    177.6 1.169e+04 4.540e-09
 85.76648    177.5 1.154e+04 3.885e-09
 85.77644    176.9 1.148e+04 3.007e-09
 85.79491    176.7 1.146e+04 2.837e-09
 85.81483    176.8 1.145e+04 2.857e-09
 85.83476    177.0 1.146e+04 2.920e-09
 85.86474    177.3 1.147e+04 2.895e-09
 85.90469    178.3 1.147e+04 3.212e-09
 85.94453    179.7 1.140e+04 3.434e-09
 85.96648    180.8 1.141e+04 3.653e-09
 85.98640    181.2 1.136e+04 3.196e-09
 86.02423    182.6 1.150e+04 3.345e-09
 86.06408    184.1 1.172e+04 3.651e-09
 86.10392    184.5 1.204e+04 4.204e-09
 86.13371    184.0 1.225e+04 4.532e-09
 86.15354    183.2 1.251e+04 5.105e-09
 86.16608    181.6 1.299e+04 7.450e-09
 86.17604    181.6 1.300e+04 7.424e-09
 86.19339    179.3 1.396e+04 1.710e-08
 86.21331    176.6 1.512e+04 3.964e-08
 86.22457    173.5 1.611e+04 6.951e-08
 86.23453    173.7 1.560e+04 5.537e-08
 86.25316    170.1 1.620e+04 6.759e-08
 86.26598    166.4 1.618e+04 6.536e-08
 86.27594    166.0 1.636e+04 6.953e-08
 86.29301    163.1 1.584e+04 4.827e-08
 86.31293    161.0 1.500e+04 2.473e-08
 86.33285    158.8 1.403e+04 1.163e-08
 86.35278    156.7 1.382e+04 8.625e-09
 86.36588    155.2 1.378e+04 8.549e-09
 86.37584    154.6 1.378e+04 8.502e-09
 86.39263    153.2 1.380e+04 8.558e-09
 86.41255    151.7 1.391e+04 8.690e-09
 86.43247    150.0 1.402e+04 8.778e-09
 86.45240    148.2 1.399e+04 8.735e-09
 86.46578    146.5 1.387e+04 8.532e-09
 86.47574    145.8 1.380e+04 7.701e-09
 86.49224    144.7 1.355e+04 6.812e-09
 86.51217    144.3 1.334e+04 5.881e-09
 86.53209    144.2 1.324e+04 4.854e-09
 86.55202    144.1 1.323e+04 3.817e-09
 86.56567    144.1 1.321e+04 2.924e-09
 86.58570    143.9 1.323e+04 2.620e-09
 86.62195    145.4 1.308e+04 2.074e-09
 86.66179    147.2 1.298e+04 1.956e-09
 86.70164    148.7 1.301e+04 1.979e-09
 86.74149    149.9 1.310e+04 2.048e-09
 86.76567    151.0 1.316e+04 2.119e-09
 86.78559    151.4 1.322e+04 2.349e-09
 86.82118    152.8 1.320e+04 2.276e-09
 86.86103    153.8 1.325e+04 2.251e-09
 86.90088    155.0 1.336e+04 2.359e-09
 86.93067    155.2 1.351e+04 2.826e-09
 86.95049    155.3 1.355e+04 3.086e-09
 86.96527    155.7 1.365e+04 3.744e-09
 86.98529    155.9 1.369e+04 4.299e-09
 87.02042    156.5 1.385e+04 5.637e-09
 87.06027    157.0 1.404e+04 7.328e-09
 87.10012    156.9 1.427e+04 8.888e-09
 87.13997    157.0 1.441e+04 9.251e-09
 87.16526    157.5 1.441e+04 9.227e-09
 87.18519    157.5 1.430e+04 8.035e-09
 87.21966    158.3 1.431e+04 8.226e-09
 87.25951    158.9 1.428e+04 8.463e-09
 87.29936    159.3 1.420e+04 8.308e-09
 87.33921    159.6 1.408e+04 7.711e-09
 87.36506    160.0 1.395e+04 6.756e-09
 87.38498    160.8 1.401e+04 5.742e-09
 87.41890    161.3 1.393e+04 4.989e-09
 87.44529    161.9 1.388e+04 4.317e-09
 87.46521    162.7 1.379e+04 3.213e-09
 87.49860    163.6 1.373e+04 3.329e-09
 87.53845    164.3 1.371e+04 3.423e-09
 87.56486    165.0 1.370e+04 3.354e-09
 87.58478    165.4 1.376e+04 3.294e-09
 87.61814    166.1 1.370e+04 3.067e-09
 87.65799    167.0 1.363e+04 2.723e-09
 87.69784    168.1 1.357e+04 2.407e-09
 87.73768    169.4 1.349e+04 2.234e-09
 87.76466    170.8 1.339e+04 2.177e-09
 87.78458    171.0 1.338e+04 1.917e-09
 87.81738    172.3 1.326e+04 1.813e-09
 87.85723    173.6 1.315e+04 1.690e-09
 87.89708    174.8 1.304e+04 1.511e-09
 87.93692    176.2 1.294e+04 1.282e-09
 87.96445    177.9 1.289e+04 1.039e-09
 87.98438    178.3 1.297e+04 9.333e-10
 88.01662    180.0 1.294e+04 7.715e-10
 88.05647    181.6 1.291e+04 6.511e-10
 88.09631    183.3 1.280e+04 6.019e-10
 88.13616    185.1 1.276e+04 5.980e-10
 88.16425    187.0 1.275e+04 6.002e-10
 88.18418    187.3 1.277e+04 5.987e-10
 88.21586    189.1 1.272e+04 6.259e-10
 88.25571    190.8 1.268e+04 6.948e-10
 88.29555    192.5 1.264e+04 8.055e-10
 88.33540    194.0 1.259e+04 9.677e-10
 88.36405    195.3 1.251e+04 1.196e-09
 88.38397    195.8 1.251e+04 1.307e-09
 88.41510    196.8 1.242e+04 1.656e-09
 88.45494    197.0 1.236e+04 1.957e-09
 88.49479    196.9 1.230e+04 2.152e-09
 88.53464    196.6 1.235e+04 2.301e-09
 88.56385    196.2 1.255e+04 2.610e-09
 88.58377    196.1 1.302e+04 3.994e-09
 88.60428    195.8 1.297e+04 3.734e-09
 88.62410    195.1 1.297e+04 3.878e-09
 88.64403    194.0 1.290e+04 4.425e-09
 88.66355    193.0 1.274e+04 5.038e-09
 88.67351    192.2 1.271e+04 5.598e-09
 88.67557    191.8 1.263e+04 5.795e-09
 88.68554    192.5 1.256e+04 5.792e-09
 88.70380    192.2 1.252e+04 6.254e-09
 88.72372    191.9 1.250e+04 6.622e-09
 88.74365    191.4 1.250e+04 7.015e-09
 88.76345    190.8 1.251e+04 7.602e-09
 88.77341    190.3 1.255e+04 8.251e-09
 88.78349    189.5 1.264e+04 9.808e-09
 88.80342    188.6 1.277e+04 1.192e-08
 88.82334    187.7 1.288e+04 1.397e-08
 88.84327    186.8 1.288e+04 1.500e-08
 88.86319    185.9 1.286e+04 1.489e-08
 88.87331    185.2 1.273e+04 1.416e-08
 88.88327    184.8 1.281e+04 1.459e-08
 88.90304    184.3 1.249e+04 1.259e-08
 88.92296    184.0 1.228e+04 1.135e-08
 88.94289    183.7 1.229e+04 1.130e-08
 88.96281    183.4 1.236e+04 1.184e-08
 88.97321    182.9 1.262e+04 1.417e-08
 88.98317    182.4 1.277e+04 1.513e-08
 89.00266    182.1 1.317e+04 2.041e-08
 89.02258    181.8 1.357e+04 2.725e-08
 89.04250    181.6 1.389e+04 3.388e-08
 89.06243    181.3 1.415e+04 3.796e-08
 89.07311    180.8 1.435e+04 3.964e-08
 89.08307    180.3 1.419e+04 3.654e-08
 89.10228    179.4 1.430e+04 3.660e-08
 89.12220    178.2 1.438e+04 3.546e-08
 89.14212    176.7 1.437e+04 3.263e-08
 89.16205    175.0 1.423e+04 2.874e-08
 89.17301    173.4 1.393e+04 2.412e-08
 89.18297    173.5 1.380e+04 2.322e-08
 89.20190    172.3 1.343e+04 1.935e-08
 89.22182    171.4 1.298e+04 1.567e-08
 89.24174    170.8 1.253e+04 1.267e-08
 89.26167    170.4 1.220e+04 1.061e-08
 89.27291    169.9 1.211e+04 9.354e-09
 89.28213    170.3 1.227e+04 9.710e-09
 89.29081    170.5 1.226e+04 9.705e-09
 89.30152    169.9 1.229e+04 8.949e-09
 89.32144    169.3 1.239e+04 8.517e-09
 89.34136    168.6 1.242e+04 8.424e-09
 89.36129    167.7 1.247e+04 8.435e-09
 89.37281    166.6 1.254e+04 8.373e-09
 89.38277    167.0 1.249e+04 7.588e-09
 89.40114    165.7 1.247e+04 7.402e-09
 89.42106    164.2 1.246e+04 7.271e-09
 89.44098    162.3 1.248e+04 7.242e-09
 89.46091    159.8 1.256e+04 7.462e-09
 89.47270    156.5 1.281e+04 8.456e-09
 89.48267    156.8 1.298e+04 9.184e-09
 89.50075    152.7 1.350e+04 1.276e-08
 89.52068    148.4 1.387e+04 1.588e-08
 89.54060    144.4 1.392e+04 1.606e-08
 89.56053    140.8 1.380e+04 1.498e-08
 89.57260    138.1 1.341e+04 1.146e-08
 89.58257    138.1 1.360e+04 1.265e-08
 89.60037    135.8 1.298e+04 7.808e-09
 89.62030    133.8 1.235e+04 5.168e-09
 89.64022    132.5 1.203e+04 4.761e-09
 89.66015    132.0 1.200e+04 4.751e-09
 89.67250    132.0 1.199e+04 4.766e-09
 89.68246    132.1 1.203e+04 4.914e-09
 89.69999    132.2 1.196e+04 4.906e-09
 89.72998    132.8 1.187e+04 4.758e-09
 89.76263    133.8 1.189e+04 4.934e-09
 89.78256    134.6 1.204e+04 5.568e-09
 89.80977    135.4 1.224e+04 6.270e-09
 89.84962    135.4 1.238e+04 6.587e-09
 89.88633    135.1 1.251e+04 6.686e-09
 89.90625    136.2 1.279e+04 8.671e-09
 89.92931    135.3 1.273e+04 7.482e-09
 89.96243    133.8 1.266e+04 6.087e-09
 89.98236    133.4 1.299e+04 6.946e-09
 90.00901    132.5 1.276e+04 5.053e-09
 90.04886    132.3 1.269e+04 3.858e-09
 90.08871    132.5 1.262e+04 3.151e-09
 90.12855    133.4 1.260e+04 2.946e-09
 90.16223    134.8 1.263e+04 2.924e-09
 90.18215    135.2 1.247e+04 2.580e-09
 90.20825    137.0 1.250e+04 2.596e-09
 90.24810    138.8 1.260e+04 2.601e-09
 90.28794    140.5 1.270e+04 2.538e-09
 90.32779    141.9 1.279e+04 2.377e-09
 90.36203    143.4 1.281e+04 2.135e-09
 90.38195    144.7 1.281e+04 2.089e-09
 90.40749    146.2 1.285e+04 1.829e-09
 90.44734    147.7 1.284e+04 1.596e-09
 90.48718    149.3 1.275e+04 1.496e-09
 90.52703    151.1 1.273e+04 1.507e-09
 90.56183    152.8 1.271e+04 1.543e-09
 90.58175    154.4 1.288e+04 1.342e-09
 90.60673    156.1 1.291e+04 1.444e-09
 90.64657    157.6 1.297e+04 1.640e-09
 90.68642    158.7 1.305e+04 1.914e-09
 90.72627    159.2 1.316e+04 2.262e-09
 90.76162    159.4 1.325e+04 2.625e-09
 90.78155    161.0 1.338e+04 2.750e-09
 90.80597    160.7 1.357e+04 3.312e-09
 90.84581    159.3 1.391e+04 4.376e-09
 90.88566    157.1 1.429e+04 6.430e-09
 90.92551    154.3 1.471e+04 9.766e-09
 90.96142    151.3 1.517e+04 1.262e-08
 90.98135    150.8 1.540e+04 1.424e-08
 91.00520    146.8 1.538e+04 1.360e-08
 91.04505    143.6 1.509e+04 1.098e-08
 91.08490    142.3 1.466e+04 7.592e-09
 91.11681    142.1 1.410e+04 5.937e-09
 91.13673    143.1 1.429e+04 5.175e-09
 91.16122    143.1 1.378e+04 3.975e-09
 91.18114    143.0 1.388e+04 4.303e-09
 91.20444    144.3 1.396e+04 4.598e-09
 91.23423    144.4 1.408e+04 5.197e-09
 91.25406    144.0 1.433e+04 7.200e-09
 91.27088    143.4 1.457e+04 1.164e-08
 91.28085    142.7 1.471e+04 1.601e-08
 91.29391    142.5 1.492e+04 2.472e-08
 91.31383    142.3 1.517e+04 3.490e-08
 91.33375    142.2 1.544e+04 4.498e-08
 91.35368    142.0 1.572e+04 5.384e-08
 91.37078    141.5 1.588e+04 5.829e-08
 91.38075    140.9 1.566e+04 4.885e-08
 91.39353    140.4 1.569e+04 4.751e-08
 91.41345    139.7 1.566e+04 4.252e-08
 91.43337    138.9 1.547e+04 3.486e-08
 91.45330    138.0 1.513e+04 2.663e-08
 91.47068    137.2 1.470e+04 1.957e-08
 91.48064    136.7 1.447e+04 1.671e-08
 91.49314    136.0 1.412e+04 1.328e-08
 91.51307    135.5 1.386e+04 1.092e-08
 91.53299    135.1 1.366e+04 9.669e-09
 91.55292    134.8 1.350e+04 9.228e-09
 91.57058    134.5 1.343e+04 9.235e-09
 91.58054    133.9 1.342e+04 9.155e-09
 91.59276    133.5 1.336e+04 9.159e-09
 91.61269    133.1 1.327e+04 9.125e-09
 91.63261    132.8 1.313e+04 9.016e-09
 91.65254    132.6 1.300e+04 8.756e-09
 91.67048    132.4 1.288e+04 8.478e-09
 91.68044    131.8 1.282e+04 8.321e-09
 91.69238    131.6 1.272e+04 8.053e-09
 91.71231    131.3 1.264e+04 7.914e-09
 91.73185    130.9 1.258e+04 7.800e-09
 91.74182    131.0 1.273e+04 9.285e-09
 91.75216    130.6 1.263e+04 8.945e-09
 91.77038    130.3 1.251e+04 8.441e-09
 91.78034    129.9 1.234e+04 7.089e-09
 91.79200    129.8 1.218e+04 6.170e-09
 91.81193    129.8 1.202e+04 5.294e-09
 91.83185    129.7 1.186e+04 4.568e-09
 91.85178    129.8 1.170e+04 4.051e-09
 91.87028    129.9 1.156e+04 3.751e-09
 91.88024    130.0 1.135e+04 2.884e-09
 91.89162    130.5 1.123e+04 2.909e-09
 91.91155    131.1 1.119e+04 2.987e-09
 91.93147    131.9 1.114e+04 3.154e-09
 91.95139    132.6 1.116e+04 3.346e-09
 91.97018    133.3 1.129e+04 3.685e-09
 91.98014    134.0 1.128e+04 3.477e-09
 91.99124    134.6 1.150e+04 4.214e-09
 92.01117    134.8 1.173e+04 5.327e-09
 92.03109    134.9 1.204e+04 7.054e-09
 92.05101    134.9 1.245e+04 9.842e-09
 92.07008    134.4 1.293e+04 1.393e-08
 92.08004    135.4 1.296e+04 1.388e-08
 92.09086    134.6 1.344e+04 1.919e-08
 92.11079    133.2 1.390e+04 2.581e-08
 92.13071    131.6 1.436e+04 3.303e-08
 92.15063    129.5 1.475e+04 3.969e-08
 92.16998    127.2 1.501e+04 4.456e-08
 92.17994    127.2 1.560e+04 5.682e-08
 92.19048    124.6 1.585e+04 6.480e-08
 92.21041    122.3 1.592e+04 6.593e-08
 92.23033    120.2 1.586e+04 6.384e-08
 92.25025    118.5 1.562e+04 5.743e-08
 92.26987    117.3 1.519e+04 4.904e-08
 92.27984    116.3 1.562e+04 5.655e-08
 92.29010    115.7 1.496e+04 4.504e-08
 92.31003    115.4 1.477e+04 4.251e-08
 92.32995    115.1 1.488e+04 4.423e-08
 92.34710    114.5 1.535e+04 5.405e-08
 92.35706    115.5 1.475e+04 4.062e-08
 92.36977    114.8 1.563e+04 6.066e-08
 92.38970    113.2 1.569e+04 6.812e-08
 92.40964    111.9 1.673e+04 1.095e-07
 92.42454    110.8 1.744e+04 1.536e-07
 92.42959    109.9 1.777e+04 1.812e-07
 92.43457    109.8 1.732e+04 1.483e-07
 92.44441    108.0 1.782e+04 1.696e-07
 92.45438    107.3 1.786e+04 1.726e-07
 92.46937    104.5 1.839e+04 1.844e-07
 92.47963    100.1 1.862e+04 1.571e-07
 92.48457    100.8 1.830e+04 1.494e-07
 92.49422     98.9 1.833e+04 1.433e-07
 92.50419     96.3 1.847e+04 1.455e-07
 92.51415     92.6 1.891e+04 1.604e-07
 92.52411     88.2 1.939e+04 2.099e-07
 92.52949     83.9 1.965e+04 3.010e-07
 92.53447     84.2 1.957e+04 3.560e-07
 92.54403     80.6 1.970e+04 4.563e-07
 92.55400     77.1 1.977e+04 4.525e-07
 92.56396     74.0 1.964e+04 3.732e-07
 92.57392     71.4 1.922e+04 2.385e-07
 92.57948     66.6 1.832e+04 9.436e-08
 92.58949     67.4 1.870e+04 9.283e-08
 92.60888     59.8 1.639e+04 1.894e-08
 92.62881     51.6 1.093e+04 8.798e-09
 92.64873     49.5 1.011e+04 7.844e-09
 92.66866     49.6 9.926e+03 7.427e-09
 92.67943     49.9 9.802e+03 6.895e-09
 92.68939     49.9 9.702e+03 6.646e-09
 92.70850     50.3 9.501e+03 5.632e-09
 92.72843     50.5 9.298e+03 4.719e-09
 92.74835     50.6 9.151e+03 4.107e-09
 92.76827     50.6 9.110e+03 3.968e-09
 92.77933     50.7 9.115e+03 3.981e-09
 92.78929     50.6 9.021e+03 3.722e-09
 92.80812     50.6 9.040e+03 3.811e-09
 92.82805     50.4 9.120e+03 4.109e-09
 92.84797     50.1 9.287e+03 4.671e-09
 92.86789     49.4 9.568e+03 5.635e-09
 92.87923     48.7 9.822e+03 6.766e-09
 92.88919     48.6 9.731e+03 6.410e-09
 92.90774     47.6 9.986e+03 7.148e-09
 92.92767     47.1 1.004e+04 7.244e-09
 92.95765     45.9 1.012e+04 7.300e-09
 92.97932     43.9 1.038e+04 7.002e-09
 92.98919     44.1 1.067e+04 7.929e-09
 93.00736     42.4 1.085e+04 8.510e-09
 93.02729     41.5 1.105e+04 9.111e-09
 93.04721     39.9 1.137e+04 1.047e-08
 93.06713     38.6 1.161e+04 1.195e-08
 93.07903     37.5 1.179e+04 1.321e-08
 93.08899     37.0 1.228e+04 1.612e-08
 93.10698     36.4 1.207e+04 1.467e-08
 93.12691     36.0 1.191e+04 1.351e-08
 93.15689     36.7 1.138e+04 1.075e-08
 93.17912     37.3 1.079e+04 8.431e-09
 93.19905     36.6 1.054e+04 7.368e-09
 93.23668     37.8 9.922e+03 5.312e-09
 93.27653     39.3 9.659e+03 4.399e-09
 93.31638     41.3 9.682e+03 4.367e-09
 93.34617     42.8 9.761e+03 4.476e-09
 93.36599     43.0 9.780e+03 4.503e-09
 93.37872     44.0 9.859e+03 4.753e-09
 93.38869     44.2 9.890e+03 4.810e-09
 93.40584     44.6 9.962e+03 5.058e-09
 93.42576     45.1 1.014e+04 5.557e-09
 93.44569     45.4 1.024e+04 5.882e-09
 93.46561     45.8 1.043e+04 6.244e-09
 93.47862     46.0 1.054e+04 6.482e-09
 93.48858     45.9 1.054e+04 6.509e-09
 93.50546     46.2 1.059e+04 6.471e-09
 93.52538     46.3 1.060e+04 6.466e-09
 93.54531     46.6 1.060e+04 6.192e-09
 93.56523     46.7 1.060e+04 6.095e-09
 93.57758     47.0 1.059e+04 5.687e-09
 93.58100     46.4 1.066e+04 5.480e-09
 93.59864     46.1 1.065e+04 5.087e-09
 93.63516     46.7 1.056e+04 4.340e-09
 93.67501     47.5 1.064e+04 4.191e-09
 93.71486     48.4 1.076e+04 4.355e-09
 93.75470     49.3 1.123e+04 5.133e-09
 93.77842     49.8 1.153e+04 5.865e-09
 93.78828     49.0 1.162e+04 5.991e-09
 93.80432     49.2 1.184e+04 6.843e-09
 93.82424     49.5 1.204e+04 7.935e-09
 93.84417     49.8 1.210e+04 8.987e-09
 93.86409     50.3 1.201e+04 8.780e-09
 93.87822     50.9 1.189e+04 8.062e-09
 93.88818     50.2 1.169e+04 5.976e-09
 93.90394     50.7 1.156e+04 5.147e-09
 93.92386     51.2 1.146e+04 4.464e-09
 93.94379     51.1 1.153e+04 4.271e-09
 93.96371     49.9 1.192e+04 4.757e-09
 93.97812     44.9 1.359e+04 7.883e-09
 93.98808     41.2 1.390e+04 1.113e-08
 94.00356     35.7 1.542e+04 2.804e-08
 94.01845     32.5 1.634e+04 5.085e-08
 94.02797     29.7 1.701e+04 8.486e-08
 94.03295     28.9 1.705e+04 8.489e-08
 94.03833     25.7 1.716e+04 8.254e-08
 94.04829     22.3 1.702e+04 6.442e-08
 94.05825     16.8 1.646e+04 3.518e-08
 94.06821     15.2 1.589e+04 2.979e-08
 94.07797      8.7 1.477e+04 1.791e-08
 94.08798      8.2 1.414e+04 1.309e-08
 94.10318      1.6 1.222e+04 9.699e-09
 94.12310     -1.4 1.194e+04 9.392e-09
 94.14302     -3.0 1.199e+04 9.276e-09
 94.16295     -4.4 1.207e+04 8.940e-09
 94.17792     -6.0 1.226e+04 8.333e-09
 94.18786     -5.2 1.214e+04 7.706e-09
 94.20278     -5.8 1.201e+04 7.101e-09
 94.22272     -7.6 1.228e+04 7.186e-09
 94.24264     -9.4 1.243e+04 7.674e-09
 94.26257    -10.9 1.250e+04 8.830e-09
 94.27781    -12.3 1.270e+04 1.078e-08
 94.28778    -11.7 1.269e+04 1.044e-08
 94.30242    -13.0 1.288e+04 1.193e-08
 94.32234    -14.2 1.287e+04 1.155e-08
 94.35232    -15.3 1.257e+04 7.432e-09
 94.37791    -16.8 1.223e+04 4.634e-09
 94.39783    -16.5 1.240e+04 5.711e-09
 94.42206    -17.4 1.222e+04 5.168e-09
 94.44188    -17.9 1.207e+04 4.972e-09
 94.46181    -18.0 1.198e+04 4.693e-09
 94.47761    -18.1 1.197e+04 4.475e-09
 94.48757    -18.1 1.203e+04 4.370e-09
 94.50165    -18.1 1.199e+04 4.005e-09
 94.52158    -18.1 1.201e+04 3.637e-09
 94.54150    -18.1 1.205e+04 3.118e-09
 94.56143    -18.5 1.213e+04 2.812e-09
 94.57761    -18.1 1.199e+04 2.574e-09
 94.59763    -18.3 1.178e+04 2.354e-09
 94.63136    -17.6 1.143e+04 1.852e-09
 94.67120    -16.8 1.118e+04 1.443e-09
 94.71105    -15.6 1.105e+04 1.139e-09
 94.75090    -14.4 1.099e+04 9.293e-10
 94.77750    -13.2 1.104e+04 7.892e-10
 94.79501    -13.1 1.103e+04 7.322e-10
 94.80825    -13.2 1.098e+04 7.492e-10
 94.83059    -11.9 1.091e+04 6.697e-10
 94.87044    -10.5 1.076e+04 6.674e-10
 94.91029     -9.1 1.076e+04 6.880e-10
 94.95014     -7.9 1.075e+04 8.124e-10
 94.97730     -6.8 1.079e+04 1.061e-09
 94.99723     -6.9 1.076e+04 1.127e-09
 95.02983     -6.1 1.081e+04 1.608e-09
 95.06968     -5.6 1.098e+04 2.246e-09
 95.09947     -5.8 1.112e+04 2.857e-09
 95.11930     -6.1 1.112e+04 3.337e-09
 95.13922     -6.7 1.128e+04 4.244e-09
 95.15914     -7.0 1.135e+04 5.414e-09
 95.17690     -7.5 1.162e+04 6.996e-09
 95.18687     -7.7 1.160e+04 6.938e-09
 95.19899     -8.4 1.188e+04 8.773e-09
 95.21892     -9.1 1.212e+04 1.066e-08
 95.23884    -10.1 1.241e+04 1.253e-08
 95.25876    -11.3 1.266e+04 1.361e-08
 95.27680    -12.7 1.262e+04 1.337e-08
 95.28677    -12.5 1.248e+04 1.253e-08
 95.29861    -13.2 1.227e+04 1.149e-08
 95.31853    -13.6 1.191e+04 8.717e-09
 95.33846    -13.9 1.159e+04 5.864e-09
 95.35838    -15.1 1.145e+04 3.919e-09
 95.37670    -16.2 1.106e+04 2.545e-09
 95.38666    -15.6 1.116e+04 2.793e-09
 95.39823    -16.3 1.096e+04 2.448e-09
 95.42821    -16.6 1.082e+04 2.339e-09
 95.46816    -17.5 1.047e+04 1.775e-09
 95.50801    -18.0 1.025e+04 1.585e-09
 95.54785    -18.0 1.010e+04 1.505e-09
 95.57670    -17.4 9.959e+03 1.341e-09
 95.59662    -16.9 1.001e+04 1.287e-09
 95.62755    -16.1 9.916e+03 1.047e-09
 95.66740    -15.1 9.805e+03 9.714e-10
 95.70725    -14.0 9.799e+03 9.935e-10
 95.74709    -12.8 9.797e+03 1.095e-09
 95.77649    -11.6 9.809e+03 1.252e-09
 95.79642    -11.1 9.856e+03 1.194e-09
 95.82679     -9.9 9.884e+03 1.343e-09
 95.86664     -8.8 9.930e+03 1.496e-09
 95.90649     -7.8 9.994e+03 1.641e-09
 95.94633     -6.7 1.004e+04 1.680e-09
 95.97629     -5.7 1.005e+04 1.637e-09
 95.99621     -5.0 1.004e+04 1.473e-09
 96.01881     -3.8 1.009e+04 1.273e-09
 96.03874     -3.1 9.977e+03 1.231e-09
 96.06588     -1.8 9.994e+03 1.058e-09
 96.10572     -0.4 1.003e+04 1.056e-09
 96.14557      1.0 1.014e+04 1.219e-09
 96.17609      2.4 1.042e+04 1.767e-09
 96.19601      3.2 1.038e+04 1.504e-09
 96.22527      4.4 1.076e+04 2.266e-09
 96.26512      4.8 1.104e+04 2.916e-09
 96.28585      4.4 1.123e+04 3.382e-09
 96.29572      4.7 1.120e+04 3.344e-09
 96.31473      4.6 1.127e+04 3.319e-09
 96.33465      4.5 1.131e+04 3.188e-09
 96.35458      4.3 1.139e+04 3.005e-09
 96.37450      4.0 1.148e+04 2.912e-09
 96.38565      3.7 1.157e+04 2.910e-09
 96.39562      3.5 1.159e+04 2.911e-09
 96.41435      2.7 1.186e+04 2.957e-09
 96.43427      2.0 1.208e+04 3.245e-09
 96.45420      1.2 1.224e+04 3.762e-09
 96.47412      0.2 1.244e+04 4.791e-09
 96.48555     -0.8 1.258e+04 7.084e-09
 96.49551     -1.4 1.264e+04 8.391e-09
 96.51397     -2.0 1.275e+04 1.148e-08
 96.53389     -2.3 1.305e+04 1.458e-08
 96.55382     -3.3 1.380e+04 1.968e-08
 96.56871     -4.8 1.457e+04 2.476e-08
 96.57862     -5.0 1.470e+04 2.575e-08
 96.58535     -6.4 1.548e+04 3.365e-08
 96.59033     -6.5 1.538e+04 3.164e-08
 96.59855     -8.5 1.667e+04 4.680e-08
 96.60851    -10.6 1.816e+04 8.281e-08
 96.61847    -12.1 1.890e+04 1.597e-07
 96.62843    -13.3 1.922e+04 3.102e-07
 96.63530    -15.1 1.913e+04 6.567e-07
 96.64028    -15.2 1.909e+04 6.153e-07
 96.64372    -17.2 1.867e+04 1.157e-06
 96.64870    -17.9 1.878e+04 8.077e-07
 96.65832    -19.6 1.841e+04 1.225e-06
 96.66828    -20.8 1.838e+04 1.249e-06
 96.67824    -22.0 1.859e+04 9.970e-07
 96.68525    -21.8 1.870e+04 5.597e-07
 96.69023    -21.7 1.875e+04 4.687e-07
 96.69817    -23.8 1.919e+04 2.898e-07
 96.71316    -23.8 1.795e+04 1.255e-07
 96.73313    -24.6 1.656e+04 5.306e-08
 96.75306    -25.7 1.509e+04 2.974e-08
 96.77298    -25.5 1.414e+04 2.013e-08
 96.78525    -24.6 1.353e+04 1.585e-08
 96.79521    -24.1 1.336e+04 1.464e-08
 96.81283    -22.9 1.303e+04 1.213e-08
 96.83275    -21.8 1.272e+04 1.020e-08
 96.85268    -20.6 1.253e+04 9.074e-09
 96.87260    -19.7 1.241e+04 8.431e-09
 96.88515    -18.6 1.221e+04 7.788e-09
 96.89511    -18.2 1.217e+04 7.899e-09
 96.91245    -17.1 1.203e+04 7.399e-09
 96.93237    -16.0 1.195e+04 6.893e-09
 96.95229    -15.1 1.182e+04 6.260e-09
 96.97222    -14.0 1.169e+04 5.682e-09
 96.98505    -13.1 1.164e+04 5.168e-09
 96.99501    -12.8 1.158e+04 4.868e-09
 97.01207    -12.0 1.151e+04 4.322e-09
 97.03199    -11.2 1.142e+04 4.007e-09
 97.05191    -10.4 1.137e+04 3.915e-09
 97.07184     -9.6 1.133e+04 3.871e-09
 97.08495     -8.8 1.130e+04 3.840e-09
 97.09491     -8.5 1.134e+04 3.384e-09
 97.11169     -7.8 1.130e+04 3.420e-09
 97.13161     -7.2 1.121e+04 3.581e-09
 97.15153     -6.5 1.116e+04 3.834e-09
 97.17146     -5.8 1.112e+04 4.143e-09
 97.18484     -5.1 1.107e+04 4.407e-09
 97.19481     -4.7 1.107e+04 4.402e-09
 97.21131     -3.8 1.107e+04 4.589e-09
 97.23123     -3.0 1.107e+04 4.736e-09
 97.24910     -2.3 1.107e+04 4.909e-09
 97.25906     -1.9 1.104e+04 4.912e-09
 97.27108     -1.2 1.107e+04 5.204e-09
 97.28474     -0.5 1.118e+04 5.663e-09
 97.29471     -0.2 1.128e+04 5.900e-09
 97.31093     -0.1 1.163e+04 6.532e-09
 97.33085     -0.6 1.224e+04 8.900e-09
 97.35077     -1.3 1.283e+04 1.399e-08
 97.37070     -2.4 1.372e+04 2.297e-08
 97.38464     -6.6 1.606e+04 5.945e-08
 97.39460     -5.9 1.601e+04 5.934e-08
 97.40551    -14.8 1.911e+04 1.650e-07
 97.41543    -15.9 1.832e+04 1.922e-07
 97.42539    -21.3 1.860e+04 1.876e-07
 97.43449    -22.6 1.811e+04 1.713e-07
 97.43948    -22.8 1.814e+04 1.794e-07
 97.45034    -27.3 1.791e+04 7.175e-08
 97.47032    -38.7 1.477e+04 1.498e-08
 97.48454    -45.5 1.125e+04 7.184e-09
 97.49450    -46.0 1.099e+04 6.022e-09
 97.51016    -46.7 1.063e+04 5.193e-09
 97.53009    -46.1 1.055e+04 5.252e-09
 97.55001    -45.9 1.075e+04 4.553e-09
 97.56994    -45.5 1.047e+04 5.122e-09
 97.58444    -45.1 1.067e+04 4.976e-09
 97.59440    -45.1 1.063e+04 4.373e-09
 97.60978    -45.0 1.060e+04 5.046e-09
 97.62971    -44.9 1.074e+04 5.654e-09
 97.64963    -44.8 1.094e+04 6.252e-09
 97.66956    -44.6 1.097e+04 6.883e-09
 97.68434    -44.4 1.091e+04 7.122e-09
 97.69430    -44.0 1.080e+04 6.460e-09
 97.70940    -43.7 1.079e+04 5.965e-09
 97.72933    -43.5 1.077e+04 5.326e-09
 97.74925    -43.8 1.085e+04 4.754e-09
 97.76917    -44.4 1.092e+04 4.172e-09
 97.78424    -44.8 1.055e+04 4.112e-09
 97.79420    -44.5 1.054e+04 3.832e-09
 97.80902    -44.6 1.064e+04 3.513e-09
 97.82895    -45.4 1.083e+04 3.210e-09
 97.84887    -46.1 1.058e+04 3.549e-09
 97.86434    -46.5 1.058e+04 3.613e-09
 97.87430    -46.7 1.047e+04 3.086e-09
 97.88414    -46.5 1.028e+04 4.004e-09
 97.89410    -46.0 1.032e+04 3.797e-09
 97.90864    -45.4 1.055e+04 3.979e-09
 97.92857    -45.3 1.067e+04 4.023e-09
 97.94849    -45.5 1.090e+04 3.881e-09
 97.96841    -46.4 1.129e+04 4.043e-09
 97.98404    -47.9 1.153e+04 4.839e-09
 97.99400    -47.8 1.167e+04 5.011e-09
 98.00826    -48.7 1.164e+04 7.368e-09
 98.02819    -48.9 1.197e+04 9.005e-09
 98.04811    -49.7 1.230e+04 9.769e-09
 98.06803    -50.9 1.263e+04 9.133e-09
 98.08393    -53.1 1.258e+04 7.723e-09
 98.09390    -52.6 1.258e+04 7.685e-09
 98.10788    -53.9 1.219e+04 7.127e-09
 98.12781    -54.9 1.186e+04 6.437e-09
 98.14773    -55.7 1.161e+04 5.870e-09
 98.16765    -56.6 1.150e+04 5.181e-09
 98.18383    -57.6 1.142e+04 4.778e-09
 98.19380    -57.0 1.139e+04 4.709e-09
 98.20750    -57.9 1.142e+04 4.715e-09
 98.22742    -59.4 1.156e+04 4.741e-09
 98.24735    -61.3 1.161e+04 5.713e-09
 98.26727    -62.7 1.142e+04 7.628e-09
 98.28373    -63.0 1.135e+04 9.475e-09
 98.29369    -62.2 1.141e+04 9.360e-09
 98.30712    -62.3 1.147e+04 9.879e-09
 98.32704    -62.6 1.134e+04 8.826e-09
 98.34697    -63.7 1.088e+04 5.927e-09
 98.37377    -64.7 1.052e+04 4.343e-09
 98.39379    -63.4 1.071e+04 5.259e-09
 98.41690    -64.0 1.040e+04 3.621e-09
 98.45674    -64.7 1.017e+04 2.714e-09
 98.47978    -65.0 1.002e+04 2.522e-09
 98.49970    -66.6 9.851e+03 2.252e-09
 98.53644    -67.1 1.001e+04 2.484e-09
 98.57366    -68.4 1.044e+04 3.118e-09
 98.59359    -68.2 1.092e+04 4.604e-09
 98.61614    -70.9 1.144e+04 6.176e-09
 98.65598    -74.0 1.184e+04 9.089e-09
 98.69583    -76.9 1.205e+04 1.042e-08
 98.73568    -79.5 1.170e+04 7.923e-09
 98.77346    -81.5 1.097e+04 4.567e-09
 98.79338    -80.3 1.130e+04 6.054e-09
 98.81538    -81.3 1.092e+04 4.251e-09
 98.85522    -82.0 1.071e+04 2.800e-09
 98.89507    -82.6 1.041e+04 1.912e-09
 98.93492    -83.0 1.018e+04 1.686e-09
 98.97326    -83.1 1.019e+04 1.864e-09
 98.99318    -81.7 1.054e+04 2.048e-09
 99.01461    -81.7 1.047e+04 2.345e-09
 99.05446    -81.5 1.048e+04 2.801e-09
 99.09431    -81.0 1.052e+04 3.016e-09
 99.13416    -80.5 1.053e+04 2.961e-09
 99.17306    -80.0 1.053e+04 2.462e-09
 99.19298    -78.6 1.069e+04 3.208e-09
 99.21385    -78.2 1.071e+04 3.070e-09
 99.25370    -78.0 1.090e+04 3.307e-09
 99.29355    -78.3 1.132e+04 4.399e-09
 99.33340    -79.5 1.171e+04 6.039e-09
 99.36318    -80.1 1.233e+04 8.467e-09
 99.38262    -81.6 1.302e+04 1.368e-08
 99.39258    -81.1 1.337e+04 1.614e-08
 99.40293    -82.1 1.421e+04 2.891e-08
 99.42286    -82.5 1.513e+04 4.792e-08
 99.44278    -82.9 1.586e+04 6.232e-08
 99.46271    -83.8 1.611e+04 6.506e-08
 99.48252    -84.8 1.620e+04 5.388e-08
 99.49248    -84.2 1.667e+04 7.855e-08
 99.50255    -85.3 1.641e+04 5.755e-08
 99.52248    -86.3 1.581e+04 4.210e-08
 99.54240    -86.7 1.507e+04 3.380e-08
 99.56233    -86.7 1.453e+04 2.872e-08
 99.58225    -86.4 1.401e+04 2.408e-08
 99.59238    -86.1 1.357e+04 1.995e-08
 99.60234    -85.4 1.402e+04 2.808e-08
 99.62210    -85.0 1.374e+04 2.299e-08
 99.64202    -84.7 1.342e+04 1.890e-08
 99.66195    -84.2 1.314e+04 1.624e-08
 99.68187    -83.6 1.304e+04 1.484e-08
 99.69228    -83.0 1.302e+04 1.455e-08
 99.70055    -82.7 1.327e+04 1.627e-08
 99.71006    -80.9 1.315e+04 1.751e-08
 99.72172    -80.6 1.359e+04 1.842e-08
 99.74164    -86.9 1.928e+04 2.893e-08
 99.75654    -92.3 1.985e+04 8.937e-08
 99.76645    -93.5 1.950e+04 1.531e-07
 99.77641    -96.4 1.961e+04 2.316e-07
 99.78637   -100.6 2.010e+04 3.220e-07
 99.79208   -107.2 2.027e+04 3.448e-07
 99.79706   -108.1 2.048e+04 3.288e-07
 99.80630   -114.0 2.009e+04 2.546e-07
 99.81626   -118.4 1.887e+04 1.635e-07
 99.82622   -120.4 1.733e+04 1.272e-07
 99.83618   -121.0 1.643e+04 1.044e-07
 99.84203   -121.2 1.592e+04 8.057e-08
 99.84701   -121.4 1.595e+04 8.608e-08
 99.85611   -121.4 1.555e+04 6.717e-08
 99.86607   -121.5 1.513e+04 5.327e-08
 99.88106   -122.0 1.460e+04 4.167e-08
 99.89208   -121.5 1.391e+04 2.979e-08
 99.90204   -121.7 1.416e+04 3.597e-08
 99.92096   -121.1 1.331e+04 2.318e-08
 99.94088   -121.0 1.268e+04 1.635e-08
 99.96080   -121.0 1.228e+04 1.346e-08
 99.98073   -120.5 1.195e+04 1.180e-08
 99.99198   -120.0 1.166e+04 1.022e-08
100.00194   -120.1 1.170e+04 1.097e-08
