# Columns:
#   distance along LOS (in CHIMPs)
#   peculiar velocity  (in km/s)
#   temperature (K)
#   HI number density
# pos=(13.8435,57.573,135.97), angles=(0.107555,2.71953)
  0.00257    169.3 1.157e+04 2.737e-09
  0.01487    169.7 1.165e+04 2.925e-09
  0.03442    170.1 1.173e+04 3.211e-09
  0.05406    170.4 1.182e+04 3.647e-09
  0.07371    170.7 1.191e+04 4.217e-09
  0.09335    171.0 1.203e+04 4.955e-09
  0.11300    171.2 1.220e+04 5.977e-09
  0.13264    171.3 1.243e+04 7.503e-09
  0.14593    171.3 1.274e+04 9.854e-09
  0.15575    170.6 1.314e+04 1.379e-08
  0.17193    170.6 1.352e+04 1.853e-08
  0.18333    170.8 1.382e+04 2.302e-08
  0.19315    170.9 1.373e+04 2.216e-08
  0.21122    171.1 1.398e+04 2.598e-08
  0.23087    171.2 1.405e+04 2.695e-08
  0.25051    171.4 1.401e+04 2.615e-08
  0.27016    171.8 1.386e+04 2.373e-08
  0.28980    172.3 1.367e+04 2.065e-08
  0.30945    173.1 1.351e+04 1.774e-08
  0.32909    174.0 1.338e+04 1.568e-08
  0.34388    175.0 1.347e+04 1.455e-08
  0.35370    174.8 1.304e+04 1.253e-08
  0.36838    176.1 1.304e+04 1.327e-08
  0.38803    177.4 1.312e+04 1.465e-08
  0.40767    178.7 1.325e+04 1.664e-08
  0.42732    179.9 1.342e+04 1.914e-08
  0.44696    181.1 1.359e+04 2.204e-08
  0.46661    182.3 1.378e+04 2.527e-08
  0.48625    183.5 1.397e+04 2.885e-08
  0.50589    184.8 1.416e+04 3.277e-08
  0.52554    186.2 1.437e+04 3.697e-08
  0.54183    187.5 1.458e+04 4.110e-08
  0.55165    187.7 1.464e+04 4.053e-08
  0.56483    189.0 1.488e+04 4.413e-08
  0.58447    190.3 1.506e+04 4.712e-08
  0.60412    191.5 1.522e+04 5.019e-08
  0.62150    193.1 1.545e+04 5.538e-08
  0.63132    192.6 1.490e+04 3.296e-08
  0.64341    193.9 1.538e+04 3.731e-08
  0.66305    194.9 1.601e+04 4.395e-08
  0.68270    195.5 1.659e+04 4.958e-08
  0.70234    195.5 1.681e+04 4.984e-08
  0.72199    195.3 1.684e+04 4.759e-08
  0.73977    194.8 1.658e+04 3.959e-08
  0.74959    195.4 1.761e+04 4.011e-08
  0.76128    194.3 1.687e+04 2.901e-08
  0.78092    192.8 1.589e+04 2.142e-08
  0.80057    191.4 1.623e+04 1.747e-08
  0.81525    191.2 1.564e+04 1.697e-08
  0.82502    190.9 1.608e+04 1.705e-08
  0.83485    190.1 1.847e+04 1.701e-08
  0.84356    188.9 2.276e+04 1.771e-08
  0.84847    184.5 2.604e+04 6.376e-08
  0.85031    183.4 2.425e+04 1.294e-07
  0.85522    186.5 2.574e+04 2.303e-08
  0.86431    184.8 2.576e+04 4.031e-08
  0.87414    183.4 2.437e+04 7.557e-08
  0.88396    182.5 2.255e+04 1.416e-07
  0.89378    181.9 2.098e+04 2.579e-07
  0.90360    181.9 1.980e+04 4.728e-07
  0.91343    182.1 1.900e+04 8.760e-07
  0.92325    182.4 1.837e+04 1.657e-06
  0.93307    182.7 1.795e+04 2.976e-06
  0.94253    182.6 1.731e+04 5.676e-06
  0.94744    179.7 1.894e+04 1.753e-06
  0.95272    177.3 1.964e+04 1.131e-06
  0.96254    174.2 1.986e+04 6.092e-07
  0.97236    170.7 1.958e+04 3.222e-07
  0.98218    167.2 1.887e+04 1.874e-07
  0.99200    164.6 1.783e+04 1.251e-07
  1.00183    163.3 1.679e+04 9.785e-08
  1.01661    163.4 1.598e+04 7.532e-08
  1.03630    163.5 1.523e+04 5.207e-08
  1.05595    163.5 1.454e+04 3.170e-08
  1.06949    163.3 1.390e+04 2.023e-08
  1.07932    162.8 1.393e+04 1.779e-08
  1.09524    162.7 1.329e+04 1.321e-08
  1.11488    163.2 1.290e+04 1.196e-08
  1.13453    164.5 1.273e+04 1.164e-08
  1.14549    166.2 1.266e+04 1.151e-08
  1.15531    166.2 1.272e+04 1.163e-08
  1.17382    167.7 1.273e+04 1.162e-08
  1.19346    169.1 1.273e+04 1.165e-08
  1.21311    170.5 1.274e+04 1.171e-08
  1.23275    171.8 1.274e+04 1.171e-08
  1.25240    173.1 1.274e+04 1.165e-08
  1.27204    174.4 1.270e+04 1.143e-08
  1.29169    175.7 1.263e+04 1.100e-08
  1.31133    177.0 1.253e+04 1.036e-08
  1.33097    178.3 1.243e+04 9.636e-09
  1.34344    179.6 1.233e+04 8.896e-09
  1.35326    179.5 1.230e+04 8.583e-09
  1.37026    180.7 1.225e+04 7.962e-09
  1.38991    181.9 1.219e+04 7.353e-09
  1.40955    183.1 1.216e+04 6.721e-09
  1.42920    184.2 1.215e+04 6.088e-09
  1.44884    185.2 1.214e+04 5.518e-09
  1.47841    186.5 1.210e+04 4.475e-09
  1.50786    188.4 1.206e+04 3.621e-09
  1.52741    188.8 1.218e+04 4.286e-09
  1.55699    190.5 1.220e+04 4.254e-09
  1.59637    192.3 1.222e+04 3.490e-09
  1.63566    194.0 1.239e+04 3.181e-09
  1.67495    195.4 1.240e+04 3.174e-09
  1.71424    195.9 1.237e+04 3.162e-09
  1.73952    196.0 1.221e+04 3.062e-09
  1.75917    195.1 1.228e+04 3.651e-09
  1.79282    194.8 1.211e+04 3.476e-09
  1.83211    193.8 1.192e+04 3.120e-09
  1.87140    192.7 1.168e+04 2.585e-09
  1.91069    191.8 1.141e+04 2.067e-09
  1.94998    191.6 1.129e+04 1.896e-09
  1.98927    191.5 1.141e+04 1.988e-09
  2.01864    190.7 1.164e+04 2.330e-09
  2.03819    189.7 1.187e+04 3.323e-09
  2.05783    188.7 1.208e+04 5.573e-09
  2.07748    187.9 1.237e+04 9.292e-09
  2.09712    187.2 1.275e+04 1.394e-08
  2.11677    186.4 1.311e+04 1.818e-08
  2.13522    185.4 1.329e+04 1.820e-08
  2.14505    184.0 1.314e+04 1.442e-08
  2.15605    182.5 1.318e+04 1.196e-08
  2.17570    180.5 1.306e+04 9.328e-09
  2.19534    178.4 1.271e+04 7.486e-09
  2.22491    176.5 1.226e+04 6.522e-09
  2.26430    175.3 1.195e+04 6.443e-09
  2.30359    174.4 1.174e+04 6.257e-09
  2.34288    173.6 1.148e+04 5.535e-09
  2.38217    172.9 1.125e+04 4.289e-09
  2.40384    172.8 1.112e+04 3.237e-09
  2.42349    173.0 1.111e+04 3.017e-09
  2.46074    173.0 1.114e+04 2.555e-09
  2.50003    173.7 1.116e+04 2.554e-09
  2.53131    174.8 1.122e+04 2.682e-09
  2.55096    174.7 1.129e+04 2.586e-09
  2.57861    175.7 1.137e+04 2.856e-09
  2.61790    176.6 1.146e+04 3.039e-09
  2.65719    177.6 1.148e+04 3.070e-09
  2.69648    178.8 1.147e+04 3.028e-09
  2.73577    180.3 1.142e+04 2.987e-09
  2.77506    182.1 1.139e+04 2.998e-09
  2.81435    184.0 1.139e+04 3.075e-09
  2.85364    185.7 1.148e+04 3.194e-09
  2.89293    187.4 1.159e+04 3.333e-09
  2.92721    189.1 1.162e+04 3.357e-09
  2.94685    189.4 1.179e+04 3.522e-09
  2.97151    191.0 1.183e+04 3.521e-09
  3.01080    192.6 1.183e+04 3.442e-09
  3.05009    194.1 1.180e+04 3.241e-09
  3.08938    195.6 1.179e+04 2.999e-09
  3.12867    197.2 1.182e+04 2.800e-09
  3.16796    198.9 1.183e+04 2.759e-09
  3.20725    200.6 1.187e+04 2.779e-09
  3.24653    201.4 1.190e+04 2.845e-09
  3.27590    202.6 1.200e+04 3.018e-09
  3.28981    203.3 1.209e+04 3.176e-09
  3.29963    203.4 1.208e+04 3.176e-09
  3.31510    203.9 1.216e+04 3.328e-09
  3.33273    204.4 1.223e+04 3.512e-09
  3.34255    204.5 1.234e+04 3.991e-09
  3.35439    204.8 1.244e+04 4.457e-09
  3.37403    205.1 1.255e+04 5.038e-09
  3.39368    205.3 1.265e+04 5.718e-09
  3.41332    205.3 1.275e+04 6.434e-09
  3.43296    205.4 1.284e+04 7.108e-09
  3.45261    205.4 1.291e+04 7.756e-09
  3.47225    205.5 1.296e+04 8.371e-09
  3.49190    205.5 1.300e+04 9.013e-09
  3.51154    205.5 1.301e+04 9.767e-09
  3.53067    205.5 1.303e+04 1.075e-08
  3.54050    205.2 1.301e+04 1.080e-08
  3.55083    205.2 1.295e+04 1.180e-08
  3.57048    205.1 1.292e+04 1.184e-08
  3.59012    205.0 1.286e+04 1.169e-08
  3.60977    204.9 1.271e+04 1.107e-08
  3.62941    204.8 1.252e+04 9.676e-09
  3.64906    204.7 1.230e+04 7.819e-09
  3.66870    204.5 1.209e+04 5.945e-09
  3.68835    204.2 1.194e+04 4.438e-09
  3.70799    203.8 1.185e+04 3.423e-09
  3.72764    203.4 1.177e+04 2.936e-09
  3.73780    203.1 1.169e+04 2.760e-09
  3.73879    203.1 1.174e+04 3.208e-09
  3.74827    203.3 1.167e+04 3.027e-09
  3.76693    203.3 1.165e+04 3.033e-09
  3.78657    203.5 1.162e+04 3.048e-09
  3.80622    203.7 1.158e+04 3.057e-09
  3.82586    204.1 1.154e+04 3.063e-09
  3.84550    204.6 1.153e+04 3.068e-09
  3.86515    205.1 1.152e+04 3.092e-09
  3.88479    205.5 1.152e+04 3.162e-09
  3.90444    206.0 1.154e+04 3.293e-09
  3.92408    206.4 1.156e+04 3.498e-09
  3.93639    206.8 1.160e+04 3.787e-09
  3.94621    207.2 1.162e+04 3.816e-09
  3.96337    207.6 1.171e+04 4.249e-09
  3.98302    207.9 1.183e+04 4.815e-09
  4.00266    208.0 1.197e+04 5.548e-09
  4.02231    208.0 1.213e+04 6.500e-09
  4.04195    207.9 1.231e+04 7.714e-09
  4.06160    207.6 1.248e+04 9.046e-09
  4.08124    207.1 1.264e+04 1.048e-08
  4.11081    206.1 1.248e+04 8.789e-09
  4.13453    204.9 1.241e+04 9.556e-09
  4.15418    206.5 1.263e+04 1.167e-08
  4.17617    205.4 1.244e+04 1.074e-08
  4.19581    204.6 1.302e+04 1.396e-08
  4.22877    204.3 1.274e+04 1.189e-08
  4.26806    204.3 1.235e+04 9.541e-09
  4.30735    204.8 1.192e+04 7.009e-09
  4.34664    205.9 1.154e+04 4.840e-09
  4.38593    207.6 1.123e+04 3.302e-09
  4.42522    209.5 1.103e+04 2.354e-09
  4.46451    211.6 1.094e+04 1.808e-09
  4.50380    213.7 1.092e+04 1.481e-09
  4.53043    215.8 1.092e+04 1.255e-09
  4.55007    215.5 1.096e+04 1.284e-09
  4.58238    217.5 1.093e+04 1.128e-09
  4.62167    219.7 1.079e+04 1.030e-09
  4.66096    221.9 1.055e+04 1.018e-09
  4.70025    224.2 1.052e+04 1.022e-09
  4.73954    226.6 1.048e+04 1.036e-09
  4.77883    229.0 1.042e+04 1.070e-09
  4.81812    231.4 1.036e+04 1.110e-09
  4.85741    233.8 1.029e+04 1.144e-09
  4.89670    236.3 1.021e+04 1.164e-09
  4.92632    238.7 1.013e+04 1.175e-09
  4.94597    238.0 1.007e+04 1.090e-09
  4.97527    240.4 9.962e+03 1.033e-09
  5.01456    242.8 9.885e+03 1.024e-09
  5.05251    245.1 9.873e+03 1.031e-09
  5.07216    245.4 1.000e+04 1.315e-09
  5.09314    247.5 9.986e+03 1.365e-09
  5.13243    249.6 9.956e+03 1.432e-09
  5.17172    251.6 9.929e+03 1.528e-09
  5.21101    253.6 9.937e+03 1.674e-09
  5.25030    255.4 9.991e+03 1.894e-09
  5.28959    256.8 1.006e+04 2.192e-09
  5.32221    257.6 1.007e+04 2.507e-09
  5.34186    258.1 9.971e+03 2.487e-09
  5.36817    258.8 9.970e+03 2.814e-09
  5.39754    260.9 1.008e+04 3.499e-09
  5.41709    262.3 1.033e+04 4.511e-09
  5.43673    263.1 1.064e+04 5.786e-09
  5.45638    263.5 1.093e+04 7.142e-09
  5.47602    263.7 1.117e+04 8.507e-09
  5.49567    263.8 1.137e+04 9.792e-09
  5.51013    263.9 1.152e+04 1.048e-08
  5.51995    263.7 1.133e+04 9.615e-09
  5.52979    263.8 1.134e+04 9.638e-09
  5.53961    263.8 1.132e+04 9.664e-09
  5.55460    263.9 1.131e+04 9.623e-09
  5.57424    264.0 1.126e+04 9.404e-09
  5.59389    264.2 1.117e+04 8.922e-09
  5.61353    264.4 1.103e+04 8.288e-09
  5.63318    264.7 1.086e+04 7.604e-09
  5.65282    265.2 1.070e+04 6.837e-09
  5.67247    265.6 1.053e+04 6.049e-09
  5.69211    266.2 1.038e+04 5.302e-09
  5.71176    266.7 1.025e+04 4.623e-09
  5.72774    267.1 1.011e+04 4.029e-09
  5.73756    266.6 9.986e+03 3.339e-09
  5.75105    266.8 9.826e+03 2.965e-09
  5.77069    267.1 9.590e+03 2.853e-09
  5.79034    267.5 9.478e+03 2.858e-09
  5.80998    268.1 9.464e+03 2.866e-09
  5.82963    268.9 9.442e+03 2.955e-09
  5.84927    269.7 9.458e+03 3.233e-09
  5.86892    270.3 9.558e+03 3.696e-09
  5.88856    270.7 9.692e+03 4.305e-09
  5.90821    270.7 9.809e+03 5.031e-09
  5.92568    270.7 9.969e+03 6.027e-09
  5.93551    270.7 1.005e+04 6.054e-09
  5.94749    270.1 1.076e+04 8.732e-09
  5.95812    268.6 1.204e+04 1.470e-08
  5.96795    269.8 1.177e+04 1.333e-08
  5.98678    267.8 1.322e+04 2.325e-08
  6.00643    265.2 1.458e+04 3.922e-08
  6.02607    261.9 1.557e+04 5.281e-08
  6.04572    257.9 1.582e+04 5.373e-08
  6.06536    253.7 1.571e+04 5.034e-08
  6.08501    250.0 1.499e+04 3.842e-08
  6.10465    246.8 1.368e+04 2.578e-08
  6.12363    243.9 1.212e+04 1.758e-08
  6.13345    242.7 1.186e+04 1.570e-08
  6.14394    240.3 1.137e+04 1.192e-08
  6.16359    238.7 1.141e+04 1.110e-08
  6.18323    237.5 1.142e+04 1.080e-08
  6.20288    236.3 1.142e+04 1.047e-08
  6.22252    234.7 1.141e+04 9.684e-09
  6.24217    232.7 1.131e+04 8.478e-09
  6.26181    230.3 1.113e+04 6.896e-09
  6.28146    228.1 1.085e+04 5.713e-09
  6.30110    226.0 1.044e+04 4.380e-09
  6.32075    224.3 1.005e+04 3.473e-09
  6.33140    222.8 9.625e+03 2.828e-09
  6.34122    221.8 9.697e+03 2.984e-09
  6.36003    220.8 9.360e+03 2.716e-09
  6.37968    220.0 9.172e+03 2.705e-09
  6.39629    219.5 9.180e+03 2.708e-09
  6.40612    218.4 9.037e+03 2.985e-09
  6.41897    217.9 9.037e+03 2.987e-09
  6.43861    217.6 9.023e+03 3.019e-09
  6.45826    217.2 8.980e+03 3.075e-09
  6.47790    216.8 8.935e+03 3.101e-09
  6.49755    216.6 8.856e+03 3.104e-09
  6.51719    216.6 8.736e+03 3.071e-09
  6.52935    216.6 8.630e+03 2.996e-09
  6.53917    216.6 8.602e+03 2.976e-09
  6.55648    216.6 8.523e+03 2.876e-09
  6.57613    216.7 8.491e+03 2.840e-09
  6.59577    216.8 8.494e+03 2.846e-09
  6.61542    217.0 8.529e+03 2.894e-09
  6.63506    217.1 8.630e+03 3.052e-09
  6.65471    217.2 8.802e+03 3.346e-09
  6.67435    217.4 9.027e+03 3.786e-09
  6.69400    217.6 9.289e+03 4.365e-09
  6.71364    217.8 9.566e+03 5.060e-09
  6.72729    218.1 9.844e+03 5.831e-09
  6.73712    218.5 9.817e+03 5.767e-09
  6.75293    218.9 1.008e+04 6.561e-09
  6.77257    219.3 1.032e+04 7.345e-09
  6.79222    219.6 1.054e+04 8.103e-09
  6.81186    219.9 1.077e+04 8.919e-09
  6.83151    220.0 1.109e+04 9.970e-09
  6.84429    220.0 1.159e+04 1.168e-08
  6.85411    218.8 1.312e+04 1.730e-08
  6.87080    218.7 1.416e+04 2.308e-08
  6.89044    218.6 1.507e+04 3.020e-08
  6.91009    218.7 1.574e+04 3.649e-08
  6.92524    219.0 1.607e+04 3.922e-08
  6.93506    221.1 1.658e+04 4.468e-08
  6.94938    222.1 1.657e+04 4.164e-08
  6.96902    223.3 1.618e+04 3.556e-08
  6.98867    225.0 1.566e+04 2.861e-08
  7.00831    227.0 1.502e+04 2.175e-08
  7.02796    229.4 1.423e+04 1.642e-08
  7.04760    232.1 1.355e+04 1.284e-08
  7.06725    235.5 1.345e+04 1.133e-08
  7.08689    239.7 1.412e+04 1.156e-08
  7.10654    241.9 1.774e+04 1.234e-08
  7.12122    244.0 1.871e+04 1.184e-08
  7.12800    247.1 1.896e+04 1.175e-08
  7.13291    252.8 1.835e+04 9.353e-09
  7.14082    254.2 1.913e+04 9.657e-09
  7.15064    253.1 2.297e+04 1.111e-08
  7.16046    239.5 3.281e+04 5.298e-08
  7.17028    199.1 2.325e+04 2.208e-06
  7.18011    158.5 2.410e+04 4.489e-06
  7.18993    127.2 2.913e+04 1.304e-06
  7.19975     93.7 6.165e+04 2.315e-08
  7.20957     51.0 9.334e+04 7.398e-10
  7.22436     13.5 1.952e+04 6.669e-09
  7.24405     -0.6 1.320e+04 6.294e-09
  7.26369     -8.4 1.230e+04 5.286e-09
  7.28246    -12.4 1.149e+04 4.899e-09
  7.29228    -14.8 1.165e+04 5.420e-09
  7.30298    -15.1 1.129e+04 5.042e-09
  7.32113    -15.4 1.129e+04 5.209e-09
  7.33096    -22.5 1.170e+04 5.050e-09
  7.34227    -18.1 1.110e+04 4.416e-09
  7.37184    -16.2 1.041e+04 4.131e-09
  7.41123    -10.4 9.613e+03 3.712e-09
  7.45051     -4.2 9.374e+03 3.714e-09
  7.48980      1.1 9.285e+03 4.041e-09
  7.52909      5.9 9.280e+03 4.220e-09
  7.56838     10.6 9.164e+03 4.053e-09
  7.60767     15.0 8.917e+03 3.344e-09
  7.64696     18.9 8.681e+03 2.402e-09
  7.68625     22.0 8.526e+03 1.654e-09
  7.71722     24.8 8.287e+03 1.456e-09
  7.73215     24.6 8.465e+03 1.949e-09
  7.74047     25.0 8.135e+03 1.624e-09
  7.76483     28.2 8.101e+03 1.616e-09
  7.80412     31.3 8.128e+03 1.672e-09
  7.84341     34.0 8.284e+03 1.902e-09
  7.88270     36.4 8.574e+03 2.414e-09
  7.92199     38.3 8.960e+03 3.292e-09
  7.96128     40.3 9.564e+03 4.792e-09
  7.99065     40.1 1.024e+04 6.801e-09
  8.01020     40.6 1.039e+04 7.611e-09
  8.02984     40.2 1.076e+04 8.827e-09
  8.04948     40.5 1.096e+04 9.835e-09
  8.06913     40.9 1.123e+04 1.100e-08
  8.08877     41.2 1.134e+04 1.165e-08
  8.10842     41.6 1.127e+04 1.150e-08
  8.12274     41.9 1.110e+04 1.108e-08
  8.13257     42.0 1.101e+04 1.094e-08
  8.14771     42.2 1.101e+04 1.097e-08
  8.16735     42.3 1.109e+04 1.137e-08
  8.17844     42.6 1.117e+04 1.182e-08
  8.18826     42.8 1.055e+04 8.710e-09
  8.20664     43.2 1.050e+04 8.997e-09
  8.22629     43.6 1.049e+04 9.054e-09
  8.24593     43.9 1.059e+04 9.209e-09
  8.26558     43.8 1.093e+04 9.695e-09
  8.28522     42.9 1.206e+04 1.175e-08
  8.30487     41.3 1.344e+04 1.760e-08
  8.32069     39.9 1.446e+04 3.280e-08
  8.33051     40.6 1.401e+04 2.531e-08
  8.34416     39.3 1.469e+04 4.007e-08
  8.35884     38.3 1.502e+04 5.159e-08
  8.36861     38.0 1.529e+04 5.776e-08
  8.37844     37.0 1.622e+04 6.392e-08
  8.38826     35.7 1.709e+04 6.871e-08
  8.39743     32.4 1.793e+04 6.816e-08
  8.40234     33.9 1.842e+04 8.884e-08
  8.40790     31.7 1.828e+04 8.307e-08
  8.42269     27.7 1.727e+04 6.315e-08
  8.44238     23.5 1.568e+04 4.091e-08
  8.46202     19.0 1.428e+04 2.422e-08
  8.48167     15.0 1.310e+04 1.767e-08
  8.50131     14.1 1.278e+04 1.755e-08
  8.51864     14.4 1.254e+04 1.767e-08
  8.52846     14.6 1.258e+04 1.787e-08
  8.54060     15.2 1.234e+04 1.687e-08
  8.56025     15.8 1.221e+04 1.591e-08
  8.57989     16.2 1.212e+04 1.504e-08
  8.59954     17.0 1.200e+04 1.444e-08
  8.61661     17.5 1.217e+04 1.460e-08
  8.63635     17.0 1.249e+04 1.425e-08
  8.66849     18.2 1.227e+04 1.175e-08
  8.70778     19.5 1.203e+04 9.548e-09
  8.73715     19.9 1.175e+04 7.036e-09
  8.75670     20.4 1.178e+04 6.925e-09
  8.77634     20.8 1.202e+04 7.495e-09
  8.79599     20.9 1.224e+04 7.868e-09
  8.81563     21.0 1.262e+04 8.396e-09
  8.83528     20.8 1.291e+04 8.694e-09
  8.85492     19.2 1.331e+04 1.007e-08
  8.87456     18.6 1.330e+04 1.185e-08
  8.89421     17.7 1.341e+04 1.652e-08
  8.91385     18.8 1.273e+04 1.594e-08
  8.92435     18.6 1.289e+04 1.570e-08
  8.93418     19.5 1.286e+04 1.486e-08
  8.95314     20.3 1.286e+04 1.413e-08
  8.97279     19.3 1.343e+04 1.483e-08
  8.99243     20.3 1.321e+04 1.418e-08
  9.02200     20.8 1.289e+04 1.177e-08
  9.06139     20.6 1.229e+04 8.843e-09
  9.10067     21.0 1.169e+04 6.266e-09
  9.13996     21.5 1.131e+04 4.645e-09
  9.17925     22.2 1.122e+04 3.812e-09
  9.21854     22.8 1.128e+04 3.608e-09
  9.25783     23.4 1.108e+04 3.471e-09
  9.29712     24.1 1.074e+04 3.044e-09
  9.32044     25.2 1.033e+04 2.451e-09
  9.34009     27.1 1.074e+04 3.347e-09
  9.37570     28.1 1.031e+04 2.071e-09
  9.41499     28.8 1.004e+04 1.445e-09
  9.45428     29.8 9.841e+03 1.351e-09
  9.49315     30.9 9.828e+03 1.373e-09
  9.51279     31.6 9.874e+03 1.294e-09
  9.53286     32.5 9.848e+03 1.505e-09
  9.57215     32.8 9.880e+03 1.805e-09
  9.61144     32.8 9.824e+03 2.031e-09
  9.65073     32.6 9.702e+03 2.175e-09
  9.69002     30.5 1.012e+04 2.787e-09
  9.71624     29.9 1.035e+04 3.376e-09
  9.72596     30.9 1.014e+04 2.825e-09
  9.73893     30.6 9.719e+03 2.628e-09
  9.75858     30.0 9.636e+03 2.769e-09
  9.77822     31.5 9.512e+03 3.059e-09
  9.80779     30.5 9.818e+03 4.108e-09
  9.83726     26.9 1.070e+04 6.442e-09
  9.85680     29.9 1.025e+04 6.365e-09
  9.88637     27.7 1.118e+04 9.605e-09
  9.92576     25.8 1.144e+04 1.119e-08
  9.96504     24.4 1.105e+04 9.458e-09
 10.00433     23.5 1.034e+04 6.728e-09
 10.04362     23.1 9.848e+03 5.280e-09
 10.08291     23.3 9.541e+03 4.719e-09
 10.11223     24.2 9.187e+03 3.969e-09
 10.13188     25.2 9.567e+03 5.200e-09
 10.16149     26.3 9.330e+03 4.318e-09
 10.20078     26.4 9.087e+03 3.298e-09
 10.24007     26.1 8.944e+03 2.979e-09
 10.27936     26.0 8.912e+03 3.071e-09
 10.31865     26.0 8.887e+03 3.362e-09
 10.35794     26.2 8.820e+03 3.385e-09
 10.38913     25.9 8.770e+03 3.111e-09
 10.40878     25.1 8.721e+03 2.893e-09
 10.42660     22.2 9.031e+03 3.221e-09
 10.44615     23.9 8.807e+03 3.070e-09
 10.47571     22.9 9.140e+03 3.707e-09
 10.50813     20.3 1.071e+04 8.950e-09
 10.52777     19.3 1.109e+04 1.161e-08
 10.55439     17.6 1.156e+04 1.423e-08
 10.59368     16.3 1.145e+04 1.326e-08
 10.63297     14.1 1.077e+04 9.981e-09
 10.67226     13.1 9.583e+03 6.117e-09
 10.71155     12.8 8.639e+03 3.287e-09
 10.75084     12.0 8.335e+03 2.293e-09
 10.79012     11.4 8.482e+03 2.487e-09
 10.82941     11.1 8.843e+03 3.283e-09
 10.86870     10.8 9.161e+03 3.611e-09
 10.90402      9.1 9.945e+03 4.363e-09
 10.92366      5.8 1.110e+04 7.763e-09
 10.94728      3.3 1.180e+04 1.376e-08
 10.98657      1.8 1.215e+04 1.659e-08
 11.01594      0.1 1.123e+04 1.041e-08
 11.03549     -0.1 1.021e+04 5.962e-09
 11.05513     -1.8 1.079e+04 8.357e-09
 11.07478     -2.0 1.131e+04 9.715e-09
 11.09442     -2.4 1.135e+04 1.127e-08
 11.11159     -2.2 1.128e+04 1.220e-08
 11.12142     -3.6 1.123e+04 1.063e-08
 11.13371     -4.6 1.174e+04 9.676e-09
 11.15336     -5.9 1.164e+04 1.177e-08
 11.17300     -8.0 1.236e+04 1.290e-08
 11.19265     -9.8 1.303e+04 2.022e-08
 11.21229    -11.4 1.383e+04 2.594e-08
 11.23194    -11.7 1.372e+04 3.227e-08
 11.25158    -12.3 1.359e+04 3.047e-08
 11.27123    -14.7 1.436e+04 2.974e-08
 11.28492    -20.2 1.568e+04 3.549e-08
 11.29475    -21.6 1.683e+04 5.923e-08
 11.30954    -24.7 1.620e+04 8.973e-08
 11.31936    -25.9 1.593e+04 8.414e-08
 11.33016    -25.4 1.614e+04 1.105e-07
 11.34981    -24.6 1.620e+04 1.002e-07
 11.36945    -25.3 1.440e+04 3.230e-08
 11.38909    -32.0 1.171e+04 1.119e-08
 11.40874    -34.6 1.023e+04 7.769e-09
 11.42838    -34.8 9.989e+03 7.316e-09
 11.44803    -34.4 1.003e+04 7.421e-09
 11.46767    -34.3 1.017e+04 7.736e-09
 11.48732    -34.3 1.025e+04 8.361e-09
 11.50696    -33.8 1.034e+04 9.404e-09
 11.51731    -32.9 1.055e+04 1.062e-08
 11.52713    -33.7 1.126e+04 1.392e-08
 11.54625    -32.7 1.155e+04 1.498e-08
 11.56590    -31.9 1.217e+04 1.672e-08
 11.58554    -31.6 1.274e+04 1.849e-08
 11.60519    -33.3 1.227e+04 1.701e-08
 11.62483    -33.1 1.216e+04 1.681e-08
 11.64448    -32.0 1.207e+04 1.695e-08
 11.66412    -30.9 1.213e+04 1.702e-08
 11.68377    -30.1 1.212e+04 1.689e-08
 11.70341    -29.0 1.229e+04 1.715e-08
 11.71526    -28.6 1.219e+04 1.660e-08
 11.72508    -29.4 1.221e+04 1.581e-08
 11.74270    -27.6 1.199e+04 1.592e-08
 11.76235    -26.7 1.206e+04 1.666e-08
 11.78199    -26.6 1.388e+04 2.016e-08
 11.80163    -31.2 1.946e+04 3.674e-08
 11.81418    -35.0 2.307e+04 5.261e-08
 11.81904    -39.8 2.261e+04 1.699e-07
 11.82609    -41.4 2.107e+04 5.107e-07
 11.83592    -42.3 1.951e+04 1.074e-06
 11.84574    -42.8 1.897e+04 1.342e-06
 11.85556    -43.3 1.886e+04 1.336e-06
 11.86538    -44.7 1.964e+04 8.754e-07
 11.87521    -51.1 2.146e+04 3.209e-07
 11.88503    -62.2 2.191e+04 6.658e-08
 11.89485    -73.8 1.664e+04 1.939e-08
 11.90467    -79.9 1.309e+04 1.215e-08
 11.91311    -82.4 1.218e+04 1.063e-08
 11.92298    -83.5 1.181e+04 9.768e-09
 11.93915    -86.6 1.149e+04 8.944e-09
 11.95879    -89.4 1.118e+04 7.912e-09
 11.97844    -91.5 1.100e+04 7.199e-09
 11.99808    -93.7 1.099e+04 7.070e-09
 12.01773    -95.8 1.125e+04 7.945e-09
 12.03737    -97.7 1.178e+04 1.050e-08
 12.05702    -99.5 1.240e+04 1.392e-08
 12.07666   -101.8 1.319e+04 1.778e-08
 12.09631   -105.1 1.399e+04 2.258e-08
 12.11115   -109.3 1.455e+04 2.711e-08
 12.12097   -112.0 1.383e+04 2.197e-08
 12.13560   -117.0 1.424e+04 2.546e-08
 12.15524   -122.2 1.453e+04 2.856e-08
 12.17109   -127.4 1.458e+04 2.937e-08
 12.18091   -130.6 1.460e+04 2.841e-08
 12.19453   -135.1 1.383e+04 2.435e-08
 12.21418   -138.4 1.268e+04 1.769e-08
 12.23382   -140.7 1.157e+04 1.224e-08
 12.25346   -142.5 1.078e+04 8.817e-09
 12.27311   -143.8 1.031e+04 7.001e-09
 12.29275   -144.7 1.001e+04 6.107e-09
 12.30910   -145.1 9.787e+03 5.654e-09
 12.31892   -144.7 9.282e+03 4.431e-09
 12.33204   -144.7 9.140e+03 4.152e-09
 12.35169   -144.6 9.064e+03 3.967e-09
 12.37133   -144.4 9.029e+03 3.825e-09
 12.39098   -144.1 9.020e+03 3.678e-09
 12.41062   -143.9 8.991e+03 3.552e-09
 12.43027   -143.6 8.962e+03 3.437e-09
 12.44991   -143.5 8.943e+03 3.366e-09
 12.46956   -143.3 8.938e+03 3.318e-09
 12.48920   -143.2 8.941e+03 3.302e-09
 12.50704   -143.3 8.967e+03 3.479e-09
 12.51687   -143.4 9.010e+03 3.417e-09
 12.52849   -143.2 9.172e+03 3.834e-09
 12.54814   -143.0 9.444e+03 4.605e-09
 12.56778   -142.7 9.751e+03 5.273e-09
 12.58743   -142.7 1.000e+04 5.820e-09
 12.60707   -143.0 1.026e+04 6.306e-09
 12.61908   -143.9 1.053e+04 6.778e-09
 12.62890   -143.5 1.009e+04 5.264e-09
 12.64636   -144.6 1.032e+04 5.503e-09
 12.66600   -146.3 1.077e+04 6.170e-09
 12.68565   -148.5 1.148e+04 7.923e-09
 12.70499   -151.1 1.228e+04 1.112e-08
 12.71481   -150.3 1.242e+04 1.204e-08
 12.72494   -152.5 1.281e+04 1.616e-08
 12.74458   -154.7 1.287e+04 1.896e-08
 12.76423   -159.1 1.352e+04 2.029e-08
 12.78387   -171.3 2.511e+04 1.825e-08
 12.80352   -190.2 3.314e+04 3.571e-08
 12.82316   -207.9 2.841e+04 8.508e-08
 12.84281   -223.0 2.441e+04 1.078e-07
 12.86245   -236.5 1.987e+04 7.406e-08
 12.88210   -248.1 1.516e+04 3.360e-08
 12.90174   -254.4 1.300e+04 2.172e-08
 12.91276   -256.4 1.262e+04 1.954e-08
 12.92258   -258.0 1.286e+04 2.109e-08
 12.94103   -258.9 1.253e+04 1.909e-08
 12.96068   -259.8 1.190e+04 1.566e-08
 12.98032   -260.6 1.106e+04 1.154e-08
 12.99997   -261.5 1.020e+04 8.168e-09
 13.01961   -262.5 9.497e+03 5.944e-09
 13.03926   -263.5 8.976e+03 4.544e-09
 13.05725   -264.3 8.631e+03 3.720e-09
 13.06707   -263.0 8.662e+03 3.785e-09
 13.07854   -263.7 8.450e+03 3.291e-09
 13.09819   -264.3 8.358e+03 3.091e-09
 13.11071   -264.9 8.344e+03 3.058e-09
 13.12053   -266.1 8.439e+03 3.272e-09
 13.13748   -266.8 8.488e+03 3.305e-09
 13.15712   -267.7 8.672e+03 3.528e-09
 13.17677   -268.7 8.910e+03 3.896e-09
 13.19641   -269.8 9.146e+03 4.308e-09
 13.21606   -271.2 9.344e+03 4.683e-09
 13.23570   -272.8 9.498e+03 4.992e-09
 13.25535   -274.6 9.628e+03 5.259e-09
 13.27499   -276.5 9.752e+03 5.559e-09
 13.29464   -278.6 9.892e+03 5.980e-09
 13.30865   -280.7 1.005e+04 6.554e-09
 13.31848   -282.3 1.005e+04 6.560e-09
 13.33393   -284.2 1.023e+04 7.285e-09
 13.35357   -286.1 1.043e+04 8.084e-09
 13.37322   -287.8 1.063e+04 8.870e-09
 13.39286   -289.5 1.079e+04 9.501e-09
 13.41251   -291.0 1.088e+04 9.912e-09
 13.43215   -292.4 1.092e+04 1.006e-08
 13.45180   -293.7 1.094e+04 1.008e-08
 13.47144   -294.9 1.102e+04 1.013e-08
 13.49108   -296.1 1.114e+04 1.027e-08
 13.50524   -297.1 1.121e+04 1.038e-08
 13.51094   -296.0 1.082e+04 8.871e-09
 13.51642   -296.7 1.071e+04 8.466e-09
 13.53037   -297.4 1.074e+04 8.298e-09
 13.55002   -297.9 1.075e+04 8.245e-09
 13.56966   -298.2 1.075e+04 8.205e-09
 13.58931   -298.4 1.075e+04 8.154e-09
 13.60895   -298.9 1.080e+04 8.137e-09
 13.62860   -299.9 1.096e+04 8.406e-09
 13.64824   -301.5 1.174e+04 1.062e-08
 13.66789   -303.4 1.372e+04 1.904e-08
 13.68753   -305.3 1.551e+04 3.776e-08
 13.70455   -307.2 1.677e+04 6.801e-08
 13.71437   -307.4 1.677e+04 6.782e-08
 13.72682   -309.6 1.753e+04 1.017e-07
 13.74647   -312.2 1.791e+04 1.224e-07
 13.76611   -314.7 1.801e+04 1.263e-07
 13.78576   -317.2 1.790e+04 1.149e-07
 13.80540   -319.7 1.760e+04 9.429e-08
 13.82505   -322.2 1.707e+04 6.933e-08
 13.84469   -324.7 1.653e+04 5.305e-08
 13.86434   -327.0 1.625e+04 4.668e-08
 13.88398   -329.2 1.618e+04 4.560e-08
 13.90250   -331.2 1.628e+04 5.068e-08
 13.91232   -332.6 1.611e+04 4.970e-08
 13.92327   -334.1 1.605e+04 5.098e-08
 13.94291   -335.1 1.586e+04 4.953e-08
 13.95323   -335.6 1.567e+04 4.662e-08
 13.96306   -336.0 1.661e+04 7.134e-08
 13.98220   -336.2 1.665e+04 7.172e-08
 14.00185   -336.5 1.677e+04 7.236e-08
 14.02149   -337.6 1.734e+04 7.431e-08
 14.03618   -341.9 1.932e+04 7.480e-08
 14.04595   -343.9 2.000e+04 1.390e-07
 14.05577   -345.2 1.987e+04 2.684e-07
 14.06560   -346.5 1.983e+04 4.973e-07
 14.07542   -348.8 1.976e+04 7.225e-07
 14.08524   -351.8 1.968e+04 8.038e-07
 14.09506   -355.0 1.962e+04 7.973e-07
 14.10489   -357.7 1.949e+04 5.972e-07
 14.11017   -359.7 1.943e+04 3.356e-07
 14.11508   -360.0 1.923e+04 2.212e-07
 14.12453   -361.6 1.862e+04 1.138e-07
 14.13435   -363.0 1.748e+04 6.317e-08
 14.14418   -364.2 1.615e+04 4.245e-08
 14.15400   -365.1 1.531e+04 3.542e-08
 14.16382   -365.3 1.507e+04 3.365e-08
 14.17222   -365.4 1.504e+04 3.335e-08
 14.17713   -365.5 1.513e+04 3.515e-08
 14.18347   -365.5 1.509e+04 3.481e-08
 14.19329   -365.5 1.516e+04 3.523e-08
 14.20311   -365.8 1.526e+04 3.612e-08
 14.21789   -366.6 1.542e+04 3.651e-08
 14.23759   -368.2 1.543e+04 3.668e-08
 14.25723   -369.4 1.516e+04 3.499e-08
 14.27688   -369.7 1.479e+04 3.201e-08
 14.29652   -369.7 1.448e+04 2.924e-08
 14.30821   -369.4 1.425e+04 2.678e-08
 14.31803   -369.1 1.418e+04 2.557e-08
 14.33581   -368.5 1.394e+04 2.275e-08
 14.35545   -367.9 1.368e+04 1.988e-08
 14.37510   -367.2 1.341e+04 1.719e-08
 14.39141   -366.5 1.315e+04 1.474e-08
 14.40123   -366.3 1.331e+04 1.684e-08
 14.41439   -365.5 1.308e+04 1.472e-08
 14.43403   -364.6 1.285e+04 1.261e-08
 14.45368   -363.6 1.263e+04 1.053e-08
 14.47332   -362.7 1.242e+04 8.559e-09
 14.49297   -361.7 1.222e+04 6.814e-09
 14.50616   -360.8 1.207e+04 5.373e-09
 14.51598   -361.0 1.197e+04 4.596e-09
 14.53226   -360.1 1.187e+04 3.692e-09
 14.55190   -359.3 1.180e+04 3.035e-09
 14.57155   -358.4 1.174e+04 2.569e-09
 14.59119   -357.6 1.171e+04 2.254e-09
 14.61084   -356.8 1.176e+04 2.082e-09
 14.63048   -355.9 1.180e+04 2.036e-09
 14.65013   -355.2 1.181e+04 2.031e-09
 14.66977   -354.7 1.189e+04 2.033e-09
 14.68942   -354.6 1.210e+04 2.109e-09
 14.70411   -354.6 1.211e+04 2.527e-09
 14.71393   -354.4 1.211e+04 2.507e-09
 14.72871   -354.7 1.228e+04 3.470e-09
 14.74835   -355.4 1.276e+04 5.561e-09
 14.76799   -356.3 1.349e+04 9.754e-09
 14.78764   -357.4 1.425e+04 1.682e-08
 14.80728   -358.6 1.487e+04 2.621e-08
 14.82693   -360.2 1.523e+04 3.483e-08
 14.83940   -361.9 1.529e+04 3.864e-08
 14.84922   -360.9 1.507e+04 3.315e-08
 14.86622   -362.7 1.505e+04 3.359e-08
 14.88586   -364.0 1.468e+04 3.233e-08
 14.90205   -364.8 1.399e+04 2.503e-08
 14.91188   -364.1 1.368e+04 2.049e-08
 14.92515   -364.8 1.305e+04 1.430e-08
 14.94480   -365.1 1.245e+04 9.389e-09
 14.96444   -365.2 1.199e+04 6.098e-09
 14.98409   -365.1 1.171e+04 4.034e-09
 15.00373   -365.0 1.158e+04 2.784e-09
 15.02338   -364.9 1.150e+04 2.092e-09
 15.04302   -364.9 1.142e+04 1.792e-09
 15.07259   -365.1 1.126e+04 1.718e-09
 15.11197   -363.7 1.103e+04 1.611e-09
 15.15126   -362.1 1.095e+04 1.609e-09
 15.19055   -360.3 1.079e+04 1.671e-09
 15.22984   -358.6 1.080e+04 1.729e-09
 15.26913   -357.1 1.099e+04 1.812e-09
 15.29814   -356.0 1.118e+04 1.889e-09
 15.31779   -356.4 1.104e+04 1.820e-09
 15.34771   -355.7 1.124e+04 1.929e-09
 15.38700   -355.3 1.133e+04 1.990e-09
 15.42629   -355.0 1.135e+04 1.999e-09
 15.46558   -354.3 1.126e+04 1.906e-09
 15.50487   -353.2 1.106e+04 1.717e-09
 15.54416   -351.6 1.086e+04 1.515e-09
 15.58345   -349.7 1.071e+04 1.401e-09
 15.62274   -347.6 1.067e+04 1.382e-09
 15.66203   -345.5 1.075e+04 1.382e-09
 15.69404   -343.7 1.105e+04 1.509e-09
 15.71368   -344.7 1.105e+04 1.471e-09
 15.72576   -343.1 1.139e+04 1.796e-09
 15.74540   -341.2 1.167e+04 2.130e-09
 15.77990   -340.1 1.191e+04 2.492e-09
 15.80926   -339.4 1.203e+04 2.721e-09
 15.82881   -339.6 1.211e+04 2.941e-09
 15.84846   -339.9 1.219e+04 3.243e-09
 15.86810   -340.3 1.218e+04 3.483e-09
 15.88775   -340.3 1.220e+04 3.702e-09
 15.90161   -340.2 1.224e+04 3.840e-09
 15.91143   -340.2 1.228e+04 3.983e-09
 15.92704   -340.0 1.234e+04 4.071e-09
 15.94668   -340.0 1.243e+04 4.095e-09
 15.96633   -340.0 1.255e+04 4.093e-09
 15.98597   -340.3 1.274e+04 4.107e-09
 16.00561   -340.8 1.293e+04 4.311e-09
 16.02526   -341.4 1.307e+04 4.886e-09
 16.04490   -342.0 1.318e+04 6.261e-09
 16.06455   -342.5 1.337e+04 8.822e-09
 16.08419   -343.0 1.368e+04 1.288e-08
 16.09956   -343.5 1.410e+04 1.830e-08
 16.10938   -342.0 1.343e+04 1.244e-08
 16.12348   -342.2 1.373e+04 1.677e-08
 16.14313   -342.4 1.404e+04 2.133e-08
 16.16277   -342.6 1.431e+04 2.537e-08
 16.17355   -342.7 1.452e+04 2.820e-08
 16.18338   -343.6 1.475e+04 2.720e-08
 16.20206   -343.8 1.481e+04 2.732e-08
 16.22171   -344.1 1.485e+04 2.676e-08
 16.24135   -344.2 1.490e+04 2.527e-08
 16.26100   -344.1 1.493e+04 2.322e-08
 16.28064   -343.9 1.497e+04 2.131e-08
 16.29750   -343.4 1.510e+04 1.976e-08
 16.30733   -341.5 1.485e+04 2.088e-08
 16.31993   -341.3 1.514e+04 2.061e-08
 16.33958   -340.9 1.521e+04 2.153e-08
 16.35922   -340.5 1.525e+04 2.255e-08
 16.37887   -340.6 1.524e+04 2.404e-08
 16.39851   -341.6 1.532e+04 2.701e-08
 16.41815   -342.8 1.556e+04 3.202e-08
 16.43780   -344.1 1.575e+04 3.657e-08
 16.45744   -345.5 1.587e+04 4.023e-08
 16.47709   -347.0 1.597e+04 4.356e-08
 16.49545   -348.5 1.608e+04 4.661e-08
 16.50527   -347.2 1.606e+04 4.503e-08
 16.51638   -349.0 1.628e+04 4.923e-08
 16.53602   -350.9 1.655e+04 5.571e-08
 16.55567   -352.8 1.680e+04 6.271e-08
 16.57531   -354.6 1.704e+04 6.913e-08
 16.59496   -356.5 1.712e+04 7.141e-08
 16.61172   -358.5 1.705e+04 6.702e-08
 16.62155   -360.6 1.640e+04 4.517e-08
 16.63425   -362.0 1.608e+04 3.673e-08
 16.65389   -362.9 1.571e+04 2.762e-08
 16.67354   -363.4 1.528e+04 1.984e-08
 16.69318   -363.7 1.490e+04 1.394e-08
 16.70322   -363.9 1.486e+04 1.056e-08
 16.71304   -363.8 1.508e+04 1.802e-08
 16.73247   -363.9 1.518e+04 1.452e-08
 16.75212   -363.7 1.530e+04 1.366e-08
 16.77176   -363.2 1.551e+04 1.491e-08
 16.79141   -362.5 1.560e+04 1.700e-08
 16.81105   -361.5 1.562e+04 1.871e-08
 16.83070   -360.5 1.580e+04 2.148e-08
 16.84058   -358.8 1.520e+04 1.698e-08
 16.84545   -360.3 1.654e+04 3.343e-08
 16.85515   -360.3 1.713e+04 4.320e-08
 16.86498   -360.2 1.772e+04 5.809e-08
 16.87480   -360.2 1.825e+04 8.011e-08
 16.88462   -360.2 1.870e+04 1.100e-07
 16.89444   -360.2 1.904e+04 1.468e-07
 16.90107   -360.2 1.932e+04 1.860e-07
 16.90598   -359.7 1.914e+04 1.579e-07
 16.91409   -359.6 1.939e+04 1.888e-07
 16.92391   -359.4 1.956e+04 2.105e-07
 16.93373   -359.4 1.968e+04 2.262e-07
 16.94355   -359.4 1.975e+04 2.352e-07
 16.95338   -359.7 1.978e+04 2.412e-07
 16.96320   -360.1 1.977e+04 2.389e-07
 16.97302   -360.4 1.957e+04 2.156e-07
 16.98284   -360.6 1.929e+04 1.860e-07
 16.99267   -360.7 1.893e+04 1.562e-07
 17.00004   -360.8 1.857e+04 1.310e-07
 17.00495   -360.2 1.861e+04 1.318e-07
 17.01231   -360.2 1.824e+04 1.118e-07
 17.02213   -359.9 1.796e+04 9.820e-08
 17.03196   -359.5 1.784e+04 8.973e-08
 17.04674   -359.1 1.776e+04 8.177e-08
 17.05972   -357.8 1.702e+04 4.878e-08
 17.06954   -358.9 1.567e+04 9.867e-09
 17.08608   -358.1 1.504e+04 5.995e-09
 17.09911   -357.5 1.411e+04 4.309e-09
 17.10894   -356.7 1.467e+04 4.286e-09
 17.12537   -355.9 1.406e+04 3.724e-09
 17.14501   -355.0 1.380e+04 3.610e-09
 17.16466   -354.0 1.363e+04 3.614e-09
 17.18430   -352.9 1.353e+04 3.659e-09
 17.20395   -351.9 1.348e+04 3.674e-09
 17.22359   -350.7 1.337e+04 3.579e-09
 17.24324   -349.6 1.328e+04 3.357e-09
 17.26288   -348.4 1.322e+04 3.075e-09
 17.28252   -347.2 1.318e+04 2.798e-09
 17.29706   -345.9 1.315e+04 2.570e-09
 17.30688   -345.5 1.321e+04 2.554e-09
 17.32181   -344.3 1.318e+04 2.402e-09
 17.34146   -343.0 1.318e+04 2.293e-09
 17.36110   -341.7 1.322e+04 2.230e-09
 17.38075   -340.5 1.324e+04 2.217e-09
 17.40039   -339.3 1.325e+04 2.217e-09
 17.42004   -338.1 1.332e+04 2.233e-09
 17.43968   -337.0 1.341e+04 2.387e-09
 17.45933   -335.8 1.346e+04 2.691e-09
 17.47897   -334.7 1.350e+04 3.142e-09
 17.49501   -333.7 1.357e+04 3.793e-09
 17.50410   -333.4 1.371e+04 3.889e-09
 17.50771   -333.2 1.366e+04 3.325e-09
 17.51826   -332.6 1.372e+04 3.929e-09
 17.53791   -331.6 1.384e+04 4.988e-09
 17.55755   -331.3 1.390e+04 5.869e-09
 17.57720   -330.8 1.399e+04 7.432e-09
 17.59684   -330.6 1.402e+04 8.290e-09
 17.61649   -330.5 1.399e+04 9.009e-09
 17.63613   -330.4 1.390e+04 9.439e-09
 17.65578   -330.2 1.381e+04 9.662e-09
 17.67542   -330.0 1.366e+04 9.807e-09
 17.69295   -329.7 1.356e+04 9.917e-09
 17.70278   -329.3 1.356e+04 9.301e-09
 17.71471   -329.1 1.351e+04 9.347e-09
 17.73435   -329.0 1.340e+04 9.739e-09
 17.75400   -329.0 1.336e+04 1.051e-08
 17.77364   -329.0 1.338e+04 1.155e-08
 17.79329   -329.1 1.342e+04 1.269e-08
 17.81293   -329.0 1.344e+04 1.376e-08
 17.83258   -328.9 1.338e+04 1.462e-08
 17.85222   -328.6 1.332e+04 1.493e-08
 17.87187   -328.1 1.324e+04 1.494e-08
 17.89090   -327.4 1.310e+04 1.459e-08
 17.90072   -327.9 1.327e+04 1.516e-08
 17.91116   -327.0 1.309e+04 1.425e-08
 17.93080   -326.1 1.290e+04 1.313e-08
 17.94588   -325.1 1.274e+04 1.203e-08
 17.95570   -324.3 1.277e+04 1.150e-08
 17.97009   -323.2 1.264e+04 1.075e-08
 17.98974   -322.1 1.253e+04 1.006e-08
 18.00938   -321.0 1.244e+04 9.529e-09
 18.02903   -319.9 1.237e+04 9.195e-09
 18.04867   -318.8 1.231e+04 9.071e-09
 18.06832   -317.7 1.230e+04 9.076e-09
 18.08796   -316.7 1.233e+04 9.612e-09
 18.09867   -315.7 1.238e+04 1.064e-08
 18.10849   -315.8 1.218e+04 8.216e-09
 18.12725   -314.8 1.221e+04 8.970e-09
 18.14689   -313.9 1.227e+04 9.983e-09
 18.16654   -312.9 1.234e+04 1.117e-08
 18.18618   -311.9 1.241e+04 1.233e-08
 18.20583   -311.0 1.247e+04 1.333e-08
 18.22547   -310.0 1.248e+04 1.405e-08
 18.24512   -308.9 1.245e+04 1.446e-08
 18.26476   -307.7 1.243e+04 1.462e-08
 18.28441   -306.5 1.235e+04 1.437e-08
 18.29662   -305.2 1.226e+04 1.363e-08
 18.30644   -305.0 1.217e+04 1.194e-08
 18.32370   -303.7 1.208e+04 1.110e-08
 18.34334   -302.4 1.200e+04 1.006e-08
 18.36299   -301.1 1.194e+04 8.882e-09
 18.38263   -299.8 1.190e+04 7.717e-09
 18.39387   -298.4 1.188e+04 6.625e-09
 18.40369   -299.1 1.183e+04 3.832e-09
 18.42192   -297.9 1.182e+04 3.401e-09
 18.44157   -296.6 1.178e+04 3.189e-09
 18.46121   -295.4 1.177e+04 3.137e-09
 18.48086   -294.2 1.177e+04 3.167e-09
 18.49457   -293.0 1.187e+04 3.432e-09
 18.50439   -293.3 1.185e+04 3.222e-09
 18.52014   -292.2 1.192e+04 3.506e-09
 18.53979   -291.1 1.197e+04 3.848e-09
 18.55943   -290.1 1.203e+04 4.169e-09
 18.57908   -289.1 1.209e+04 4.424e-09
 18.59872   -288.2 1.216e+04 4.589e-09
 18.61837   -287.4 1.225e+04 4.662e-09
 18.63801   -286.7 1.238e+04 4.709e-09
 18.65766   -286.1 1.256e+04 4.879e-09
 18.67730   -285.5 1.276e+04 5.341e-09
 18.69251   -285.0 1.297e+04 6.289e-09
 18.70233   -285.3 1.289e+04 5.864e-09
 18.71659   -285.0 1.313e+04 7.485e-09
 18.73624   -285.0 1.341e+04 1.034e-08
 18.75588   -285.0 1.376e+04 1.532e-08
 18.77553   -285.1 1.422e+04 2.315e-08
 18.79517   -285.5 1.471e+04 3.277e-08
 18.81482   -286.6 1.508e+04 4.055e-08
 18.83204   -287.9 1.520e+04 4.305e-08
 18.84187   -288.2 1.505e+04 3.740e-08
 18.85411   -289.5 1.500e+04 3.664e-08
 18.87375   -290.3 1.482e+04 3.064e-08
 18.89046   -290.8 1.466e+04 2.351e-08
 18.90028   -290.6 1.469e+04 2.212e-08
 18.91304   -290.6 1.462e+04 1.744e-08
 18.93269   -290.6 1.458e+04 1.396e-08
 18.95233   -290.6 1.449e+04 1.130e-08
 18.97197   -290.2 1.437e+04 9.287e-09
 18.99162   -289.4 1.422e+04 7.859e-09
 19.01126   -288.4 1.407e+04 6.982e-09
 19.03091   -287.3 1.396e+04 6.490e-09
 19.05055   -286.1 1.389e+04 6.244e-09
 19.07020   -284.8 1.388e+04 6.177e-09
 19.08841   -283.6 1.389e+04 6.171e-09
 19.09823   -283.5 1.403e+04 5.010e-09
 19.10949   -282.5 1.411e+04 5.076e-09
 19.12913   -281.7 1.431e+04 5.944e-09
 19.14878   -281.0 1.444e+04 7.788e-09
 19.16842   -280.2 1.459e+04 1.043e-08
 19.18807   -279.7 1.477e+04 1.363e-08
 19.20771   -279.2 1.492e+04 1.683e-08
 19.22736   -278.9 1.495e+04 1.923e-08
 19.24700   -278.7 1.492e+04 2.003e-08
 19.26665   -278.4 1.486e+04 2.001e-08
 19.28004   -277.8 1.448e+04 1.735e-08
 19.28986   -278.1 1.441e+04 1.623e-08
 19.30594   -276.9 1.389e+04 1.186e-08
 19.32558   -276.2 1.361e+04 9.492e-09
 19.34523   -275.3 1.339e+04 7.748e-09
 19.36487   -274.3 1.318e+04 6.656e-09
 19.38451   -273.2 1.298e+04 5.965e-09
 19.40416   -272.1 1.282e+04 5.552e-09
 19.42380   -271.0 1.267e+04 5.350e-09
 19.44345   -270.0 1.251e+04 5.252e-09
 19.46309   -268.8 1.232e+04 5.087e-09
 19.48274   -267.3 1.207e+04 4.737e-09
 19.49412   -265.2 1.185e+04 4.244e-09
 19.50394   -264.1 1.186e+04 3.976e-09
 19.52203   -262.4 1.179e+04 3.773e-09
 19.55159   -261.2 1.173e+04 3.623e-09
 19.59098   -259.5 1.160e+04 3.187e-09
 19.63027   -257.0 1.131e+04 2.679e-09
 19.66956   -254.2 1.096e+04 2.257e-09
 19.69226   -251.3 1.065e+04 1.936e-09
 19.71191   -250.9 1.062e+04 1.943e-09
 19.74814   -248.0 1.040e+04 1.692e-09
 19.78743   -245.1 1.022e+04 1.513e-09
 19.82672   -242.1 1.006e+04 1.407e-09
 19.86601   -239.0 9.927e+03 1.359e-09
 19.90530   -235.9 9.876e+03 1.342e-09
 19.94459   -232.8 9.867e+03 1.334e-09
 19.98388   -229.8 9.814e+03 1.407e-09
 20.02316   -226.9 9.898e+03 1.726e-09
 20.06245   -224.1 1.017e+04 2.358e-09
 20.08816   -221.5 1.047e+04 3.288e-09
 20.10780   -221.3 1.023e+04 2.676e-09
 20.14103   -218.8 1.055e+04 3.764e-09
 20.16630   -217.5 1.080e+04 5.681e-09
 20.17602   -217.8 1.078e+04 6.533e-09
 20.18995   -217.2 1.098e+04 8.262e-09
 20.20959   -216.3 1.121e+04 1.041e-08
 20.22924   -215.6 1.139e+04 1.231e-08
 20.24888   -214.8 1.155e+04 1.378e-08
 20.26853   -214.0 1.162e+04 1.433e-08
 20.28591   -213.3 1.162e+04 1.435e-08
 20.29573   -213.1 1.159e+04 1.422e-08
 20.30782   -212.4 1.155e+04 1.425e-08
 20.32746   -211.6 1.146e+04 1.374e-08
 20.34711   -210.8 1.134e+04 1.303e-08
 20.36675   -210.1 1.115e+04 1.195e-08
 20.38640   -209.4 1.091e+04 1.058e-08
 20.41596   -208.9 1.060e+04 9.096e-09
 20.45535   -206.3 1.026e+04 7.865e-09
 20.48405   -203.9 9.849e+03 6.529e-09
 20.50370   -204.1 9.978e+03 6.655e-09
 20.53393   -201.6 9.541e+03 5.369e-09
 20.57322   -199.3 9.214e+03 4.223e-09
 20.61251   -197.1 8.954e+03 3.367e-09
 20.65180   -194.8 8.757e+03 2.781e-09
 20.69109   -192.2 8.626e+03 2.494e-09
 20.73038   -189.6 8.594e+03 2.409e-09
 20.76967   -187.0 8.611e+03 2.410e-09
 20.80896   -184.7 8.905e+03 2.777e-09
 20.83832   -182.5 9.157e+03 3.214e-09
 20.85787   -182.1 9.307e+03 3.634e-09
 20.87752   -181.0 9.633e+03 4.730e-09
 20.88957   -180.2 9.946e+03 6.073e-09
 20.89940   -179.9 9.873e+03 5.395e-09
 20.91681   -179.1 1.024e+04 7.060e-09
 20.93645   -178.4 1.055e+04 8.610e-09
 20.95610   -177.8 1.070e+04 9.803e-09
 20.97574   -177.4 1.080e+04 1.037e-08
 20.99539   -177.1 1.080e+04 1.051e-08
 21.01503   -176.8 1.073e+04 1.051e-08
 21.03467   -176.2 1.057e+04 1.010e-08
 21.05236   -175.7 1.043e+04 9.563e-09
 21.06218   -175.5 1.037e+04 9.459e-09
 21.07396   -174.8 1.028e+04 9.020e-09
 21.08752   -174.2 1.027e+04 8.822e-09
 21.09734   -174.5 1.033e+04 8.791e-09
 21.11325   -174.0 1.030e+04 8.638e-09
 21.13290   -173.5 1.036e+04 8.585e-09
 21.15254   -173.0 1.043e+04 8.825e-09
 21.17219   -172.6 1.051e+04 9.086e-09
 21.19183   -172.2 1.059e+04 9.297e-09
 21.21148   -171.7 1.065e+04 9.416e-09
 21.23112   -171.2 1.070e+04 9.452e-09
 21.25077   -170.5 1.072e+04 9.449e-09
 21.27041   -169.8 1.075e+04 9.398e-09
 21.28547   -168.8 1.076e+04 9.196e-09
 21.29529   -168.9 1.064e+04 7.968e-09
 21.30970   -167.9 1.073e+04 8.039e-09
 21.32935   -166.8 1.081e+04 8.059e-09
 21.34899   -165.6 1.089e+04 8.058e-09
 21.36864   -164.4 1.098e+04 8.089e-09
 21.38828   -163.6 1.116e+04 8.230e-09
 21.40793   -163.4 1.195e+04 8.629e-09
 21.42757   -163.6 1.342e+04 1.192e-08
 21.44722   -163.9 1.443e+04 2.214e-08
 21.46686   -163.9 1.506e+04 4.133e-08
 21.48341   -163.8 1.548e+04 6.627e-08
 21.49324   -163.4 1.492e+04 4.718e-08
 21.50035   -163.1 1.523e+04 6.783e-08
 21.51018   -161.4 1.481e+04 3.870e-08
 21.52579   -161.2 1.527e+04 6.200e-08
 21.54544   -160.8 1.558e+04 8.143e-08
 21.56508   -160.4 1.576e+04 9.052e-08
 21.58473   -160.1 1.563e+04 8.908e-08
 21.60437   -160.1 1.510e+04 6.545e-08
 21.62402   -160.8 1.410e+04 3.722e-08
 21.64366   -162.2 1.267e+04 1.945e-08
 21.66331   -163.9 1.161e+04 1.328e-08
 21.68136   -165.2 1.133e+04 1.239e-08
 21.69118   -163.9 1.067e+04 8.082e-09
 21.70260   -165.1 1.058e+04 8.263e-09
 21.72224   -166.2 1.080e+04 1.071e-08
 21.74189   -167.2 1.121e+04 1.439e-08
 21.76153   -168.2 1.155e+04 1.798e-08
 21.78118   -169.2 1.176e+04 2.021e-08
 21.80082   -170.1 1.181e+04 2.088e-08
 21.82047   -170.8 1.171e+04 1.998e-08
 21.84011   -171.1 1.145e+04 1.729e-08
 21.85976   -171.2 1.113e+04 1.399e-08
 21.87931   -171.2 1.078e+04 1.095e-08
 21.89895   -170.9 1.047e+04 8.560e-09
 21.91869   -170.6 1.026e+04 7.301e-09
 21.93833   -170.0 1.018e+04 6.920e-09
 21.94835   -169.3 1.017e+04 6.889e-09
 21.95817   -170.1 1.019e+04 7.009e-09
 21.97762   -169.3 1.034e+04 7.344e-09
 21.99727   -168.5 1.062e+04 8.785e-09
 22.01691   -167.6 1.092e+04 1.102e-08
 22.03656   -166.6 1.124e+04 1.368e-08
 22.05620   -165.6 1.155e+04 1.630e-08
 22.07585   -164.6 1.181e+04 1.841e-08
 22.08708   -163.7 1.202e+04 1.983e-08
 22.09690   -163.2 1.193e+04 1.893e-08
 22.11514   -162.3 1.218e+04 2.079e-08
 22.13478   -161.5 1.244e+04 2.247e-08
 22.15443   -161.0 1.271e+04 2.409e-08
 22.17407   -160.8 1.291e+04 2.500e-08
 22.19372   -160.8 1.303e+04 2.533e-08
 22.21336   -161.2 1.322e+04 2.619e-08
 22.23301   -161.8 1.329e+04 2.688e-08
 22.25265   -162.2 1.333e+04 2.638e-08
 22.27230   -162.6 1.329e+04 2.454e-08
 22.28502   -162.9 1.319e+04 2.436e-08
 22.29485   -162.8 1.376e+04 3.383e-08
 22.31158   -162.8 1.388e+04 3.563e-08
 22.33123   -162.5 1.398e+04 3.802e-08
 22.35087   -161.7 1.412e+04 4.075e-08
 22.37052   -160.9 1.423e+04 4.227e-08
 22.38652   -160.2 1.425e+04 4.244e-08
 22.39634   -160.0 1.436e+04 4.303e-08
 22.40981   -159.3 1.436e+04 4.259e-08
 22.42945   -158.6 1.428e+04 3.882e-08
 22.44910   -157.9 1.410e+04 3.307e-08
 22.46874   -157.2 1.389e+04 2.668e-08
 22.48297   -156.5 1.364e+04 2.061e-08
 22.49279   -156.5 1.391e+04 2.695e-08
 22.50803   -155.8 1.366e+04 2.124e-08
 22.52768   -155.0 1.347e+04 1.683e-08
 22.54732   -154.2 1.334e+04 1.356e-08
 22.56697   -153.4 1.325e+04 1.128e-08
 22.58661   -152.5 1.320e+04 9.663e-09
 22.60626   -151.5 1.317e+04 8.431e-09
 22.62590   -150.4 1.316e+04 7.411e-09
 22.64555   -149.2 1.317e+04 6.562e-09
 22.66519   -148.0 1.319e+04 5.872e-09
 22.68092   -146.8 1.322e+04 5.323e-09
 22.69074   -146.9 1.324e+04 5.358e-09
 22.70448   -145.6 1.327e+04 4.698e-09
 22.72412   -144.4 1.335e+04 4.249e-09
 22.74377   -143.1 1.345e+04 3.983e-09
 22.76341   -141.7 1.351e+04 3.895e-09
 22.78306   -140.3 1.364e+04 3.863e-09
 22.80270   -139.0 1.384e+04 3.950e-09
 22.82235   -137.7 1.388e+04 4.236e-09
 22.83451   -136.4 1.386e+04 4.685e-09
 22.84433   -136.0 1.379e+04 4.169e-09
 22.86164   -134.7 1.373e+04 4.660e-09
 22.87887   -133.7 1.375e+04 5.310e-09
 22.88869   -133.6 1.364e+04 4.523e-09
 22.90093   -132.6 1.365e+04 5.035e-09
 22.92057   -131.5 1.370e+04 5.610e-09
 22.94022   -130.6 1.378e+04 6.312e-09
 22.95986   -129.8 1.386e+04 7.202e-09
 22.97951   -129.1 1.391e+04 8.276e-09
 22.99915   -128.3 1.391e+04 9.438e-09
 23.01880   -127.3 1.387e+04 1.051e-08
 23.03844   -126.2 1.384e+04 1.134e-08
 23.05809   -125.0 1.380e+04 1.172e-08
 23.07681   -123.7 1.378e+04 1.182e-08
 23.08663   -123.2 1.370e+04 1.031e-08
 23.09738   -121.8 1.372e+04 1.089e-08
 23.11702   -120.5 1.374e+04 1.124e-08
 23.13666   -119.3 1.376e+04 1.141e-08
 23.15631   -118.0 1.379e+04 1.146e-08
 23.17595   -116.9 1.382e+04 1.142e-08
 23.19560   -115.8 1.384e+04 1.138e-08
 23.21524   -114.7 1.384e+04 1.150e-08
 23.23489   -113.7 1.386e+04 1.169e-08
 23.25453   -112.7 1.387e+04 1.188e-08
 23.27268   -111.7 1.388e+04 1.216e-08
 23.28250   -110.9 1.384e+04 1.174e-08
 23.28458   -109.9 1.386e+04 1.236e-08
 23.29440   -109.8 1.385e+04 1.224e-08
 23.31347   -108.9 1.384e+04 1.291e-08
 23.33311   -107.9 1.385e+04 1.373e-08
 23.35276   -107.0 1.388e+04 1.474e-08
 23.37240   -106.1 1.388e+04 1.565e-08
 23.39205   -105.2 1.384e+04 1.585e-08
 23.41169   -104.4 1.375e+04 1.555e-08
 23.43134   -103.5 1.364e+04 1.498e-08
 23.45098   -102.7 1.360e+04 1.457e-08
 23.47063   -102.0 1.359e+04 1.442e-08
 23.48253   -101.4 1.364e+04 1.513e-08
 23.49235   -101.0 1.339e+04 1.247e-08
 23.50992   -100.5 1.349e+04 1.443e-08
 23.52956   -100.0 1.361e+04 1.798e-08
 23.54921    -99.5 1.377e+04 2.265e-08
 23.56885    -98.9 1.395e+04 2.752e-08
 23.58849    -98.6 1.407e+04 3.087e-08
 23.60814    -98.4 1.411e+04 3.174e-08
 23.62778    -98.2 1.394e+04 2.918e-08
 23.64743    -97.9 1.367e+04 2.446e-08
 23.66707    -97.4 1.340e+04 1.957e-08
 23.68048    -97.0 1.317e+04 1.554e-08
 23.69030    -96.4 1.302e+04 1.404e-08
 23.70636    -96.0 1.282e+04 1.133e-08
 23.72067    -95.6 1.265e+04 9.322e-09
 23.73050    -95.4 1.260e+04 9.279e-09
 23.74565    -95.0 1.245e+04 7.825e-09
 23.76530    -94.5 1.229e+04 6.706e-09
 23.78494    -94.0 1.214e+04 5.831e-09
 23.80459    -93.5 1.201e+04 5.188e-09
 23.82423    -93.0 1.193e+04 4.761e-09
 23.84388    -92.5 1.188e+04 4.513e-09
 23.86352    -92.0 1.187e+04 4.393e-09
 23.87842    -91.7 1.188e+04 4.323e-09
 23.88824    -91.2 1.176e+04 3.491e-09
 23.90281    -90.8 1.176e+04 3.388e-09
 23.92246    -90.6 1.176e+04 3.319e-09
 23.94210    -90.4 1.174e+04 3.266e-09
 23.96175    -90.3 1.174e+04 3.226e-09
 23.98139    -90.0 1.178e+04 3.110e-09
 24.00103    -89.7 1.178e+04 2.983e-09
 24.02068    -89.4 1.180e+04 2.825e-09
 24.04032    -89.2 1.182e+04 2.727e-09
 24.06664    -89.3 1.186e+04 2.611e-09
 24.08639    -88.9 1.188e+04 2.397e-09
 24.10928    -88.5 1.186e+04 1.932e-09
 24.14857    -87.6 1.182e+04 1.449e-09
 24.18786    -86.5 1.189e+04 1.065e-09
 24.22714    -85.1 1.197e+04 8.156e-10
 24.26643    -83.5 1.201e+04 6.722e-10
 24.30572    -81.8 1.199e+04 6.180e-10
 24.34501    -80.1 1.198e+04 6.088e-10
 24.38430    -78.9 1.209e+04 6.663e-10
 24.42359    -78.5 1.203e+04 1.202e-09
 24.46264    -78.2 1.209e+04 2.423e-09
 24.48228    -79.1 1.234e+04 2.919e-09
 24.49225    -78.9 1.260e+04 4.960e-09
 24.51180    -79.4 1.269e+04 5.785e-09
 24.53144    -80.2 1.275e+04 7.097e-09
 24.55109    -81.2 1.274e+04 7.257e-09
 24.57073    -81.8 1.254e+04 6.936e-09
 24.59038    -82.3 1.236e+04 5.942e-09
 24.60684    -82.7 1.225e+04 5.008e-09
 24.61666    -83.3 1.215e+04 4.600e-09
 24.62967    -83.5 1.205e+04 3.983e-09
 24.64931    -83.6 1.193e+04 3.449e-09
 24.66896    -83.5 1.178e+04 2.941e-09
 24.69852    -83.3 1.161e+04 2.445e-09
 24.73791    -82.4 1.153e+04 2.266e-09
 24.77720    -81.3 1.155e+04 2.237e-09
 24.80657    -80.6 1.171e+04 2.309e-09
 24.82611    -80.6 1.170e+04 2.481e-09
 24.84576    -80.5 1.175e+04 2.881e-09
 24.86540    -80.3 1.185e+04 3.339e-09
 24.87798    -80.3 1.195e+04 3.894e-09
 24.88780    -80.5 1.204e+04 4.079e-09
 24.90469    -80.7 1.216e+04 5.104e-09
 24.92434    -81.2 1.227e+04 6.452e-09
 24.94398    -81.7 1.237e+04 7.964e-09
 24.96363    -82.3 1.241e+04 9.304e-09
 24.98327    -82.7 1.238e+04 1.003e-08
 25.00292    -83.1 1.234e+04 1.019e-08
 25.02256    -83.3 1.222e+04 9.712e-09
 25.04221    -83.3 1.210e+04 8.821e-09
 25.05483    -83.2 1.197e+04 7.812e-09
 25.06465    -83.6 1.186e+04 7.366e-09
 25.07593    -83.3 1.170e+04 6.483e-09
 25.08575    -83.8 1.171e+04 6.501e-09
 25.10114    -83.3 1.155e+04 5.692e-09
 25.12079    -82.7 1.142e+04 4.963e-09
 25.14043    -82.0 1.129e+04 4.334e-09
 25.16008    -81.3 1.116e+04 3.821e-09
 25.17972    -80.4 1.105e+04 3.430e-09
 25.19937    -79.4 1.098e+04 3.142e-09
 25.21901    -78.4 1.096e+04 2.953e-09
 25.24857    -77.3 1.096e+04 2.841e-09
 25.27407    -75.4 1.087e+04 2.693e-09
 25.29371    -75.9 1.103e+04 2.747e-09
 25.32725    -74.1 1.092e+04 2.688e-09
 25.36654    -72.2 1.086e+04 2.691e-09
 25.40583    -70.2 1.092e+04 2.726e-09
 25.44512    -68.3 1.095e+04 2.710e-09
 25.48337    -66.4 1.091e+04 2.658e-09
 25.50302    -65.9 1.094e+04 2.665e-09
 25.51378    -64.5 1.106e+04 2.694e-09
 25.53333    -64.1 1.103e+04 2.807e-09
 25.55297    -63.0 1.112e+04 3.282e-09
 25.57262    -62.3 1.126e+04 3.818e-09
 25.59226    -61.5 1.137e+04 4.233e-09
 25.61191    -60.8 1.140e+04 4.355e-09
 25.63155    -60.1 1.131e+04 4.269e-09
 25.65119    -59.2 1.105e+04 3.673e-09
 25.66987    -58.3 1.074e+04 2.873e-09
 25.67969    -57.9 1.089e+04 3.327e-09
 25.69048    -57.0 1.073e+04 2.674e-09
 25.72005    -56.1 1.077e+04 2.586e-09
 25.75944    -54.7 1.045e+04 2.307e-09
 25.79873    -53.1 1.067e+04 2.567e-09
 25.83802    -51.7 1.100e+04 3.692e-09
 25.87731    -50.5 1.118e+04 5.722e-09
 25.91659    -49.6 1.129e+04 8.437e-09
 25.94109    -49.1 1.149e+04 1.162e-08
 25.95081    -49.2 1.151e+04 1.174e-08
 25.96551    -49.1 1.148e+04 1.188e-08
 25.98516    -48.5 1.123e+04 1.210e-08
 26.00480    -48.0 1.094e+04 1.122e-08
 26.02445    -47.4 1.066e+04 1.004e-08
 26.04409    -46.7 1.035e+04 8.858e-09
 26.06374    -45.9 1.004e+04 7.683e-09
 26.07548    -45.0 9.817e+03 6.763e-09
 26.08531    -45.2 9.679e+03 5.862e-09
 26.10302    -44.3 9.450e+03 4.954e-09
 26.12267    -43.2 9.207e+03 4.227e-09
 26.14231    -41.7 9.028e+03 3.506e-09
 26.16196    -40.6 8.941e+03 3.053e-09
 26.19152    -39.0 8.818e+03 2.636e-09
 26.23091    -36.5 8.554e+03 2.048e-09
 26.27020    -33.8 8.362e+03 1.787e-09
 26.30949    -31.1 8.313e+03 1.735e-09
 26.34878    -28.4 8.345e+03 1.773e-09
 26.37936    -26.2 8.466e+03 2.171e-09
 26.39900    -26.4 8.532e+03 2.187e-09
 26.42736    -24.2 8.726e+03 2.950e-09
 26.46175    -22.0 8.909e+03 3.957e-09
 26.48140    -22.1 8.955e+03 4.215e-09
 26.50594    -19.8 9.040e+03 4.718e-09
 26.54523    -17.8 8.940e+03 4.441e-09
 26.58452    -16.1 8.728e+03 3.482e-09
 26.62381    -14.9 8.507e+03 2.863e-09
 26.66310    -13.3 8.510e+03 2.872e-09
 26.70239    -12.4 8.864e+03 3.968e-09
 26.73175    -12.8 9.425e+03 5.959e-09
 26.75130    -12.5 9.780e+03 7.407e-09
 26.77095    -12.2 1.002e+04 9.328e-09
 26.79059    -11.9 1.033e+04 1.088e-08
 26.81024    -11.5 1.041e+04 1.229e-08
 26.82715    -11.0 1.042e+04 1.217e-08
 26.83698    -10.4 1.027e+04 1.112e-08
 26.84953    -10.4 1.030e+04 9.779e-09
 26.86727    -11.0 1.027e+04 8.886e-09
 26.87709    -12.1 9.644e+03 5.671e-09
 26.88882    -12.4 9.297e+03 5.128e-09
 26.90846    -12.4 9.272e+03 4.583e-09
 26.92810    -12.4 9.429e+03 4.499e-09
 26.94775    -12.6 9.963e+03 4.504e-09
 26.96739    -14.7 1.111e+04 5.712e-09
 26.98704    -18.1 1.262e+04 1.715e-08
 27.00668    -18.7 1.315e+04 3.188e-08
 27.02633    -18.0 1.358e+04 5.202e-08
 27.04597    -17.1 1.402e+04 5.990e-08
 27.06522    -16.3 1.362e+04 4.610e-08
 27.07504    -15.6 1.343e+04 4.726e-08
 27.08526    -14.6 1.301e+04 3.392e-08
 27.10491    -14.6 1.266e+04 2.056e-08
 27.12455    -15.5 1.184e+04 1.187e-08
 27.14420    -15.5 1.104e+04 8.211e-09
 27.16384    -14.3 1.091e+04 5.642e-09
 27.18349    -12.9 1.056e+04 4.949e-09
 27.21305    -11.6 1.058e+04 2.480e-09
 27.25244     -9.1 1.037e+04 1.469e-09
 27.27318     -6.4 1.034e+04 1.022e-09
 27.27644     -4.9 1.036e+04 1.562e-09
 27.29499     -4.0 1.033e+04 1.573e-09
 27.33102     -1.4 1.036e+04 1.163e-09
 27.37031      1.3 1.038e+04 9.958e-10
 27.40960      4.1 1.043e+04 9.570e-10
 27.44889      6.8 1.045e+04 9.722e-10
 27.48818      9.5 1.050e+04 1.054e-09
 27.52747     12.1 1.058e+04 1.343e-09
 27.56675     14.6 1.069e+04 1.916e-09
 27.60604     17.0 1.100e+04 2.595e-09
 27.64533     18.8 1.125e+04 3.170e-09
 27.66898     19.9 1.137e+04 3.373e-09
 27.67870     20.2 1.138e+04 3.827e-09
 27.69425     21.3 1.157e+04 4.031e-09
 27.71332     22.1 1.165e+04 4.009e-09
 27.72314     22.3 1.164e+04 4.012e-09
 27.73354     23.0 1.172e+04 3.836e-09
 27.75318     23.6 1.180e+04 3.615e-09
 27.77283     24.1 1.187e+04 3.438e-09
 27.79247     24.6 1.192e+04 3.335e-09
 27.81212     25.2 1.193e+04 3.309e-09
 27.84168     26.4 1.201e+04 3.231e-09
 27.88107     28.0 1.212e+04 3.199e-09
 27.92036     29.8 1.226e+04 3.217e-09
 27.95965     31.6 1.240e+04 3.335e-09
 27.98902     33.6 1.249e+04 3.400e-09
 28.00857     34.3 1.256e+04 3.442e-09
 28.02821     35.4 1.267e+04 3.546e-09
 28.04786     36.2 1.279e+04 3.678e-09
 28.06478     37.0 1.290e+04 3.928e-09
 28.07460     37.6 1.286e+04 3.716e-09
 28.08715     38.5 1.295e+04 4.123e-09
 28.10679     39.3 1.304e+04 4.681e-09
 28.12644     40.1 1.310e+04 5.386e-09
 28.14608     41.1 1.322e+04 6.004e-09
 28.16131     42.0 1.349e+04 6.255e-09
 28.17113     42.2 1.344e+04 7.198e-09
 28.18537     43.0 1.370e+04 7.138e-09
 28.20501     43.6 1.378e+04 7.063e-09
 28.22466     44.1 1.388e+04 6.873e-09
 28.24430     44.9 1.400e+04 6.404e-09
 28.26272     45.7 1.415e+04 5.918e-09
 28.27255     46.6 1.402e+04 5.814e-09
 28.28359     47.5 1.418e+04 5.412e-09
 28.30324     48.5 1.429e+04 4.846e-09
 28.32288     49.6 1.435e+04 4.259e-09
 28.34253     50.7 1.441e+04 3.506e-09
 28.36217     51.2 1.451e+04 3.143e-09
 28.39174     52.4 1.479e+04 2.771e-09
 28.43112     54.3 1.490e+04 2.667e-09
 28.46087     56.7 1.499e+04 2.732e-09
 28.48051     59.0 1.479e+04 2.710e-09
 28.50970     61.4 1.497e+04 2.824e-09
 28.54899     63.7 1.508e+04 2.956e-09
 28.58828     65.8 1.518e+04 2.899e-09
 28.62757     67.7 1.521e+04 2.609e-09
 28.66686     69.8 1.493e+04 2.472e-09
 28.70615     71.9 1.461e+04 2.526e-09
 28.74544     74.0 1.427e+04 2.691e-09
 28.78473     76.1 1.404e+04 2.963e-09
 28.82402     78.0 1.383e+04 3.242e-09
 28.85676     79.3 1.356e+04 3.431e-09
 28.87640     81.3 1.324e+04 3.452e-09
 28.89268     82.2 1.305e+04 3.930e-09
 28.91223     83.2 1.296e+04 4.404e-09
 28.93187     84.0 1.295e+04 4.894e-09
 28.95152     84.5 1.292e+04 5.430e-09
 28.97116     85.0 1.286e+04 5.962e-09
 28.99081     85.3 1.273e+04 6.120e-09
 29.01045     85.7 1.265e+04 5.834e-09
 29.03009     85.9 1.250e+04 5.271e-09
 29.04757     87.2 1.218e+04 4.128e-09
 29.05739     87.1 1.226e+04 4.523e-09
 29.06433     87.2 1.214e+04 3.916e-09
 29.07416     87.9 1.214e+04 4.272e-09
 29.09895     88.8 1.187e+04 3.109e-09
 29.13834     90.0 1.135e+04 1.941e-09
 29.17763     91.5 1.095e+04 1.576e-09
 29.21692     93.7 1.091e+04 1.585e-09
 29.25265     96.1 1.084e+04 1.727e-09
 29.27230     97.8 1.059e+04 1.861e-09
 29.29549    100.2 1.072e+04 2.196e-09
 29.33478    102.4 1.098e+04 2.759e-09
 29.37407    104.1 1.123e+04 3.334e-09
 29.40344    104.6 1.139e+04 3.922e-09
 29.42299    105.5 1.152e+04 4.511e-09
 29.44263    106.3 1.162e+04 5.035e-09
 29.46023    106.9 1.167e+04 5.471e-09
 29.47005    107.6 1.165e+04 6.070e-09
 29.48192    108.0 1.164e+04 6.387e-09
 29.49547    108.3 1.160e+04 6.641e-09
 29.50529    108.7 1.149e+04 6.086e-09
 29.52121    109.2 1.145e+04 6.362e-09
 29.54086    109.7 1.140e+04 6.507e-09
 29.56050    110.4 1.132e+04 6.410e-09
 29.58015    111.2 1.120e+04 6.101e-09
 29.59979    112.1 1.108e+04 5.534e-09
 29.61944    113.0 1.099e+04 4.878e-09
 29.63908    113.9 1.093e+04 4.272e-09
 29.65817    114.7 1.088e+04 3.855e-09
 29.66800    114.5 1.075e+04 3.599e-09
 29.67837    115.4 1.067e+04 3.432e-09
 29.69802    116.4 1.066e+04 3.426e-09
 29.71766    117.6 1.066e+04 3.450e-09
 29.73731    118.7 1.069e+04 3.550e-09
 29.75695    119.8 1.072e+04 3.785e-09
 29.77660    121.2 1.079e+04 4.194e-09
 29.79624    122.4 1.090e+04 4.791e-09
 29.81589    123.5 1.101e+04 5.452e-09
 29.83553    124.4 1.109e+04 6.106e-09
 29.85517    125.2 1.116e+04 6.749e-09
 29.86594    126.0 1.121e+04 7.428e-09
 29.87577    126.0 1.096e+04 6.223e-09
 29.89446    126.8 1.102e+04 6.896e-09
 29.91411    127.5 1.115e+04 7.973e-09
 29.93364    128.1 1.139e+04 9.789e-09
 29.94346    128.3 1.154e+04 1.091e-08
 29.95340    128.8 1.198e+04 1.477e-08
 29.97304    129.3 1.255e+04 2.087e-08
 29.99269    129.8 1.314e+04 2.874e-08
 30.01233    130.2 1.366e+04 3.627e-08
 30.03198    130.5 1.407e+04 4.231e-08
 30.05162    130.5 1.432e+04 4.426e-08
 30.06389    130.6 1.432e+04 4.358e-08
 30.07371    131.7 1.372e+04 3.724e-08
 30.09091    131.7 1.380e+04 3.628e-08
 30.11056    131.7 1.387e+04 3.550e-08
 30.13020    131.7 1.396e+04 3.596e-08
 30.14489    131.2 1.429e+04 3.945e-08
 30.15466    130.7 1.465e+04 4.431e-08
 30.16245    130.3 1.506e+04 5.069e-08
 30.16564    131.4 1.482e+04 4.615e-08
 30.16768    131.9 1.430e+04 3.883e-08
 30.17430    131.6 1.458e+04 4.252e-08
 30.18413    131.2 1.489e+04 4.731e-08
 30.19395    130.8 1.519e+04 5.301e-08
 30.20377    130.2 1.543e+04 5.860e-08
 30.21359    129.6 1.561e+04 6.201e-08
 30.22342    128.6 1.581e+04 6.196e-08
 30.23324    127.4 1.584e+04 6.053e-08
 30.24306    126.0 1.587e+04 5.605e-08
 30.25288    124.6 1.583e+04 5.141e-08
 30.26174    122.8 1.597e+04 4.580e-08
 30.26665    126.2 1.542e+04 4.553e-08
 30.27253    125.2 1.527e+04 4.126e-08
 30.28731    124.5 1.514e+04 3.622e-08
 30.30700    122.3 1.461e+04 2.971e-08
 30.32665    120.0 1.366e+04 2.491e-08
 30.34629    118.5 1.272e+04 2.149e-08
 30.36594    117.7 1.206e+04 1.908e-08
 30.38163    117.4 1.170e+04 1.674e-08
 30.39145    117.5 1.262e+04 2.323e-08
 30.40523    116.9 1.234e+04 1.905e-08
 30.42487    115.9 1.261e+04 1.570e-08
 30.44452    114.4 1.329e+04 1.501e-08
 30.45978    112.8 1.480e+04 2.006e-08
 30.46961    116.9 1.326e+04 1.608e-08
 30.48381    115.8 1.375e+04 1.604e-08
 30.50345    114.9 1.425e+04 1.702e-08
 30.51814    114.6 1.387e+04 1.564e-08
 30.52791    114.4 1.376e+04 1.560e-08
 30.53773    113.6 1.383e+04 1.638e-08
 30.54756    113.0 1.428e+04 1.827e-08
 30.55738    111.8 1.498e+04 2.289e-08
 30.56357    110.7 1.582e+04 3.116e-08
 30.56848    111.1 1.456e+04 2.120e-08
 30.57702    109.3 1.548e+04 3.143e-08
 30.58684    108.4 1.606e+04 4.479e-08
 30.60163    107.5 1.780e+04 1.367e-07
 30.62132    107.0 1.825e+04 1.688e-07
 30.64097    106.6 1.859e+04 1.829e-07
 30.65773    106.2 1.885e+04 1.926e-07
 30.66755    107.6 1.846e+04 1.641e-07
 30.68026    107.3 1.883e+04 1.830e-07
 30.69990    107.1 1.910e+04 1.946e-07
 30.71954    106.8 1.929e+04 1.958e-07
 30.73919    106.6 1.939e+04 1.874e-07
 30.75883    106.1 1.931e+04 1.732e-07
 30.77848    105.5 1.912e+04 1.568e-07
 30.79812    105.0 1.868e+04 1.377e-07
 30.81777    104.6 1.801e+04 1.175e-07
 30.82962    104.4 1.719e+04 9.909e-08
 30.83944    103.5 1.576e+04 7.063e-08
 30.85568    103.9 1.530e+04 5.917e-08
 30.86550    104.0 1.577e+04 7.191e-08
 30.87670    104.5 1.533e+04 6.425e-08
 30.89635    105.0 1.511e+04 5.674e-08
 30.91599    105.7 1.498e+04 4.865e-08
 30.93564    106.6 1.490e+04 4.034e-08
 30.95528    107.4 1.492e+04 3.278e-08
 30.97493    108.1 1.512e+04 2.742e-08
 30.99457    109.0 1.524e+04 2.638e-08
 31.01422    110.4 1.535e+04 2.722e-08
 31.03386    111.7 1.549e+04 3.075e-08
 31.05351    112.9 1.566e+04 3.707e-08
 31.06345    114.5 1.581e+04 4.806e-08
 31.06831    112.7 1.722e+04 7.643e-08
 31.07796    113.1 1.793e+04 9.601e-08
 31.08779    113.3 1.870e+04 1.293e-07
 31.09761    113.5 1.934e+04 1.910e-07
 31.10743    113.6 1.971e+04 3.021e-07
 31.11725    113.4 1.970e+04 4.872e-07
 31.12708    113.3 1.928e+04 7.815e-07
 31.13690    113.5 1.868e+04 1.263e-06
 31.14672    113.7 1.824e+04 2.011e-06
 31.15654    113.3 1.801e+04 2.921e-06
 31.16232    112.5 1.790e+04 3.379e-06
 31.16723    110.3 2.043e+04 9.952e-07
 31.17619    109.4 2.159e+04 6.083e-07
 31.18601    108.1 2.344e+04 3.331e-07
 31.19583    106.2 2.563e+04 1.738e-07
 31.20565    104.0 2.673e+04 9.771e-08
 31.21548    102.0 2.497e+04 6.551e-08
 31.22530    100.8 2.183e+04 5.575e-08
 31.23512    100.6 1.979e+04 5.287e-08
 31.24494    101.5 1.994e+04 4.884e-08
 31.25477    101.6 1.928e+04 4.577e-08
 31.26130    101.0 1.873e+04 5.684e-08
 31.26621     99.4 1.449e+04 2.972e-08
 31.27261     99.7 1.460e+04 3.444e-08
 31.27752     99.7 1.610e+04 3.867e-08
 31.28423     99.9 1.596e+04 4.410e-08
 31.29406     99.8 1.581e+04 5.161e-08
 31.30388     99.4 1.601e+04 6.497e-08
 31.31370     98.9 1.643e+04 8.713e-08
 31.32352     98.5 1.683e+04 1.204e-07
 31.33335     98.4 1.711e+04 1.714e-07
 31.34317     98.3 1.768e+04 2.053e-07
 31.35299     97.8 1.785e+04 2.032e-07
 31.36027     97.6 1.789e+04 1.802e-07
 31.36518     97.1 1.736e+04 1.111e-07
 31.37264     96.5 1.671e+04 7.632e-08
 31.38246     95.5 1.573e+04 4.720e-08
 31.39228     94.4 1.470e+04 3.140e-08
 31.40210     93.0 1.400e+04 2.124e-08
 31.41192     91.9 1.366e+04 1.677e-08
 31.42671     90.9 1.352e+04 1.401e-08
 31.44640     90.0 1.322e+04 1.255e-08
 31.45934     90.0 1.313e+04 1.237e-08
 31.46916     90.0 1.285e+04 1.153e-08
 31.48569     90.1 1.285e+04 1.140e-08
 31.50534     90.5 1.278e+04 1.066e-08
 31.52498     91.1 1.260e+04 9.080e-09
 31.54462     91.8 1.237e+04 7.220e-09
 31.56427     92.5 1.215e+04 5.568e-09
 31.58391     93.2 1.196e+04 4.352e-09
 31.60356     93.9 1.182e+04 3.492e-09
 31.62320     94.4 1.172e+04 2.925e-09
 31.64285     95.0 1.158e+04 2.490e-09
 31.65729     95.5 1.146e+04 2.193e-09
 31.66721     95.0 1.136e+04 1.796e-09
 31.69216     96.5 1.109e+04 1.635e-09
 31.71598     98.4 1.086e+04 1.484e-09
 31.72571     97.7 1.094e+04 1.734e-09
 31.74107     98.2 1.090e+04 1.698e-09
 31.77064     99.7 1.082e+04 1.761e-09
 31.81002    102.1 1.065e+04 1.522e-09
 31.84931    104.5 1.054e+04 1.262e-09
 31.88860    106.7 1.046e+04 1.177e-09
 31.92789    109.0 1.043e+04 1.226e-09
 31.96718    111.4 1.035e+04 1.389e-09
 32.00647    113.9 1.030e+04 1.646e-09
 32.04356    116.6 1.026e+04 1.934e-09
 32.06320    117.1 1.017e+04 1.498e-09
 32.08505    119.7 1.018e+04 2.009e-09
 32.12434    122.6 1.023e+04 2.705e-09
 32.16363    125.6 1.029e+04 3.442e-09
 32.20292    128.7 1.039e+04 4.143e-09
 32.24221    131.5 1.045e+04 4.674e-09
 32.28150    134.6 1.051e+04 5.087e-09
 32.31087    136.2 1.046e+04 5.199e-09
 32.33042    137.4 1.043e+04 5.296e-09
 32.35006    138.8 1.040e+04 5.405e-09
 32.36970    140.3 1.038e+04 5.527e-09
 32.38935    141.7 1.039e+04 5.674e-09
 32.40899    143.0 1.042e+04 5.802e-09
 32.42864    144.5 1.047e+04 5.960e-09
 32.44828    146.1 1.057e+04 6.266e-09
 32.45890    147.4 1.072e+04 6.826e-09
 32.46872    147.2 1.065e+04 7.106e-09
 32.48757    148.4 1.083e+04 8.377e-09
 32.50722    149.6 1.109e+04 1.047e-08
 32.52686    150.8 1.156e+04 1.426e-08
 32.54651    151.9 1.223e+04 2.115e-08
 32.56615    153.0 1.299e+04 3.237e-08
 32.58580    154.1 1.386e+04 4.962e-08
 32.60195    155.5 1.470e+04 7.245e-08
 32.61177    155.9 1.402e+04 5.159e-08
 32.62509    157.3 1.502e+04 8.028e-08
 32.64473    158.3 1.574e+04 1.079e-07
 32.65685    158.9 1.628e+04 1.337e-07
 32.66667    158.4 1.499e+04 6.935e-08
 32.68402    159.1 1.489e+04 6.394e-08
 32.70367    159.8 1.444e+04 4.961e-08
 32.72331    160.5 1.360e+04 3.288e-08
 32.74296    161.0 1.248e+04 1.963e-08
 32.76260    161.2 1.122e+04 1.165e-08
 32.78225    161.4 1.018e+04 7.743e-09
 32.80189    161.9 9.564e+03 6.140e-09
 32.82153    162.8 9.266e+03 5.477e-09
 32.84118    164.1 9.113e+03 5.136e-09
 32.85479    165.7 9.041e+03 4.916e-09
 32.86461    165.2 8.789e+03 4.154e-09
 32.88047    166.7 8.800e+03 4.159e-09
 32.90011    168.0 8.830e+03 4.205e-09
 32.91976    169.4 8.872e+03 4.361e-09
 32.93940    170.7 8.946e+03 4.639e-09
 32.95905    171.8 9.042e+03 4.997e-09
 32.97869    173.0 9.132e+03 5.380e-09
 32.99834    174.0 9.209e+03 5.689e-09
 33.01798    175.1 9.281e+03 5.883e-09
 33.03763    175.9 9.369e+03 5.904e-09
 33.04994    176.6 9.445e+03 5.864e-09
 33.05523    178.0 9.354e+03 5.799e-09
 33.06256    176.1 9.302e+03 5.336e-09
 33.07692    176.6 9.279e+03 4.996e-09
 33.09656    176.7 9.265e+03 4.629e-09
 33.11621    176.7 9.339e+03 4.681e-09
 33.13585    176.3 9.801e+03 5.269e-09
 33.15550    175.3 1.087e+04 7.565e-09
 33.17514    173.7 1.240e+04 1.323e-08
 33.19479    171.6 1.402e+04 2.464e-08
 33.21443    168.8 1.547e+04 4.173e-08
 33.23407    166.2 1.621e+04 5.434e-08
 33.24876    163.8 1.632e+04 5.378e-08
 33.25550    162.1 1.611e+04 5.167e-08
 33.26041    161.7 1.552e+04 4.569e-08
 33.27332    160.5 1.521e+04 4.152e-08
 33.29301    158.6 1.482e+04 3.393e-08
 33.31265    156.0 1.456e+04 2.932e-08
 33.33230    153.0 1.463e+04 2.980e-08
 33.35194    149.5 1.501e+04 3.475e-08
 33.37159    146.6 1.534e+04 4.168e-08
 33.38627    146.1 1.547e+04 4.652e-08
 33.39605    144.9 1.555e+04 5.149e-08
 33.40587    143.5 1.561e+04 5.320e-08
 33.41569    142.1 1.555e+04 5.249e-08
 33.42551    140.5 1.538e+04 4.865e-08
 33.43534    139.3 1.509e+04 4.380e-08
 33.44858    137.5 1.459e+04 3.396e-08
 33.45846    138.9 1.496e+04 4.045e-08
 33.46981    136.6 1.446e+04 3.007e-08
 33.48811    134.1 1.351e+04 1.833e-08
 33.49793    134.0 1.439e+04 2.717e-08
 33.50910    131.1 1.340e+04 1.690e-08
 33.52875    128.5 1.193e+04 9.518e-09
 33.54839    126.5 1.071e+04 6.234e-09
 33.56804    125.6 1.056e+04 5.614e-09
 33.58768    125.4 1.058e+04 5.754e-09
 33.60733    125.4 1.065e+04 6.291e-09
 33.62697    125.5 1.090e+04 7.638e-09
 33.64658    125.7 1.130e+04 9.813e-09
 33.66622    125.9 1.188e+04 1.324e-08
 33.68590    126.3 1.233e+04 1.739e-08
 33.70555    126.6 1.300e+04 2.472e-08
 33.72519    126.6 1.409e+04 3.902e-08
 33.74484    126.4 1.562e+04 6.039e-08
 33.75533    125.2 1.689e+04 8.997e-08
 33.76019    125.6 1.656e+04 8.011e-08
 33.76930    125.5 1.702e+04 9.074e-08
 33.77912    125.2 1.749e+04 1.050e-07
 33.78894    125.0 1.796e+04 1.254e-07
 33.79876    125.0 1.833e+04 1.494e-07
 33.80859    125.1 1.861e+04 1.752e-07
 33.81841    125.4 1.882e+04 2.046e-07
 33.82823    125.9 1.898e+04 2.458e-07
 33.83805    126.5 1.913e+04 3.160e-07
 33.84788    127.0 1.918e+04 4.412e-07
 33.85425    127.6 1.908e+04 6.551e-07
 33.85916    128.5 1.932e+04 4.004e-07
 33.86752    129.1 1.929e+04 6.217e-07
 33.87734    129.6 1.903e+04 9.541e-07
 33.88717    130.5 1.855e+04 1.401e-06
 33.89699    132.5 1.805e+04 2.033e-06
 33.90681    135.3 1.773e+04 3.098e-06
 33.91663    138.0 1.721e+04 6.921e-06
 33.92397    139.3 1.684e+04 1.155e-05
 33.92886    140.0 1.603e+04 2.608e-05
 33.93377    139.7 1.343e+04 3.126e-04
 33.93841    133.9 1.157e+04 2.172e-03
 33.94087    131.0 1.297e+04 5.511e-04
 33.94360    120.3 1.307e+04 5.255e-04
 33.94851    112.7 1.408e+04 1.808e-04
 33.95320    111.3 1.732e+04 8.536e-06
 33.95566    108.2 1.354e+04 3.422e-04
 33.95833    107.2 1.747e+04 1.439e-05
 33.96572    109.0 2.672e+04 5.999e-07
 33.97557    108.6 2.837e+04 8.963e-08
 33.98539    108.5 2.798e+04 2.994e-08
 34.00017    109.5 1.992e+04 1.568e-08
 34.01987    110.9 1.369e+04 1.567e-08
 34.03951    111.5 1.261e+04 1.666e-08
 34.05230    111.4 1.255e+04 1.665e-08
 34.06212    112.8 1.366e+04 2.571e-08
 34.07880    112.3 1.328e+04 2.324e-08
 34.09844    111.4 1.319e+04 1.930e-08
 34.11809    110.1 1.292e+04 1.493e-08
 34.13773    108.7 1.250e+04 1.173e-08
 34.15738    107.7 1.204e+04 9.679e-09
 34.17702    107.1 1.166e+04 8.249e-09
 34.19667    107.1 1.140e+04 7.072e-09
 34.21631    107.3 1.121e+04 6.018e-09
 34.23596    107.6 1.102e+04 4.980e-09
 34.25024    108.0 1.081e+04 4.087e-09
 34.26007    108.4 1.066e+04 3.836e-09
 34.27525    109.0 1.049e+04 3.184e-09
 34.29489    109.2 1.039e+04 2.867e-09
 34.32446    110.3 1.025e+04 2.649e-09
 34.36384    112.0 1.021e+04 2.668e-09
 34.38429    113.7 1.019e+04 2.747e-09
 34.40394    113.3 1.031e+04 3.367e-09
 34.43856    114.7 1.034e+04 3.628e-09
 34.45821    115.7 1.032e+04 3.540e-09
 34.48171    116.8 1.049e+04 3.978e-09
 34.52100    117.4 1.059e+04 4.345e-09
 34.56029    117.6 1.062e+04 4.571e-09
 34.59958    117.7 1.064e+04 4.865e-09
 34.63887    117.4 1.076e+04 5.840e-09
 34.67816    117.2 1.113e+04 7.930e-09
 34.71745    116.5 1.174e+04 1.092e-08
 34.74682    115.2 1.226e+04 1.348e-08
 34.76637    114.0 1.255e+04 1.515e-08
 34.78601    112.8 1.275e+04 1.648e-08
 34.80566    111.6 1.287e+04 1.807e-08
 34.82227    110.4 1.297e+04 2.020e-08
 34.83209    111.0 1.267e+04 1.665e-08
 34.84408    110.0 1.271e+04 1.797e-08
 34.85391    110.2 1.276e+04 1.583e-08
 34.86459    109.5 1.300e+04 1.636e-08
 34.88423    108.7 1.330e+04 1.701e-08
 34.90388    107.9 1.353e+04 1.761e-08
 34.92352    107.2 1.358e+04 1.815e-08
 34.94317    106.7 1.349e+04 1.875e-08
 34.96281    106.4 1.339e+04 1.795e-08
 34.98246    106.4 1.302e+04 1.649e-08
 35.00210    106.4 1.265e+04 1.476e-08
 35.03167    106.8 1.239e+04 1.271e-08
 35.07106    108.1 1.213e+04 1.123e-08
 35.11035    109.7 1.212e+04 1.031e-08
 35.14963    111.0 1.229e+04 1.080e-08
 35.17900    110.9 1.228e+04 1.134e-08
 35.19855    111.1 1.231e+04 1.263e-08
 35.21820    111.6 1.236e+04 1.407e-08
 35.23784    112.2 1.244e+04 1.605e-08
 35.24980    112.6 1.254e+04 1.828e-08
 35.25962    112.3 1.271e+04 2.249e-08
 35.27026    112.9 1.282e+04 2.324e-08
 35.28018    111.8 1.226e+04 1.519e-08
 35.30679    112.6 1.220e+04 1.378e-08
 35.34608    113.1 1.193e+04 9.688e-09
 35.38537    113.3 1.146e+04 5.890e-09
 35.42466    113.8 1.108e+04 4.122e-09
 35.46395    114.5 1.097e+04 3.405e-09
 35.50324    115.5 1.098e+04 3.042e-09
 35.54253    116.6 1.100e+04 2.737e-09
 35.58182    117.9 1.098e+04 2.338e-09
 35.62111    119.2 1.108e+04 1.811e-09
 35.64589    120.4 1.118e+04 1.425e-09
 35.66553    118.9 1.151e+04 2.706e-09
 35.69969    119.9 1.173e+04 3.201e-09
 35.73898    121.3 1.177e+04 3.892e-09
 35.77827    122.9 1.178e+04 4.183e-09
 35.81756    124.8 1.177e+04 3.898e-09
 35.85685    126.7 1.180e+04 3.396e-09
 35.89614    128.6 1.178e+04 3.091e-09
 35.93543    130.5 1.181e+04 2.751e-09
 35.97471    132.3 1.186e+04 2.491e-09
 36.01400    134.1 1.193e+04 2.317e-09
 36.04178    135.8 1.200e+04 2.164e-09
 36.06143    135.6 1.201e+04 2.154e-09
 36.09258    137.2 1.211e+04 2.040e-09
 36.13187    138.5 1.227e+04 1.896e-09
 36.15662    139.9 1.246e+04 1.738e-09
 36.17626    139.9 1.251e+04 2.618e-09
 36.21045    141.1 1.262e+04 2.500e-09
 36.24974    142.4 1.259e+04 2.499e-09
 36.28903    143.8 1.253e+04 2.516e-09
 36.32832    145.0 1.250e+04 2.547e-09
 36.36761    146.1 1.249e+04 2.583e-09
 36.40690    147.1 1.250e+04 2.603e-09
 36.43768    148.1 1.250e+04 2.583e-09
 36.45732    147.9 1.243e+04 1.923e-09
 36.48548    148.9 1.240e+04 2.084e-09
 36.52477    150.0 1.239e+04 2.303e-09
 36.56406    151.2 1.242e+04 2.565e-09
 36.60335    152.4 1.251e+04 2.868e-09
 36.64264    153.6 1.260e+04 3.037e-09
 36.68193    154.6 1.262e+04 2.982e-09
 36.72122    155.3 1.259e+04 2.777e-09
 36.76051    156.0 1.251e+04 2.559e-09
 36.79979    156.8 1.237e+04 2.486e-09
 36.83357    157.7 1.225e+04 2.391e-09
 36.85322    157.5 1.201e+04 1.841e-09
 36.87837    158.5 1.197e+04 1.599e-09
 36.91766    159.6 1.199e+04 1.567e-09
 36.95695    160.7 1.203e+04 1.621e-09
 36.99624    161.5 1.224e+04 1.910e-09
 37.03296    161.8 1.249e+04 2.330e-09
 37.05260    159.9 1.250e+04 2.143e-09
 37.06490    159.8 1.261e+04 2.395e-09
 37.08445    159.6 1.273e+04 2.741e-09
 37.10409    159.1 1.286e+04 3.254e-09
 37.12374    158.7 1.296e+04 3.811e-09
 37.14338    158.2 1.307e+04 4.383e-09
 37.16303    157.5 1.318e+04 5.138e-09
 37.18267    156.5 1.338e+04 6.440e-09
 37.20232    155.1 1.371e+04 8.774e-09
 37.22196    153.4 1.413e+04 1.271e-08
 37.23909    151.4 1.453e+04 1.846e-08
 37.24891    150.3 1.473e+04 2.290e-08
 37.26125    148.2 1.498e+04 2.972e-08
 37.28090    145.9 1.499e+04 3.184e-08
 37.30054    143.3 1.497e+04 3.171e-08
 37.32019    140.7 1.484e+04 3.136e-08
 37.33983    138.2 1.463e+04 3.049e-08
 37.35948    136.0 1.435e+04 2.797e-08
 37.37912    134.1 1.401e+04 2.423e-08
 37.39876    132.6 1.363e+04 1.952e-08
 37.41841    131.5 1.321e+04 1.463e-08
 37.43704    130.6 1.278e+04 1.065e-08
 37.44686    130.0 1.273e+04 1.024e-08
 37.45770    129.2 1.241e+04 8.089e-09
 37.47734    128.7 1.219e+04 7.163e-09
 37.49058    128.8 1.191e+04 5.904e-09
 37.50040    128.1 1.203e+04 6.766e-09
 37.51663    128.2 1.185e+04 6.020e-09
 37.54620    129.5 1.152e+04 4.534e-09
 37.58559    130.7 1.119e+04 3.534e-09
 37.62488    132.1 1.094e+04 2.661e-09
 37.64500    133.6 1.077e+04 2.013e-09
 37.66465    133.2 1.080e+04 1.931e-09
 37.70345    135.0 1.052e+04 1.596e-09
 37.74274    137.0 1.031e+04 1.576e-09
 37.78203    139.2 1.029e+04 1.610e-09
 37.82132    141.1 1.028e+04 1.844e-09
 37.86061    142.7 1.041e+04 2.664e-09
 37.89990    143.6 1.070e+04 4.174e-09
 37.92894    143.7 1.090e+04 5.567e-09
 37.94859    142.2 1.083e+04 5.293e-09
 37.97848    141.9 1.081e+04 5.264e-09
 38.01777    141.7 1.064e+04 4.792e-09
 38.04090    141.7 1.035e+04 3.884e-09
 38.06054    141.8 1.056e+04 4.758e-09
 38.09635    142.0 1.024e+04 3.631e-09
 38.13564    142.4 1.003e+04 3.015e-09
 38.17493    142.8 9.970e+03 2.945e-09
 38.21422    143.3 9.960e+03 3.034e-09
 38.25351    143.9 9.990e+03 3.279e-09
 38.29280    144.4 1.008e+04 3.687e-09
 38.33209    145.0 1.021e+04 4.245e-09
 38.37138    145.4 1.034e+04 4.789e-09
 38.41067    145.7 1.041e+04 5.073e-09
 38.43679    146.1 1.039e+04 5.010e-09
 38.45644    145.5 1.068e+04 6.255e-09
 38.48924    146.1 1.049e+04 5.083e-09
 38.52853    147.0 1.028e+04 4.036e-09
 38.56782    148.1 1.008e+04 3.306e-09
 38.60711    149.4 9.903e+03 2.856e-09
 38.64640    150.8 9.794e+03 2.560e-09
 38.68569    152.1 9.705e+03 2.297e-09
 38.72498    153.4 9.634e+03 2.150e-09
 38.76427    154.7 9.563e+03 2.116e-09
 38.80356    156.2 9.552e+03 2.131e-09
 38.82493    157.7 9.550e+03 2.242e-09
 38.83441    156.5 9.334e+03 1.993e-09
 38.85233    156.6 9.277e+03 1.557e-09
 38.88214    158.2 9.330e+03 1.674e-09
 38.92143    159.7 9.419e+03 1.863e-09
 38.96072    161.1 9.544e+03 2.115e-09
 39.00001    162.2 9.677e+03 2.381e-09
 39.03930    163.2 9.784e+03 2.607e-09
 39.07859    164.2 9.881e+03 2.800e-09
 39.11788    164.8 9.976e+03 2.955e-09
 39.14725    165.1 9.978e+03 3.004e-09
 39.16679    165.6 1.000e+04 3.052e-09
 39.18644    166.3 1.009e+04 3.180e-09
 39.20608    166.8 1.021e+04 3.362e-09
 39.22573    167.2 1.034e+04 3.584e-09
 39.23821    167.5 1.046e+04 3.864e-09
 39.24803    167.6 1.047e+04 3.978e-09
 39.26290    167.9 1.063e+04 4.400e-09
 39.27273    167.4 1.069e+04 4.793e-09
 39.28466    167.6 1.084e+04 5.299e-09
 39.30431    167.8 1.099e+04 5.825e-09
 39.32395    167.9 1.113e+04 6.343e-09
 39.34360    168.1 1.126e+04 6.831e-09
 39.36324    168.1 1.138e+04 7.286e-09
 39.38289    168.1 1.148e+04 7.735e-09
 39.40253    167.9 1.160e+04 8.223e-09
 39.42218    167.7 1.175e+04 8.730e-09
 39.43615    167.3 1.190e+04 9.165e-09
 39.44598    167.0 1.206e+04 1.010e-08
 39.46147    166.4 1.206e+04 9.839e-09
 39.48111    166.0 1.202e+04 9.173e-09
 39.50075    165.6 1.193e+04 8.190e-09
 39.52040    165.4 1.183e+04 7.192e-09
 39.54004    165.3 1.177e+04 6.386e-09
 39.55969    165.3 1.174e+04 5.928e-09
 39.57933    165.4 1.173e+04 5.697e-09
 39.59898    165.6 1.174e+04 5.702e-09
 39.61862    165.8 1.179e+04 5.763e-09
 39.63410    165.9 1.190e+04 5.950e-09
 39.64392    165.4 1.201e+04 6.517e-09
 39.65791    165.3 1.214e+04 7.122e-09
 39.67756    165.0 1.230e+04 8.038e-09
 39.69720    164.6 1.254e+04 9.546e-09
 39.71090    163.9 1.293e+04 1.233e-08
 39.72072    163.9 1.264e+04 1.206e-08
 39.73649    163.1 1.308e+04 1.614e-08
 39.75614    161.8 1.370e+04 2.310e-08
 39.77578    160.0 1.439e+04 3.097e-08
 39.79543    157.6 1.483e+04 3.266e-08
 39.81507    154.7 1.482e+04 3.129e-08
 39.83205    152.1 1.458e+04 2.423e-08
 39.84187    151.3 1.417e+04 1.925e-08
 39.85436    149.4 1.357e+04 1.124e-08
 39.87401    147.6 1.278e+04 5.789e-09
 39.89365    146.0 1.196e+04 4.000e-09
 39.91330    145.8 1.180e+04 3.926e-09
 39.93294    145.9 1.179e+04 3.928e-09
 39.95258    146.3 1.178e+04 3.970e-09
 39.97223    146.7 1.178e+04 4.164e-09
 39.99187    147.3 1.181e+04 4.570e-09
 40.01152    147.8 1.191e+04 5.161e-09
 40.02999    148.2 1.209e+04 5.834e-09
 40.03982    148.6 1.193e+04 5.247e-09
 40.05081    148.7 1.216e+04 5.918e-09
 40.07045    148.6 1.249e+04 6.896e-09
 40.09010    147.8 1.303e+04 9.504e-09
 40.10974    146.2 1.391e+04 1.710e-08
 40.12939    144.2 1.502e+04 3.594e-08
 40.14903    141.8 1.605e+04 6.689e-08
 40.16868    139.8 1.620e+04 6.396e-08
 40.18832    136.6 1.642e+04 6.566e-08
 40.20797    133.5 1.630e+04 5.658e-08
 40.22761    130.9 1.582e+04 3.421e-08
 40.23776    128.4 1.512e+04 1.587e-08
 40.24759    129.5 1.517e+04 1.734e-08
 40.26690    126.7 1.420e+04 7.654e-09
 40.28655    124.2 1.309e+04 5.814e-09
 40.30619    123.2 1.301e+04 5.778e-09
 40.32584    122.9 1.303e+04 5.900e-09
 40.34548    122.3 1.317e+04 6.581e-09
 40.36512    121.2 1.353e+04 9.427e-09
 40.38477    120.0 1.411e+04 1.657e-08
 40.40441    119.3 1.455e+04 2.350e-08
 40.41910    119.1 1.489e+04 2.568e-08
 40.42887    118.0 1.580e+04 3.271e-08
 40.43561    114.8 1.754e+04 5.906e-08
 40.44052    114.1 1.731e+04 4.380e-08
 40.44852    109.7 1.955e+04 1.693e-07
 40.45834    106.5 1.881e+04 1.037e-06
 40.46816    103.1 1.792e+04 3.508e-06
 40.47798     98.4 1.780e+04 4.802e-06
 40.48781     93.5 1.797e+04 3.987e-06
 40.49763     90.0 1.867e+04 1.842e-06
 40.50745     87.3 2.021e+04 4.573e-07
 40.51727     83.6 2.082e+04 1.208e-07
 40.52710     79.5 1.960e+04 5.020e-08
 40.54188     75.7 1.710e+04 4.424e-08
 40.56157     73.4 1.376e+04 2.235e-08
 40.58122     73.3 1.228e+04 1.653e-08
 40.59706     74.3 1.187e+04 1.416e-08
 40.61680     74.7 1.169e+04 1.137e-08
 40.65017     76.8 1.117e+04 8.473e-09
 40.68946     78.8 1.063e+04 6.016e-09
 40.72875     80.7 1.019e+04 4.559e-09
 40.76804     82.6 9.951e+03 3.886e-09
 40.80733     84.5 9.755e+03 3.951e-09
 40.83180     86.3 9.710e+03 4.122e-09
 40.85145     86.0 9.608e+03 4.263e-09
 40.88591     87.6 9.599e+03 4.323e-09
 40.92520     89.1 9.527e+03 4.211e-09
 40.96449     90.6 9.326e+03 3.711e-09
 41.00377     92.2 9.068e+03 2.949e-09
 41.04306     94.0 8.797e+03 2.273e-09
 41.08235     96.0 8.578e+03 1.853e-09
 41.12164     98.2 8.527e+03 1.839e-09
 41.16093    100.4 8.551e+03 1.970e-09
 41.20022    102.6 8.689e+03 2.550e-09
 41.22769    104.5 9.035e+03 3.618e-09
 41.24734    104.4 9.328e+03 4.854e-09
 41.27880    106.1 9.805e+03 6.735e-09
 41.31809    107.0 9.926e+03 7.036e-09
 41.35738    107.7 9.843e+03 6.731e-09
 41.39667    108.7 9.514e+03 5.518e-09
 41.43596    110.0 9.037e+03 3.934e-09
 41.47360    111.7 8.565e+03 2.651e-09
 41.49324    110.8 8.687e+03 3.058e-09
 41.51454    112.8 8.390e+03 2.329e-09
 41.55383    114.8 8.209e+03 1.855e-09
 41.59312    116.8 8.145e+03 1.646e-09
 41.62359    118.8 8.153e+03 1.634e-09
 41.64323    118.2 7.950e+03 1.234e-09
 41.67170    120.2 7.984e+03 1.307e-09
 41.71099    122.0 8.103e+03 1.523e-09
 41.75028    123.7 8.301e+03 1.915e-09
 41.78957    125.2 8.556e+03 2.464e-09
 41.82886    126.5 8.856e+03 2.972e-09
 41.86814    127.5 9.124e+03 3.080e-09
 41.90743    128.2 9.157e+03 3.042e-09
 41.94672    129.1 9.254e+03 2.877e-09
 41.98601    130.1 9.401e+03 2.746e-09
 42.01948    130.8 9.467e+03 2.757e-09
 42.03913    130.7 9.463e+03 2.590e-09
 42.06459    131.4 9.524e+03 2.656e-09
 42.09396    132.2 9.660e+03 3.209e-09
 42.11351    133.0 9.765e+03 3.624e-09
 42.13315    133.9 9.893e+03 3.965e-09
 42.15280    134.7 1.013e+04 4.391e-09
 42.17244    134.8 1.053e+04 5.265e-09
 42.19209    134.5 1.111e+04 7.441e-09
 42.21173    134.0 1.185e+04 1.260e-08
 42.22706    133.8 1.273e+04 2.292e-08
 42.23688    133.6 1.251e+04 2.084e-08
 42.25102    133.5 1.338e+04 3.407e-08
 42.27067    133.1 1.427e+04 4.451e-08
 42.29031    131.8 1.474e+04 4.535e-08
 42.30996    129.8 1.484e+04 4.201e-08
 42.32960    127.4 1.479e+04 3.182e-08
 42.34925    124.9 1.424e+04 2.114e-08
 42.36889    122.8 1.332e+04 1.356e-08
 42.37921    121.3 1.245e+04 8.884e-09
 42.38903    120.9 1.209e+04 8.346e-09
 42.41528    119.7 1.157e+04 5.098e-09
 42.43502    119.3 1.156e+04 3.797e-09
 42.45749    117.9 1.102e+04 2.137e-09
 42.49678    117.7 1.097e+04 2.092e-09
 42.53607    118.1 1.097e+04 2.243e-09
 42.57536    118.4 1.107e+04 2.975e-09
 42.61465    118.5 1.135e+04 4.538e-09
 42.65394    118.3 1.181e+04 6.764e-09
 42.69322    117.3 1.236e+04 8.196e-09
 42.73251    115.6 1.247e+04 8.108e-09
 42.77180    114.1 1.237e+04 7.134e-09
 42.81109    113.3 1.198e+04 5.643e-09
 42.85038    112.9 1.199e+04 5.005e-09
 42.88967    112.8 1.200e+04 5.215e-09
 42.92896    112.8 1.196e+04 5.621e-09
 42.96825    113.0 1.192e+04 5.653e-09
 43.00754    113.6 1.174e+04 5.407e-09
 43.04683    114.7 1.150e+04 4.599e-09
 43.08612    116.1 1.124e+04 3.728e-09
 43.12541    117.7 1.109e+04 3.078e-09
 43.16470    119.3 1.114e+04 2.906e-09
 43.20399    121.0 1.116e+04 2.913e-09
 43.22681    122.5 1.127e+04 2.984e-09
 43.24645    122.7 1.156e+04 2.759e-09
 43.26557    124.1 1.162e+04 3.101e-09
 43.28521    123.5 1.149e+04 2.736e-09
 43.32186    125.1 1.161e+04 3.468e-09
 43.36115    126.6 1.176e+04 4.379e-09
 43.40044    128.2 1.199e+04 5.316e-09
 43.43973    129.5 1.226e+04 6.167e-09
 43.47902    130.7 1.257e+04 6.755e-09
 43.51830    131.5 1.281e+04 7.113e-09
 43.55759    131.7 1.283e+04 7.127e-09
 43.59688    131.8 1.276e+04 6.934e-09
 43.62270    131.9 1.251e+04 6.195e-09
 43.64235    132.3 1.268e+04 5.765e-09
 43.67546    132.5 1.241e+04 4.345e-09
 43.71475    132.8 1.213e+04 2.791e-09
 43.75404    133.4 1.197e+04 1.564e-09
 43.79333    134.1 1.196e+04 8.314e-10
 43.83262    134.8 1.191e+04 5.226e-10
 43.87191    135.9 1.176e+04 4.888e-10
 43.91120    137.4 1.175e+04 4.909e-10
 43.95049    139.0 1.170e+04 5.054e-10
 43.98978    140.6 1.172e+04 5.391e-10
 44.01860    142.2 1.178e+04 5.900e-10
 44.03824    142.7 1.195e+04 6.783e-10
 44.06836    144.4 1.199e+04 7.447e-10
 44.10765    146.2 1.202e+04 7.578e-10
 44.14191    148.0 1.200e+04 7.540e-10
 44.16155    148.3 1.205e+04 8.402e-10
 44.18623    150.1 1.202e+04 8.457e-10
 44.22552    151.9 1.195e+04 8.458e-10
 44.26481    153.7 1.186e+04 8.409e-10
 44.30410    155.7 1.180e+04 8.374e-10
 44.34339    157.7 1.178e+04 8.399e-10
 44.38267    159.8 1.174e+04 8.601e-10
 44.41449    162.0 1.169e+04 9.184e-10
 44.43414    162.3 1.177e+04 1.023e-09
 44.46125    164.5 1.178e+04 1.072e-09
 44.50054    166.6 1.175e+04 1.196e-09
 44.53983    168.8 1.174e+04 1.416e-09
 44.57912    170.8 1.178e+04 1.739e-09
 44.61841    172.6 1.194e+04 2.177e-09
 44.65770    174.3 1.212e+04 2.668e-09
 44.69699    175.7 1.230e+04 2.872e-09
 44.73628    177.1 1.232e+04 2.840e-09
 44.77557    178.5 1.233e+04 2.623e-09
 44.81038    180.0 1.233e+04 2.189e-09
 44.83003    179.8 1.244e+04 2.282e-09
 44.85415    181.6 1.245e+04 1.862e-09
 44.89344    183.7 1.257e+04 1.707e-09
 44.93273    185.7 1.261e+04 1.727e-09
 44.97202    187.8 1.274e+04 1.837e-09
 45.01131    189.8 1.286e+04 2.081e-09
 45.03789    191.9 1.287e+04 2.344e-09
 45.05754    192.2 1.274e+04 2.294e-09
 45.08989    194.3 1.270e+04 2.446e-09
 45.12918    196.3 1.266e+04 2.596e-09
 45.16847    198.8 1.267e+04 2.798e-09
 45.19783    199.8 1.271e+04 3.005e-09
 45.21591    200.7 1.274e+04 3.331e-09
 45.22573    200.7 1.268e+04 5.620e-09
 45.23703    201.8 1.272e+04 6.083e-09
 45.25667    203.1 1.277e+04 6.531e-09
 45.27632    204.3 1.282e+04 6.975e-09
 45.29596    205.5 1.288e+04 7.426e-09
 45.31561    206.7 1.295e+04 7.920e-09
 45.33525    207.9 1.304e+04 8.558e-09
 45.35490    209.1 1.317e+04 9.470e-09
 45.37454    210.1 1.334e+04 1.080e-08
 45.39418    211.1 1.354e+04 1.275e-08
 45.41383    212.1 1.380e+04 1.551e-08
 45.43347    212.8 1.413e+04 2.054e-08
 45.45312    213.4 1.439e+04 2.460e-08
 45.47276    214.0 1.464e+04 2.924e-08
 45.48569    214.4 1.472e+04 3.115e-08
 45.49551    214.6 1.423e+04 2.741e-08
 45.51205    214.8 1.423e+04 2.689e-08
 45.53170    214.9 1.419e+04 2.526e-08
 45.55134    214.9 1.409e+04 2.270e-08
 45.57099    214.9 1.395e+04 1.970e-08
 45.59063    214.7 1.376e+04 1.677e-08
 45.61028    214.5 1.355e+04 1.425e-08
 45.62162    214.4 1.332e+04 1.241e-08
 45.63144    213.8 1.290e+04 1.067e-08
 45.64957    213.8 1.278e+04 1.050e-08
 45.66921    214.0 1.277e+04 1.053e-08
 45.68886    214.2 1.278e+04 1.071e-08
 45.70850    214.3 1.285e+04 1.111e-08
 45.72815    214.3 1.292e+04 1.167e-08
 45.74779    214.2 1.298e+04 1.239e-08
 45.76744    214.0 1.301e+04 1.327e-08
 45.78708    213.6 1.303e+04 1.423e-08
 45.80672    213.0 1.306e+04 1.501e-08
 45.81957    212.1 1.310e+04 1.517e-08
 45.82939    212.4 1.336e+04 1.755e-08
 45.84601    211.4 1.332e+04 1.725e-08
 45.86566    210.2 1.313e+04 1.578e-08
 45.88530    208.9 1.284e+04 1.333e-08
 45.90495    207.7 1.253e+04 1.077e-08
 45.92386    206.4 1.224e+04 8.592e-09
 45.93368    206.9 1.222e+04 8.275e-09
 45.94424    205.7 1.188e+04 6.538e-09
 45.96388    204.6 1.161e+04 5.184e-09
 45.98353    203.6 1.139e+04 4.201e-09
 46.00317    202.6 1.117e+04 3.602e-09
 46.01752    202.0 1.089e+04 3.460e-09
 46.02734    201.8 1.123e+04 4.322e-09
 46.04246    201.3 1.118e+04 4.315e-09
 46.06211    200.9 1.117e+04 4.321e-09
 46.08175    200.7 1.116e+04 4.376e-09
 46.10140    200.5 1.115e+04 4.540e-09
 46.12104    200.4 1.115e+04 4.821e-09
 46.14069    200.4 1.118e+04 5.193e-09
 46.16033    200.4 1.122e+04 5.631e-09
 46.17998    200.5 1.127e+04 6.040e-09
 46.19962    200.6 1.131e+04 6.280e-09
 46.21546    200.8 1.130e+04 6.375e-09
 46.22528    199.9 1.133e+04 6.237e-09
 46.23891    200.2 1.133e+04 6.245e-09
 46.25855    200.4 1.134e+04 6.311e-09
 46.27820    200.7 1.137e+04 6.568e-09
 46.29784    201.0 1.146e+04 6.989e-09
 46.31749    201.4 1.166e+04 7.714e-09
 46.33713    201.9 1.189e+04 8.859e-09
 46.35678    202.4 1.212e+04 1.047e-08
 46.37185    202.9 1.253e+04 1.323e-08
 46.38168    203.6 1.226e+04 1.123e-08
 46.39607    204.0 1.308e+04 1.533e-08
 46.41341    204.6 1.414e+04 2.385e-08
 46.42323    202.6 1.479e+04 2.954e-08
 46.43536    202.7 1.529e+04 3.633e-08
 46.45004    203.4 1.571e+04 4.539e-08
 46.45982    202.8 1.654e+04 6.084e-08
 46.46964    201.9 1.758e+04 9.090e-08
 46.47946    200.7 1.852e+04 1.511e-07
 46.48928    199.2 1.912e+04 2.743e-07
 46.49911    197.1 1.940e+04 5.364e-07
 46.50893    193.9 1.895e+04 1.110e-06
 46.51720    189.4 1.915e+04 1.310e-06
 46.52211    186.1 1.988e+04 4.481e-07
 46.52857    180.7 2.039e+04 3.260e-07
 46.53839    175.2 2.034e+04 2.017e-07
 46.54822    169.3 1.963e+04 1.202e-07
 46.55804    165.7 1.869e+04 8.423e-08
 46.56786    163.6 1.887e+04 5.806e-08
 46.57768    161.4 1.857e+04 3.737e-08
 46.59247    157.2 1.795e+04 1.870e-08
 46.61136    149.2 1.193e+04 6.694e-09
 46.62118    148.5 1.147e+04 8.329e-09
 46.63180    145.6 1.001e+04 6.443e-09
 46.65145    145.6 9.740e+03 6.168e-09
 46.67109    145.7 9.643e+03 5.935e-09
 46.69074    146.0 9.522e+03 5.477e-09
 46.71038    146.3 9.340e+03 4.805e-09
 46.73003    146.2 9.078e+03 3.862e-09
 46.74967    146.1 8.895e+03 3.346e-09
 46.76932    146.3 8.654e+03 2.813e-09
 46.78896    146.4 8.483e+03 2.514e-09
 46.80940    147.2 8.438e+03 2.542e-09
 46.82074    147.2 8.067e+03 1.930e-09
 46.82986    148.3 8.080e+03 1.982e-09
 46.85792    149.6 8.020e+03 1.929e-09
 46.89720    151.1 8.040e+03 1.959e-09
 46.93649    152.4 8.129e+03 2.100e-09
 46.97578    153.6 8.276e+03 2.374e-09
 47.00515    153.8 8.351e+03 2.619e-09
 47.01707    154.4 8.503e+03 3.002e-09
 47.02690    154.5 8.358e+03 2.657e-09
 47.04435    155.0 8.560e+03 3.155e-09
 47.06399    155.3 9.051e+03 4.378e-09
 47.08363    155.3 9.756e+03 6.559e-09
 47.10328    155.1 1.064e+04 1.008e-08
 47.12292    154.5 1.162e+04 1.541e-08
 47.14257    153.5 1.253e+04 2.199e-08
 47.16221    152.0 1.317e+04 2.560e-08
 47.18186    150.0 1.324e+04 2.540e-08
 47.20150    147.8 1.315e+04 2.311e-08
 47.21502    145.8 1.275e+04 1.777e-08
 47.22484    147.1 1.282e+04 1.880e-08
 47.24079    145.1 1.230e+04 1.315e-08
 47.25802    143.2 1.176e+04 9.154e-09
 47.26784    144.3 1.190e+04 9.781e-09
 47.29000    141.3 1.115e+04 5.445e-09
 47.32939    137.4 9.984e+03 2.752e-09
 47.36868    134.6 9.402e+03 1.836e-09
 47.40797    132.9 9.264e+03 1.548e-09
 47.44726    131.9 9.226e+03 1.510e-09
 47.48655    131.2 9.231e+03 1.519e-09
 47.52584    130.5 9.256e+03 1.610e-09
 47.56513    129.5 9.346e+03 2.098e-09
 47.60129    128.0 9.873e+03 3.738e-09
 47.62093    127.7 9.925e+03 3.882e-09
 47.63379    126.6 1.026e+04 5.294e-09
 47.65333    125.8 1.057e+04 6.760e-09
 47.67298    124.9 1.084e+04 8.385e-09
 47.69262    123.9 1.093e+04 9.186e-09
 47.70601    122.8 1.090e+04 9.068e-09
 47.71583    122.1 1.062e+04 7.764e-09
 47.73191    121.0 1.041e+04 6.974e-09
 47.75156    119.8 1.011e+04 5.931e-09
 47.77120    118.6 9.812e+03 5.232e-09
 47.79085    117.3 9.724e+03 5.143e-09
 47.80886    116.3 9.723e+03 5.200e-09
 47.81868    115.6 9.284e+03 4.037e-09
 47.83014    114.5 9.433e+03 4.669e-09
 47.84978    114.0 9.520e+03 5.114e-09
 47.86943    113.4 9.818e+03 6.309e-09
 47.88907    113.3 9.922e+03 6.878e-09
 47.91863    112.8 1.030e+04 8.241e-09
 47.95802    112.1 1.020e+04 8.016e-09
 47.99718    112.1 9.815e+03 6.838e-09
 48.03647    111.7 9.456e+03 5.704e-09
 48.06597    111.2 9.590e+03 5.991e-09
 48.08552    111.2 9.767e+03 6.408e-09
 48.10516    111.3 9.973e+03 7.012e-09
 48.12481    111.4 1.021e+04 7.843e-09
 48.14418    111.6 1.052e+04 8.982e-09
 48.15400    111.4 1.040e+04 8.408e-09
 48.16410    111.5 1.069e+04 9.501e-09
 48.18374    111.5 1.091e+04 1.058e-08
 48.20339    111.5 1.092e+04 1.082e-08
 48.21458    111.5 1.087e+04 1.072e-08
 48.22440    111.2 1.105e+04 1.180e-08
 48.24268    111.6 1.079e+04 1.080e-08
 48.26232    112.1 1.046e+04 9.473e-09
 48.28197    112.7 1.014e+04 8.181e-09
 48.30161    113.3 9.854e+03 7.137e-09
 48.32125    113.9 9.688e+03 6.531e-09
 48.34090    114.7 9.662e+03 6.475e-09
 48.36054    115.5 9.683e+03 6.570e-09
 48.38019    116.4 9.760e+03 6.833e-09
 48.39983    117.3 9.915e+03 7.318e-09
 48.41252    118.2 1.018e+04 7.829e-09
 48.42235    117.9 9.969e+03 6.482e-09
 48.43912    118.6 1.023e+04 6.424e-09
 48.46869    118.9 1.027e+04 5.994e-09
 48.50808    119.7 1.025e+04 5.800e-09
 48.54736    120.3 1.033e+04 5.855e-09
 48.58255    120.5 1.072e+04 6.556e-09
 48.60219    120.2 1.144e+04 1.052e-08
 48.62594    120.0 1.199e+04 1.245e-08
 48.66523    119.7 1.207e+04 1.254e-08
 48.70452    119.4 1.192e+04 1.110e-08
 48.73389    118.9 1.174e+04 9.760e-09
 48.75344    118.6 1.149e+04 8.337e-09
 48.77308    118.2 1.122e+04 7.090e-09
 48.79273    118.0 1.100e+04 6.797e-09
 48.80842    118.0 1.099e+04 6.878e-09
 48.81824    117.8 1.097e+04 6.527e-09
 48.83202    117.8 1.097e+04 7.014e-09
 48.85166    117.8 1.108e+04 8.018e-09
 48.87131    118.1 1.130e+04 9.445e-09
 48.89095    118.5 1.161e+04 1.131e-08
 48.91060    118.9 1.198e+04 1.348e-08
 48.93024    119.4 1.233e+04 1.545e-08
 48.94989    119.8 1.260e+04 1.663e-08
 48.96953    120.2 1.283e+04 1.727e-08
 48.98918    120.4 1.301e+04 1.772e-08
 49.00636    120.7 1.307e+04 1.843e-08
 49.01619    119.8 1.338e+04 2.222e-08
 49.02847    120.1 1.327e+04 2.245e-08
 49.04017    120.6 1.316e+04 2.229e-08
 49.04999    121.1 1.351e+04 2.392e-08
 49.06776    121.7 1.346e+04 2.353e-08
 49.08740    122.4 1.352e+04 2.388e-08
 49.10705    122.3 1.383e+04 2.591e-08
 49.12669    121.8 1.456e+04 3.253e-08
 49.14634    121.6 1.528e+04 4.372e-08
 49.16102    121.1 1.561e+04 5.012e-08
 49.17079    120.6 1.600e+04 5.791e-08
 49.18062    120.2 1.655e+04 7.027e-08
 49.19044    119.6 1.719e+04 8.696e-08
 49.20026    118.8 1.786e+04 1.069e-07
 49.20913    117.8 1.848e+04 1.268e-07
 49.21404    115.8 1.863e+04 1.229e-07
 49.21991    114.3 1.915e+04 1.381e-07
 49.22973    112.6 1.950e+04 1.496e-07
 49.23955    110.6 1.977e+04 1.568e-07
 49.24937    108.6 2.005e+04 1.635e-07
 49.25915    106.6 2.022e+04 1.734e-07
 49.26897    102.9 2.005e+04 2.793e-07
 49.27884    101.0 2.005e+04 2.633e-07
 49.28866     99.4 1.981e+04 2.333e-07
 49.30344     98.0 1.935e+04 1.688e-07
 49.32314     96.0 1.838e+04 1.149e-07
 49.34278     94.5 1.730e+04 7.169e-08
 49.36243     92.7 1.646e+04 4.369e-08
 49.38207     90.4 1.606e+04 2.977e-08
 49.40172     87.6 1.552e+04 2.428e-08
 49.41203     84.2 1.651e+04 2.134e-08
 49.42185     79.4 1.789e+04 1.717e-08
 49.43605     77.1 2.387e+04 1.734e-08
 49.44582     48.0 6.905e+04 9.541e-09
 49.45564     11.7 3.035e+04 1.177e-06
 49.46546    -16.3 1.877e+04 8.722e-06
 49.47529    -50.9 3.341e+04 3.998e-07
 49.48315    -89.4 2.411e+04 6.147e-08
 49.48806    -93.0 1.832e+04 5.552e-08
 49.49493    -97.5 1.671e+04 4.665e-08
 49.50475   -101.5 1.659e+04 3.879e-08
 49.51096   -105.1 1.625e+04 3.239e-08
 49.51587   -105.8 1.606e+04 3.054e-08
 49.52440   -107.4 1.593e+04 2.815e-08
 49.53918   -114.4 1.420e+04 1.974e-08
 49.55888   -120.4 1.313e+04 1.586e-08
 49.57852   -122.9 1.293e+04 1.508e-08
 49.59816   -124.9 1.280e+04 1.484e-08
 49.61003   -126.5 1.262e+04 1.459e-08
 49.61985   -126.6 1.259e+04 1.477e-08
 49.63745   -127.8 1.249e+04 1.472e-08
 49.65710   -128.7 1.237e+04 1.428e-08
 49.67674   -129.3 1.223e+04 1.361e-08
 49.69639   -129.8 1.207e+04 1.285e-08
 49.71603   -130.2 1.190e+04 1.223e-08
 49.73568   -130.3 1.175e+04 1.166e-08
 49.75532   -130.4 1.157e+04 1.091e-08
 49.77497   -130.3 1.133e+04 9.857e-09
 49.79461   -130.0 1.103e+04 8.520e-09
 49.80797   -129.7 1.070e+04 7.164e-09
 49.81780   -129.7 1.066e+04 7.006e-09
 49.83390   -129.4 1.030e+04 5.742e-09
 49.85355   -129.1 9.990e+03 4.829e-09
 49.87319   -128.7 9.754e+03 4.278e-09
 49.89284   -128.3 9.584e+03 3.983e-09
 49.91248   -127.7 9.467e+03 3.831e-09
 49.92633   -126.9 9.393e+03 3.748e-09
 49.93615   -126.5 9.594e+03 3.996e-09
 49.95177   -125.6 9.553e+03 3.903e-09
 49.97142   -124.7 9.531e+03 3.840e-09
 49.99106   -123.7 9.513e+03 3.777e-09
 50.00592   -122.6 9.503e+03 3.688e-09
 50.01574   -122.3 9.493e+03 3.525e-09
 50.04027   -121.1 9.548e+03 3.441e-09
 50.07966   -119.4 9.566e+03 3.275e-09
 50.11895   -117.7 9.584e+03 3.068e-09
 50.14832   -116.5 9.628e+03 3.091e-09
 50.16786   -116.0 9.635e+03 3.132e-09
 50.18751   -115.4 9.667e+03 3.283e-09
 50.20387   -114.6 9.729e+03 3.548e-09
 50.21369   -114.5 9.684e+03 3.259e-09
 50.22680   -113.8 9.765e+03 3.642e-09
 50.24644   -113.1 9.908e+03 4.145e-09
 50.26609   -112.8 1.022e+04 5.056e-09
 50.28573   -113.3 1.103e+04 7.249e-09
 50.30538   -114.6 1.236e+04 1.326e-08
 50.32502   -115.5 1.377e+04 2.690e-08
 50.34467   -115.7 1.503e+04 4.799e-08
 50.36431   -115.9 1.582e+04 6.644e-08
 50.37432   -116.9 1.600e+04 7.077e-08
 50.38414   -117.9 1.599e+04 7.127e-08
 50.40182   -118.6 1.562e+04 5.921e-08
 50.41164   -118.1 1.566e+04 6.257e-08
 50.42324   -118.6 1.451e+04 3.399e-08
 50.44289   -119.7 1.292e+04 1.542e-08
 50.46253   -121.1 1.167e+04 8.262e-09
 50.48218   -121.8 1.111e+04 6.227e-09
 50.50182   -121.9 1.089e+04 5.636e-09
 50.52147   -121.8 1.084e+04 5.503e-09
 50.54111   -121.7 1.086e+04 5.552e-09
 50.56076   -121.8 1.096e+04 5.962e-09
 50.58040   -121.9 1.106e+04 6.772e-09
 50.59976   -122.0 1.112e+04 7.845e-09
 50.60959   -121.4 1.093e+04 6.811e-09
 50.61969   -121.4 1.096e+04 7.812e-09
 50.63934   -121.4 1.095e+04 8.646e-09
 50.65898   -121.3 1.091e+04 8.993e-09
 50.67863   -121.1 1.080e+04 8.951e-09
 50.69827   -120.9 1.061e+04 8.244e-09
 50.71792   -120.7 1.040e+04 7.262e-09
 50.73756   -120.6 1.018e+04 6.241e-09
 50.75721   -120.5 9.960e+03 5.379e-09
 50.77685   -120.4 9.766e+03 4.779e-09
 50.79650   -120.3 9.606e+03 4.437e-09
 50.80753   -120.1 9.467e+03 4.329e-09
 50.81371   -120.0 9.430e+03 4.142e-09
 50.82231   -121.1 9.500e+03 4.597e-09
 50.83578   -120.7 9.393e+03 4.543e-09
 50.85543   -120.2 9.306e+03 4.512e-09
 50.87507   -119.6 9.201e+03 4.462e-09
 50.89472   -119.0 9.103e+03 4.335e-09
 50.91436   -118.2 9.002e+03 4.204e-09
 50.93401   -117.3 8.900e+03 4.008e-09
 50.95365   -116.5 8.844e+03 3.758e-09
 50.97330   -115.8 8.813e+03 3.601e-09
 50.99294   -115.4 8.768e+03 3.523e-09
 51.00548   -114.6 8.696e+03 3.399e-09
 51.01530   -114.4 8.761e+03 3.500e-09
 51.03223   -114.0 8.731e+03 3.449e-09
 51.06180   -112.7 8.693e+03 3.439e-09
 51.10118   -111.2 8.590e+03 3.246e-09
 51.14047   -109.8 8.464e+03 3.028e-09
 51.17976   -108.3 8.384e+03 2.918e-09
 51.20362   -106.9 8.390e+03 2.921e-09
 51.22327   -106.8 8.519e+03 3.052e-09
 51.24842   -105.8 8.394e+03 2.914e-09
 51.26048   -105.4 8.401e+03 2.953e-09
 51.27040   -106.2 8.290e+03 2.742e-09
 51.29763   -104.8 8.241e+03 2.718e-09
 51.33692   -103.6 8.180e+03 2.672e-09
 51.37621   -102.5 8.162e+03 2.674e-09
 51.40147   -101.9 8.185e+03 2.716e-09
 51.41120   -101.5 8.231e+03 2.743e-09
 51.42513   -101.5 8.224e+03 2.780e-09
 51.44477   -102.0 8.516e+03 3.649e-09
 51.46442   -102.8 9.364e+03 5.614e-09
 51.48406   -103.1 1.003e+04 8.804e-09
 51.50371   -103.2 1.052e+04 1.283e-08
 51.52335   -103.8 1.119e+04 1.658e-08
 51.54300   -106.6 1.309e+04 2.104e-08
 51.56264   -112.6 1.677e+04 3.310e-08
 51.58229   -120.3 1.867e+04 8.433e-08
 51.59697   -125.2 1.861e+04 2.184e-07
 51.60413   -126.9 1.864e+04 3.047e-07
 51.60904   -127.1 1.868e+04 2.812e-07
 51.61657   -128.8 1.887e+04 3.527e-07
 51.62639   -130.9 1.918e+04 4.119e-07
 51.63621   -133.8 1.942e+04 4.213e-07
 51.64603   -137.2 1.952e+04 3.316e-07
 51.65586   -140.5 1.917e+04 2.013e-07
 51.66568   -143.7 1.839e+04 1.114e-07
 51.67550   -146.6 1.723e+04 6.493e-08
 51.68532   -149.1 1.589e+04 4.248e-08
 51.69515   -151.2 1.475e+04 3.146e-08
 51.70311   -152.8 1.404e+04 2.616e-08
 51.70652   -152.9 1.398e+04 2.560e-08
 51.70843   -153.1 1.361e+04 2.327e-08
 51.71980   -155.6 1.332e+04 2.075e-08
 51.73944   -158.8 1.295e+04 1.877e-08
 51.75909   -161.5 1.279e+04 1.828e-08
 51.77873   -164.1 1.285e+04 1.971e-08
 51.79727   -167.0 1.388e+04 2.712e-08
 51.80709   -167.7 1.402e+04 2.831e-08
 51.81802   -171.2 1.534e+04 4.246e-08
 51.83767   -174.8 1.631e+04 6.145e-08
 51.85235   -176.5 1.690e+04 7.717e-08
 51.86213   -178.2 1.721e+04 8.871e-08
 51.87195   -180.1 1.740e+04 9.770e-08
 51.88177   -182.0 1.742e+04 9.913e-08
 51.89159   -183.6 1.721e+04 9.780e-08
 51.90105   -184.8 1.697e+04 9.154e-08
 51.90597   -185.6 1.691e+04 9.047e-08
 51.91124   -186.4 1.659e+04 8.124e-08
 51.92106   -187.4 1.626e+04 7.023e-08
 51.93584   -188.8 1.568e+04 5.611e-08
 51.95554   -190.8 1.480e+04 3.528e-08
 51.97518   -193.4 1.380e+04 1.928e-08
 51.99483   -196.5 1.270e+04 1.171e-08
 52.00504   -199.8 1.192e+04 9.482e-09
 52.01486   -200.6 1.150e+04 8.544e-09
 52.03412   -203.6 1.135e+04 8.750e-09
 52.05376   -206.6 1.177e+04 1.126e-08
 52.07341   -209.3 1.228e+04 1.605e-08
 52.09305   -212.0 1.269e+04 2.050e-08
 52.11269   -215.2 1.289e+04 2.207e-08
 52.13234   -219.0 1.292e+04 2.207e-08
 52.14665   -223.3 1.270e+04 2.032e-08
 52.15647   -220.6 1.310e+04 2.365e-08
 52.17163   -225.0 1.281e+04 2.162e-08
 52.19127   -229.3 1.248e+04 2.033e-08
 52.20298   -233.1 1.237e+04 2.010e-08
 52.21281   -231.3 1.209e+04 1.715e-08
 52.23056   -234.6 1.204e+04 1.791e-08
 52.25021   -237.3 1.218e+04 2.029e-08
 52.26985   -239.7 1.234e+04 2.205e-08
 52.28950   -242.0 1.237e+04 2.239e-08
 52.30914   -244.3 1.231e+04 2.153e-08
 52.32879   -246.6 1.223e+04 1.963e-08
 52.34843   -249.0 1.207e+04 1.739e-08
 52.36808   -251.3 1.198e+04 1.635e-08
 52.38772   -253.2 1.193e+04 1.610e-08
 52.40093   -254.4 1.188e+04 1.603e-08
 52.41075   -253.5 1.201e+04 1.686e-08
 52.42701   -254.4 1.190e+04 1.672e-08
 52.44666   -254.8 1.165e+04 1.505e-08
 52.46630   -255.0 1.135e+04 1.236e-08
 52.48595   -255.2 1.102e+04 1.010e-08
 52.50559   -255.4 1.078e+04 8.406e-09
 52.52523   -255.6 1.060e+04 7.158e-09
 52.54488   -255.8 1.050e+04 6.444e-09
 52.56452   -256.0 1.048e+04 6.155e-09
 52.58417   -256.3 1.050e+04 6.092e-09
 52.59464   -256.5 1.069e+04 6.426e-09
 52.59953   -255.4 1.034e+04 5.533e-09
 52.60870   -255.2 1.073e+04 7.025e-09
 52.62346   -255.5 1.075e+04 6.943e-09
 52.64310   -255.7 1.083e+04 6.990e-09
 52.66275   -255.8 1.087e+04 7.039e-09
 52.68239   -255.8 1.091e+04 7.049e-09
 52.70204   -255.8 1.096e+04 7.060e-09
 52.72168   -255.7 1.104e+04 7.136e-09
 52.74133   -255.4 1.120e+04 7.397e-09
 52.76097   -255.2 1.150e+04 8.029e-09
 52.78062   -255.0 1.190e+04 9.320e-09
 52.79682   -254.8 1.233e+04 1.156e-08
 52.80665   -254.4 1.235e+04 1.209e-08
 52.81991   -254.1 1.272e+04 1.479e-08
 52.83955   -253.9 1.305e+04 1.854e-08
 52.85920   -253.6 1.338e+04 2.308e-08
 52.87884   -253.3 1.379e+04 2.795e-08
 52.89849   -252.9 1.419e+04 3.239e-08
 52.91813   -252.7 1.459e+04 3.639e-08
 52.93777   -252.6 1.494e+04 3.939e-08
 52.95742   -252.5 1.516e+04 4.147e-08
 52.97706   -252.3 1.523e+04 4.239e-08
 52.99477   -252.2 1.531e+04 4.073e-08
 53.00459   -252.4 1.585e+04 5.251e-08
 53.01635   -252.2 1.562e+04 4.658e-08
 53.03281   -251.7 1.512e+04 3.739e-08
 53.04263   -250.1 1.574e+04 5.161e-08
 53.05564   -249.5 1.536e+04 4.578e-08
 53.07529   -248.7 1.497e+04 3.902e-08
 53.09493   -247.8 1.453e+04 3.266e-08
 53.11458   -246.9 1.416e+04 2.733e-08
 53.13422   -246.0 1.378e+04 2.286e-08
 53.15387   -245.0 1.343e+04 1.930e-08
 53.17351   -244.0 1.312e+04 1.659e-08
 53.19272   -243.0 1.283e+04 1.460e-08
 53.20254   -243.2 1.293e+04 1.593e-08
 53.21280   -242.1 1.270e+04 1.458e-08
 53.23245   -240.9 1.256e+04 1.389e-08
 53.25209   -239.8 1.249e+04 1.357e-08
 53.27174   -238.7 1.244e+04 1.336e-08
 53.29138   -237.6 1.239e+04 1.306e-08
 53.31103   -236.6 1.231e+04 1.254e-08
 53.33067   -235.6 1.219e+04 1.178e-08
 53.35031   -234.6 1.205e+04 1.082e-08
 53.36996   -233.5 1.190e+04 9.825e-09
 53.38960   -232.4 1.176e+04 8.891e-09
 53.40049   -231.3 1.165e+04 8.099e-09
 53.41031   -231.7 1.216e+04 1.116e-08
 53.42889   -230.6 1.208e+04 1.042e-08
 53.44854   -229.4 1.204e+04 9.910e-09
 53.46818   -228.1 1.204e+04 9.584e-09
 53.48080   -227.0 1.204e+04 9.376e-09
 53.49063   -226.7 1.196e+04 8.935e-09
 53.50747   -225.6 1.194e+04 8.898e-09
 53.52712   -224.4 1.194e+04 8.925e-09
 53.54676   -223.2 1.195e+04 9.143e-09
 53.56641   -222.2 1.199e+04 9.484e-09
 53.58605   -221.1 1.204e+04 9.847e-09
 53.59843   -220.1 1.209e+04 1.017e-08
 53.60826   -220.9 1.222e+04 1.112e-08
 53.62534   -220.0 1.216e+04 1.076e-08
 53.64499   -219.2 1.208e+04 1.038e-08
 53.66463   -218.3 1.196e+04 9.870e-09
 53.68428   -217.5 1.180e+04 9.276e-09
 53.70392   -216.6 1.165e+04 8.730e-09
 53.72357   -215.7 1.154e+04 8.322e-09
 53.74321   -214.8 1.149e+04 8.110e-09
 53.76286   -214.0 1.148e+04 8.058e-09
 53.78250   -213.2 1.149e+04 8.055e-09
 53.79638   -212.6 1.159e+04 8.301e-09
 53.80620   -212.9 1.141e+04 7.020e-09
 53.82179   -212.2 1.148e+04 7.378e-09
 53.84143   -211.6 1.153e+04 7.863e-09
 53.86108   -211.1 1.157e+04 8.467e-09
 53.88072   -210.6 1.162e+04 9.223e-09
 53.90037   -210.2 1.169e+04 1.015e-08
 53.91897   -209.7 1.180e+04 1.124e-08
 53.92880   -209.0 1.196e+04 1.189e-08
 53.93966   -208.5 1.213e+04 1.360e-08
 53.95930   -208.1 1.232e+04 1.545e-08
 53.97895   -207.9 1.250e+04 1.727e-08
 53.99433   -207.8 1.268e+04 1.899e-08
 54.00415   -207.8 1.273e+04 1.865e-08
 54.01824   -207.8 1.309e+04 2.179e-08
 54.03788   -208.4 1.345e+04 2.480e-08
 54.05753   -209.4 1.367e+04 2.651e-08
 54.07717   -210.6 1.372e+04 2.682e-08
 54.09682   -211.9 1.359e+04 2.470e-08
 54.11646   -213.1 1.308e+04 1.843e-08
 54.13611   -214.2 1.238e+04 1.252e-08
 54.15575   -215.2 1.166e+04 8.669e-09
 54.17540   -216.0 1.110e+04 6.671e-09
 54.19228   -216.4 1.074e+04 5.853e-09
 54.20210   -216.5 1.119e+04 6.909e-09
 54.21468   -216.6 1.097e+04 6.556e-09
 54.23433   -216.6 1.092e+04 6.517e-09
 54.25397   -216.3 1.085e+04 6.639e-09
 54.27362   -215.9 1.078e+04 7.073e-09
 54.29326   -215.3 1.075e+04 7.564e-09
 54.31291   -214.6 1.077e+04 8.030e-09
 54.33255   -213.8 1.079e+04 8.451e-09
 54.35220   -212.8 1.082e+04 8.856e-09
 54.36697   -211.8 1.086e+04 9.296e-09
 54.37679   -210.7 1.072e+04 6.337e-09
 54.39022   -209.8 1.078e+04 6.929e-09
 54.40004   -210.2 1.096e+04 8.678e-09
 54.41113   -209.2 1.103e+04 9.389e-09
 54.43078   -208.3 1.125e+04 1.050e-08
 54.45042   -207.4 1.165e+04 1.222e-08
 54.47007   -206.6 1.219e+04 1.495e-08
 54.48971   -206.0 1.280e+04 1.863e-08
 54.50936   -205.6 1.344e+04 2.337e-08
 54.52900   -205.2 1.406e+04 2.932e-08
 54.54865   -204.8 1.465e+04 3.674e-08
 54.56829   -204.4 1.522e+04 4.565e-08
 54.58794   -203.9 1.573e+04 5.542e-08
 54.59799   -203.4 1.623e+04 6.649e-08
 54.60781   -201.7 1.640e+04 7.346e-08
 54.62722   -200.9 1.707e+04 9.638e-08
 54.64687   -200.1 1.756e+04 1.165e-07
 54.66651   -199.4 1.777e+04 1.250e-07
 54.68616   -199.0 1.777e+04 1.173e-07
 54.70580   -198.4 1.736e+04 9.414e-08
 54.72545   -197.4 1.654e+04 6.430e-08
 54.74509   -196.2 1.519e+04 3.715e-08
 54.76474   -194.9 1.323e+04 1.978e-08
 54.78438   -193.7 1.104e+04 1.128e-08
 54.79594   -192.8 9.927e+03 7.547e-09
 54.80576   -189.6 1.255e+04 1.533e-08
 54.81496   -188.5 1.094e+04 9.973e-09
 54.82478   -189.1 9.614e+03 7.328e-09
 54.84332   -187.8 9.445e+03 6.164e-09
 54.86296   -186.3 9.122e+03 5.510e-09
 54.88261   -184.7 8.845e+03 4.899e-09
 54.90225   -183.3 8.819e+03 4.543e-09
 54.92190   -182.6 9.075e+03 4.459e-09
 54.94154   -188.0 1.738e+04 4.155e-09
 54.96119   -198.6 2.486e+04 1.532e-08
 54.98083   -208.3 2.372e+04 6.181e-08
 54.99389   -217.9 2.309e+04 1.076e-07
 55.00371   -207.9 2.468e+04 7.593e-08
 55.02012   -219.3 2.419e+04 1.118e-07
 55.03976   -234.6 2.416e+04 1.027e-07
 55.05941   -252.7 2.107e+04 5.437e-08
 55.07905   -268.3 1.557e+04 2.948e-08
 55.09870   -278.0 1.292e+04 1.955e-08
 55.11834   -283.4 1.227e+04 1.541e-08
 55.13799   -288.2 1.182e+04 1.182e-08
 55.15763   -293.1 1.112e+04 8.833e-09
 55.17728   -297.5 1.026e+04 6.712e-09
 55.19183   -301.1 9.682e+03 5.346e-09
 55.20165   -301.4 9.792e+03 5.260e-09
 55.21657   -304.4 9.498e+03 4.517e-09
 55.23621   -306.9 9.245e+03 3.984e-09
 55.25313   -308.9 9.026e+03 3.610e-09
 55.26295   -306.5 9.129e+03 3.895e-09
 55.27550   -308.0 8.966e+03 3.639e-09
 55.29515   -309.1 8.857e+03 3.512e-09
 55.31479   -309.9 8.819e+03 3.492e-09
 55.33444   -310.5 8.814e+03 3.501e-09
 55.35408   -311.0 8.825e+03 3.570e-09
 55.37373   -311.6 8.992e+03 3.828e-09
 55.38978   -312.3 9.322e+03 4.291e-09
 55.39960   -313.9 9.512e+03 4.734e-09
 55.41302   -315.0 9.918e+03 5.565e-09
 55.43266   -316.5 1.043e+04 6.886e-09
 55.45230   -318.4 1.093e+04 8.646e-09
 55.47195   -320.8 1.130e+04 1.054e-08
 55.49159   -323.5 1.137e+04 1.188e-08
 55.51124   -326.1 1.135e+04 1.224e-08
 55.53088   -328.3 1.125e+04 1.229e-08
 55.55053   -330.0 1.101e+04 1.174e-08
 55.57017   -331.1 1.078e+04 1.100e-08
 55.58773   -331.8 1.063e+04 1.050e-08
 55.59755   -332.7 1.079e+04 1.110e-08
 55.60946   -333.2 1.079e+04 1.109e-08
 55.62911   -333.8 1.109e+04 1.182e-08
 55.64875   -334.5 1.187e+04 1.439e-08
 55.66840   -335.1 1.262e+04 1.825e-08
 55.68804   -335.6 1.316e+04 2.242e-08
 55.70112   -336.0 1.346e+04 2.564e-08
 55.71094   -334.5 1.389e+04 2.916e-08
 55.72733   -334.8 1.413e+04 3.277e-08
 55.74698   -335.0 1.416e+04 3.376e-08
 55.76662   -335.2 1.415e+04 3.389e-08
 55.78567   -335.3 1.407e+04 3.331e-08
 55.79550   -336.7 1.359e+04 2.749e-08
 55.80591   -336.8 1.324e+04 2.372e-08
 55.82556   -336.7 1.289e+04 2.015e-08
 55.84520   -336.4 1.255e+04 1.689e-08
 55.86484   -335.8 1.223e+04 1.400e-08
 55.88449   -335.1 1.193e+04 1.146e-08
 55.90413   -334.4 1.165e+04 9.301e-09
 55.92378   -333.6 1.141e+04 7.571e-09
 55.94342   -332.8 1.127e+04 6.355e-09
 55.96307   -332.2 1.131e+04 5.703e-09
 55.98271   -331.7 1.137e+04 5.562e-09
 55.99344   -331.5 1.155e+04 5.552e-09
 56.00326   -331.7 1.061e+04 3.832e-09
 56.02200   -331.5 1.111e+04 4.024e-09
 56.04165   -331.3 1.151e+04 4.739e-09
 56.06129   -331.3 1.188e+04 5.843e-09
 56.08094   -331.2 1.229e+04 7.394e-09
 56.10058   -331.2 1.276e+04 9.723e-09
 56.12023   -331.3 1.327e+04 1.335e-08
 56.13929   -331.4 1.379e+04 1.851e-08
 56.14911   -330.7 1.442e+04 2.777e-08
 56.15952   -330.7 1.477e+04 3.559e-08
 56.17916   -330.8 1.505e+04 4.369e-08
 56.19139   -330.9 1.525e+04 5.120e-08
 56.20121   -331.0 1.431e+04 3.007e-08
 56.21845   -331.1 1.454e+04 3.498e-08
 56.23810   -331.3 1.470e+04 3.896e-08
 56.25774   -331.5 1.477e+04 4.158e-08
 56.27739   -331.7 1.475e+04 4.264e-08
 56.29703   -331.8 1.470e+04 4.287e-08
 56.31667   -331.8 1.463e+04 4.261e-08
 56.33632   -331.7 1.460e+04 4.293e-08
 56.35596   -331.7 1.458e+04 4.356e-08
 56.37561   -331.7 1.456e+04 4.386e-08
 56.38934   -331.4 1.444e+04 4.248e-08
 56.39916   -330.7 1.401e+04 3.208e-08
 56.41490   -330.1 1.388e+04 3.217e-08
 56.43454   -329.4 1.369e+04 3.061e-08
 56.45419   -328.6 1.344e+04 2.781e-08
 56.47383   -327.6 1.315e+04 2.375e-08
 56.49348   -326.6 1.278e+04 1.939e-08
 56.51312   -325.4 1.241e+04 1.571e-08
 56.53277   -324.2 1.207e+04 1.279e-08
 56.55241   -322.8 1.178e+04 1.053e-08
 56.57206   -321.4 1.154e+04 8.863e-09
 56.58728   -319.9 1.136e+04 7.676e-09
 56.59711   -319.7 1.122e+04 7.159e-09
 56.61135   -318.2 1.112e+04 6.516e-09
 56.63099   -316.6 1.105e+04 6.058e-09
 56.65064   -315.0 1.101e+04 5.756e-09
 56.67028   -313.4 1.100e+04 5.562e-09
 56.68993   -311.9 1.101e+04 5.460e-09
 56.70957   -310.2 1.101e+04 5.436e-09
 56.72921   -308.6 1.102e+04 5.441e-09
 56.74886   -307.1 1.107e+04 5.528e-09
 56.76850   -305.6 1.110e+04 5.677e-09
 56.78523   -304.1 1.115e+04 5.839e-09
 56.79505   -304.0 1.126e+04 5.980e-09
 56.80779   -302.7 1.133e+04 6.260e-09
 56.82744   -301.5 1.140e+04 6.527e-09
 56.84708   -300.3 1.147e+04 6.764e-09
 56.86673   -299.2 1.153e+04 6.962e-09
 56.88637   -298.2 1.159e+04 7.104e-09
 56.90602   -297.3 1.163e+04 7.196e-09
 56.92566   -296.3 1.167e+04 7.254e-09
 56.94531   -295.4 1.171e+04 7.277e-09
 56.96495   -294.5 1.175e+04 7.272e-09
 56.98318   -293.7 1.180e+04 7.263e-09
 56.99300   -293.9 1.177e+04 7.224e-09
 57.00424   -293.1 1.186e+04 7.237e-09
 57.02389   -292.4 1.194e+04 7.446e-09
 57.03528   -291.7 1.203e+04 7.770e-09
 57.04510   -292.2 1.184e+04 6.856e-09
 57.06318   -291.4 1.191e+04 7.055e-09
 57.08282   -290.6 1.199e+04 7.303e-09
 57.10247   -289.7 1.207e+04 7.583e-09
 57.12211   -288.8 1.213e+04 7.876e-09
 57.14175   -287.9 1.215e+04 8.135e-09
 57.16140   -287.1 1.212e+04 8.308e-09
 57.18104   -286.3 1.209e+04 8.360e-09
 57.20069   -285.6 1.192e+04 9.099e-09
 57.22033   -284.7 1.175e+04 8.878e-09
 57.23998   -283.7 1.159e+04 8.541e-09
 57.25962   -282.6 1.144e+04 8.118e-09
 57.27927   -281.5 1.132e+04 7.648e-09
 57.29891   -280.3 1.121e+04 7.168e-09
 57.31856   -279.2 1.110e+04 6.719e-09
 57.33820   -278.0 1.099e+04 6.311e-09
 57.35785   -276.8 1.089e+04 5.959e-09
 57.37749   -275.6 1.080e+04 5.669e-09
 57.38889   -274.4 1.073e+04 5.452e-09
 57.39872   -274.7 1.065e+04 5.322e-09
 57.41678   -273.5 1.059e+04 5.180e-09
 57.43643   -272.3 1.054e+04 5.116e-09
 57.45607   -271.0 1.053e+04 5.104e-09
 57.47345   -269.9 1.053e+04 5.106e-09
 57.48327   -269.5 1.062e+04 4.678e-09
 57.49536   -268.6 1.070e+04 4.789e-09
 57.51501   -267.8 1.081e+04 5.015e-09
 57.53465   -267.3 1.094e+04 5.410e-09
 57.55429   -267.1 1.112e+04 6.033e-09
 57.57394   -267.0 1.140e+04 7.013e-09
 57.58684   -267.1 1.170e+04 8.612e-09
 57.59666   -266.1 1.148e+04 7.802e-09
 57.61323   -266.2 1.176e+04 9.464e-09
 57.63287   -266.4 1.202e+04 1.164e-08
 57.65252   -266.7 1.224e+04 1.412e-08
 57.67216   -267.0 1.238e+04 1.639e-08
 57.69181   -267.3 1.241e+04 1.773e-08
 57.71145   -267.5 1.239e+04 1.802e-08
 57.73110   -267.5 1.228e+04 1.784e-08
 57.75074   -267.3 1.201e+04 1.539e-08
 57.77039   -267.1 1.171e+04 1.190e-08
 57.78479   -267.0 1.139e+04 8.717e-09
 57.79461   -265.8 1.136e+04 9.425e-09
 57.80968   -265.5 1.103e+04 6.631e-09
 57.82932   -265.0 1.068e+04 4.563e-09
 57.84897   -264.2 1.037e+04 3.277e-09
 57.86861   -263.2 1.024e+04 2.668e-09
 57.89818   -262.5 1.024e+04 2.411e-09
 57.93756   -261.8 1.015e+04 2.198e-09
 57.97311   -260.5 9.982e+03 2.013e-09
 57.99275   -258.9 9.758e+03 1.718e-09
 58.01614   -257.2 9.579e+03 1.590e-09
 58.05543   -255.6 9.537e+03 1.558e-09
 58.09472   -254.0 9.536e+03 1.555e-09
 58.13401   -252.4 9.571e+03 1.562e-09
 58.17330   -251.0 9.644e+03 1.567e-09
 58.21259   -249.8 9.716e+03 1.560e-09
 58.25188   -248.7 9.793e+03 1.540e-09
 58.29117   -247.6 9.860e+03 1.519e-09
 58.33046   -246.6 9.908e+03 1.499e-09
 58.35981   -245.5 9.928e+03 1.489e-09
 58.37870   -244.7 1.006e+04 1.689e-09
 58.38865   -242.6 9.982e+03 1.588e-09
 58.40904   -241.5 1.003e+04 1.606e-09
 58.44833   -240.3 1.004e+04 1.612e-09
 58.48762   -238.9 1.005e+04 1.600e-09
 58.52691   -237.1 1.008e+04 1.518e-09
 58.56620   -235.2 1.011e+04 1.432e-09
 58.60549   -233.2 1.017e+04 1.352e-09
 58.64477   -231.0 1.024e+04 1.278e-09
 58.68406   -228.8 1.033e+04 1.216e-09
 58.72335   -226.6 1.045e+04 1.162e-09
 58.76264   -224.4 1.061e+04 1.115e-09
 58.78454   -222.3 1.077e+04 1.077e-09
 58.80418   -221.8 1.087e+04 1.707e-09
 58.84122   -219.8 1.096e+04 1.704e-09
 58.88051   -217.9 1.107e+04 1.658e-09
 58.91980   -215.7 1.115e+04 1.588e-09
 58.95909   -213.4 1.120e+04 1.521e-09
 58.99838   -210.9 1.125e+04 1.480e-09
 59.03767   -208.3 1.130e+04 1.461e-09
 59.07696   -205.7 1.137e+04 1.448e-09
 59.11625   -203.1 1.147e+04 1.430e-09
 59.15554   -200.5 1.156e+04 1.405e-09
 59.18043   -198.0 1.163e+04 1.368e-09
 59.20008   -197.6 1.175e+04 2.434e-09
 59.23412   -195.3 1.181e+04 2.488e-09
 59.25579   -193.0 1.187e+04 2.491e-09
 59.27544   -192.5 1.179e+04 2.689e-09
 59.31270   -190.3 1.185e+04 2.966e-09
 59.35199   -188.3 1.193e+04 3.267e-09
 59.39128   -186.5 1.200e+04 3.727e-09
 59.43057   -184.9 1.205e+04 4.516e-09
 59.46985   -183.5 1.210e+04 5.731e-09
 59.50914   -182.5 1.216e+04 7.242e-09
 59.54843   -181.9 1.220e+04 8.603e-09
 59.57633   -181.8 1.224e+04 9.255e-09
 59.59597   -181.7 1.218e+04 9.390e-09
 59.62701   -181.6 1.203e+04 9.248e-09
 59.66630   -181.6 1.189e+04 8.533e-09
 59.70559   -182.0 1.189e+04 7.982e-09
 59.74488   -182.9 1.193e+04 7.853e-09
 59.78417   -184.5 1.200e+04 7.952e-09
 59.82346   -186.2 1.201e+04 8.002e-09
 59.86275   -187.5 1.172e+04 7.484e-09
 59.90204   -188.0 1.133e+04 5.533e-09
 59.94133   -188.1 1.099e+04 3.542e-09
 59.97222   -188.0 1.074e+04 2.186e-09
 59.99187   -188.1 1.067e+04 2.132e-09
 60.01991   -187.5 1.058e+04 1.528e-09
 60.05920   -186.9 1.060e+04 1.373e-09
 60.09849   -186.7 1.064e+04 1.352e-09
 60.13213   -186.8 1.085e+04 1.497e-09
 60.15178   -185.3 1.081e+04 1.555e-09
 60.17707   -185.6 1.092e+04 1.965e-09
 60.21636   -186.3 1.096e+04 2.418e-09
 60.25565   -187.1 1.097e+04 2.760e-09
 60.29494   -187.7 1.100e+04 2.895e-09
 60.33422   -188.3 1.100e+04 2.836e-09
 60.36812   -188.6 1.096e+04 2.464e-09
 60.38776   -187.9 1.094e+04 2.339e-09
 60.41280   -187.8 1.090e+04 1.898e-09
 60.45209   -187.2 1.090e+04 1.546e-09
 60.49138   -186.2 1.088e+04 1.325e-09
 60.53067   -184.7 1.087e+04 1.200e-09
 60.56996   -183.0 1.089e+04 1.127e-09
 60.60925   -181.0 1.092e+04 1.084e-09
 60.64854   -179.0 1.095e+04 1.072e-09
 60.68783   -177.1 1.113e+04 1.066e-09
 60.72712   -175.4 1.136e+04 1.160e-09
 60.76401   -174.1 1.162e+04 1.429e-09
 60.78365   -172.9 1.144e+04 1.061e-09
 60.80570   -171.7 1.162e+04 1.400e-09
 60.84499   -170.9 1.188e+04 2.187e-09
 60.88428   -170.3 1.225e+04 3.680e-09
 60.92357   -169.9 1.262e+04 5.798e-09
 60.95294   -170.6 1.288e+04 8.556e-09
 60.97158   -170.8 1.296e+04 9.923e-09
 60.98141   -169.7 1.294e+04 8.764e-09
 60.99213   -170.0 1.302e+04 1.037e-08
 61.01177   -170.0 1.314e+04 1.116e-08
 61.02792   -169.9 1.325e+04 1.153e-08
 61.03774   -169.5 1.315e+04 1.149e-08
 61.05106   -169.4 1.324e+04 1.169e-08
 61.07071   -169.3 1.333e+04 1.194e-08
 61.09035   -169.2 1.348e+04 1.233e-08
 61.11000   -169.1 1.367e+04 1.290e-08
 61.12964   -169.2 1.386e+04 1.352e-08
 61.14929   -169.2 1.399e+04 1.396e-08
 61.16893   -169.1 1.404e+04 1.409e-08
 61.17935   -169.0 1.405e+04 1.387e-08
 61.18918   -168.1 1.389e+04 1.172e-08
 61.20822   -167.8 1.392e+04 1.180e-08
 61.22787   -167.4 1.392e+04 1.161e-08
 61.24751   -167.0 1.383e+04 1.081e-08
 61.26716   -166.4 1.376e+04 1.022e-08
 61.28680   -165.9 1.371e+04 9.785e-09
 61.30645   -165.2 1.364e+04 9.465e-09
 61.32609   -164.6 1.359e+04 9.106e-09
 61.34573   -164.0 1.354e+04 8.694e-09
 61.36538   -163.3 1.351e+04 8.218e-09
 61.37730   -162.7 1.348e+04 7.817e-09
 61.38712   -162.3 1.372e+04 9.148e-09
 61.40467   -161.8 1.371e+04 8.917e-09
 61.42431   -161.3 1.369e+04 8.614e-09
 61.44396   -160.9 1.367e+04 8.229e-09
 61.46360   -160.5 1.362e+04 7.792e-09
 61.47591   -160.2 1.354e+04 7.357e-09
 61.48574   -159.8 1.355e+04 7.291e-09
 61.50289   -159.4 1.347e+04 7.022e-09
 61.52254   -159.1 1.340e+04 6.778e-09
 61.54218   -158.8 1.334e+04 6.576e-09
 61.56183   -158.5 1.331e+04 6.398e-09
 61.57525   -158.2 1.332e+04 6.201e-09
 61.58507   -158.2 1.355e+04 7.662e-09
 61.60112   -158.0 1.354e+04 7.467e-09
 61.62076   -157.8 1.355e+04 7.294e-09
 61.64041   -157.8 1.359e+04 7.167e-09
 61.66005   -157.7 1.363e+04 7.118e-09
 61.67970   -157.8 1.367e+04 7.127e-09
 61.69934   -158.0 1.371e+04 7.162e-09
 61.71899   -158.2 1.374e+04 7.218e-09
 61.73863   -158.4 1.377e+04 7.315e-09
 61.75827   -158.7 1.381e+04 7.528e-09
 61.77319   -158.9 1.385e+04 7.939e-09
 61.78302   -159.7 1.406e+04 1.289e-08
 61.79756   -159.8 1.405e+04 1.321e-08
 61.81721   -159.9 1.405e+04 1.334e-08
 61.83685   -159.9 1.406e+04 1.335e-08
 61.85650   -159.7 1.408e+04 1.304e-08
 61.87614   -159.6 1.409e+04 1.222e-08
 61.89579   -159.3 1.410e+04 1.111e-08
 61.91409   -159.0 1.411e+04 9.418e-09
 61.92391   -159.2 1.408e+04 8.226e-09
 61.93508   -158.8 1.411e+04 6.253e-09
 61.95472   -158.4 1.418e+04 4.602e-09
 61.97114   -158.0 1.430e+04 3.427e-09
 61.98096   -158.5 1.438e+04 2.986e-09
 61.99401   -158.1 1.450e+04 2.570e-09
 62.02358   -157.8 1.453e+04 2.447e-09
 62.06296   -157.0 1.451e+04 2.464e-09
 62.10225   -157.0 1.511e+04 3.617e-09
 62.14154   -158.0 1.528e+04 9.040e-09
 62.18083   -160.0 1.546e+04 1.756e-08
 62.21020   -162.1 1.544e+04 2.030e-08
 62.22975   -163.2 1.543e+04 2.101e-08
 62.24939   -163.8 1.530e+04 2.084e-08
 62.26904   -164.0 1.521e+04 1.803e-08
 62.28868   -164.0 1.520e+04 1.430e-08
 62.30833   -163.9 1.515e+04 1.075e-08
 62.32797   -163.5 1.505e+04 7.695e-09
 62.34762   -162.8 1.500e+04 5.402e-09
 62.36208   -162.0 1.506e+04 4.052e-09
 62.37167   -161.9 1.507e+04 4.028e-09
 62.38678   -161.4 1.526e+04 3.418e-09
 62.41657   -160.7 1.529e+04 2.820e-09
 62.45586   -159.2 1.526e+04 2.271e-09
 62.49515   -157.7 1.528e+04 1.922e-09
 62.53444   -156.2 1.531e+04 1.721e-09
 62.57373   -154.9 1.535e+04 1.624e-09
 62.61302   -153.5 1.541e+04 1.596e-09
 62.65231   -152.2 1.545e+04 1.600e-09
 62.69160   -150.8 1.548e+04 1.597e-09
 62.73089   -149.4 1.551e+04 1.546e-09
 62.76312   -147.9 1.552e+04 1.449e-09
 62.78277   -148.5 1.549e+04 1.505e-09
 62.80044   -147.0 1.547e+04 1.557e-09
 62.82009   -146.4 1.550e+04 1.519e-09
 62.84875   -144.8 1.539e+04 1.750e-09
 62.88804   -143.1 1.527e+04 2.090e-09
 62.92733   -141.3 1.517e+04 2.518e-09
 62.96662   -139.5 1.509e+04 2.992e-09
 63.00591   -137.7 1.502e+04 3.444e-09
 63.04520   -135.9 1.498e+04 3.854e-09
 63.08449   -134.0 1.497e+04 4.238e-09
 63.12378   -132.1 1.485e+04 4.564e-09
 63.15902   -130.1 1.471e+04 4.749e-09
 63.17866   -130.7 1.460e+04 4.094e-09
 63.20236   -128.6 1.447e+04 4.080e-09
 63.24165   -126.6 1.443e+04 4.074e-09
 63.28094   -124.6 1.444e+04 4.099e-09
 63.32023   -122.8 1.447e+04 4.146e-09
 63.35952   -120.9 1.448e+04 4.176e-09
 63.39881   -119.0 1.453e+04 3.977e-09
 63.43810   -117.1 1.450e+04 3.538e-09
 63.47739   -115.1 1.442e+04 2.990e-09
 63.51668   -113.0 1.432e+04 2.469e-09
 63.55491   -110.8 1.426e+04 2.032e-09
 63.57456   -110.9 1.423e+04 1.736e-09
 63.59526   -108.4 1.422e+04 1.461e-09
 63.63455   -105.9 1.423e+04 1.276e-09
 63.67383   -103.3 1.427e+04 1.148e-09
 63.69643   -100.8 1.433e+04 1.048e-09
 63.71607   -100.6 1.433e+04 1.047e-09
 63.75241    -98.1 1.440e+04 9.542e-10
 63.79170    -95.5 1.445e+04 8.744e-10
 63.83099    -93.0 1.449e+04 8.196e-10
 63.87028    -90.4 1.450e+04 7.956e-10
 63.90957    -87.8 1.452e+04 7.923e-10
 63.94886    -85.4 1.452e+04 8.455e-10
 63.97045    -83.1 1.444e+04 1.001e-09
 63.99010    -82.8 1.450e+04 8.971e-10
 64.02744    -80.5 1.440e+04 1.082e-09
 64.06673    -78.2 1.431e+04 1.251e-09
 64.10602    -75.9 1.425e+04 1.340e-09
 64.14531    -73.8 1.421e+04 1.382e-09
 64.18460    -71.7 1.421e+04 1.390e-09
 64.22389    -69.6 1.423e+04 1.384e-09
 64.26318    -67.6 1.426e+04 1.365e-09
 64.30247    -65.6 1.427e+04 1.336e-09
 64.34176    -63.6 1.427e+04 1.318e-09
 64.36634    -61.6 1.430e+04 1.301e-09
 64.38599    -61.3 1.431e+04 1.455e-09
 64.42034    -59.5 1.434e+04 1.446e-09
 64.45963    -57.8 1.464e+04 1.532e-09
 64.49891    -56.1 1.453e+04 2.022e-09
 64.53820    -54.3 1.432e+04 2.967e-09
 64.57277    -52.4 1.414e+04 4.410e-09
 64.59241    -51.7 1.409e+04 4.695e-09
 64.61678    -50.1 1.408e+04 7.117e-09
 64.65607    -49.0 1.418e+04 9.164e-09
 64.69536    -48.1 1.425e+04 9.751e-09
 64.73465    -47.3 1.435e+04 8.481e-09
 64.76224    -46.3 1.439e+04 6.707e-09
 64.78188    -45.6 1.432e+04 5.995e-09
 64.81323    -44.4 1.454e+04 4.736e-09
 64.85252    -43.1 1.461e+04 4.135e-09
 64.89181    -41.6 1.456e+04 3.983e-09
 64.93110    -39.8 1.446e+04 3.855e-09
 64.97039    -38.0 1.444e+04 3.472e-09
 65.00968    -36.1 1.444e+04 3.103e-09
 65.04897    -34.0 1.446e+04 2.916e-09
 65.08826    -31.8 1.448e+04 2.869e-09
 65.12755    -29.8 1.459e+04 3.095e-09
 65.15813    -28.0 1.455e+04 4.199e-09
 65.17778    -27.4 1.452e+04 3.850e-09
 65.20613    -25.6 1.453e+04 5.377e-09
 65.24542    -23.8 1.460e+04 6.952e-09
 65.28471    -22.1 1.464e+04 7.444e-09
 65.32400    -20.4 1.458e+04 6.996e-09
 65.36328    -18.2 1.458e+04 5.086e-09
 65.40257    -15.9 1.463e+04 3.714e-09
 65.44186    -13.4 1.467e+04 3.036e-09
 65.46875    -10.8 1.462e+04 2.833e-09
 65.48840    -10.3 1.470e+04 2.683e-09
 65.52044     -7.6 1.472e+04 2.659e-09
 65.55403     -5.2 1.474e+04 2.905e-09
 65.57367     -4.7 1.466e+04 3.485e-09
 65.59902     -2.2 1.463e+04 3.695e-09
 65.63831      0.3 1.468e+04 3.466e-09
 65.67760      2.3 1.482e+04 2.819e-09
 65.71689      4.4 1.477e+04 2.378e-09
 65.75618      6.9 1.479e+04 2.313e-09
 65.79547      9.0 1.469e+04 2.897e-09
 65.83476     11.6 1.466e+04 3.882e-09
 65.87405     14.2 1.475e+04 4.489e-09
 65.91334     16.7 1.477e+04 4.015e-09
 65.94992     19.1 1.484e+04 3.228e-09
 65.96956     19.5 1.460e+04 3.190e-09
 65.99192     21.7 1.457e+04 2.568e-09
 66.03121     23.9 1.453e+04 2.413e-09
 66.07050     26.2 1.451e+04 2.499e-09
 66.10979     28.4 1.442e+04 2.863e-09
 66.14908     30.4 1.431e+04 3.354e-09
 66.18836     32.4 1.428e+04 3.801e-09
 66.22765     34.4 1.428e+04 4.126e-09
 66.26694     36.2 1.429e+04 4.164e-09
 66.30623     38.0 1.441e+04 3.902e-09
 66.34510     39.9 1.459e+04 3.308e-09
 66.36474     40.0 1.457e+04 3.319e-09
 66.36546     42.0 1.469e+04 2.682e-09
 66.38510     42.5 1.457e+04 3.070e-09
 66.42410     44.9 1.469e+04 2.503e-09
 66.46339     47.3 1.460e+04 2.109e-09
 66.50268     49.8 1.445e+04 1.809e-09
 66.54197     52.3 1.440e+04 1.551e-09
 66.58126     54.8 1.439e+04 1.395e-09
 66.62055     57.6 1.438e+04 1.372e-09
 66.65984     60.3 1.440e+04 1.385e-09
 66.69913     63.0 1.447e+04 1.495e-09
 66.73842     65.7 1.453e+04 1.809e-09
 66.76135     68.3 1.454e+04 2.345e-09
 66.78100     68.7 1.460e+04 2.175e-09
 66.81700     71.2 1.465e+04 2.731e-09
 66.85629     73.6 1.472e+04 3.331e-09
 66.89558     75.8 1.480e+04 3.907e-09
 66.93487     77.4 1.465e+04 4.344e-09
 66.95920     78.9 1.447e+04 6.033e-09
 66.96893     79.1 1.458e+04 4.808e-09
 66.98378     80.2 1.457e+04 5.743e-09
 67.00343     81.2 1.458e+04 6.988e-09
 67.02307     82.2 1.465e+04 8.216e-09
 67.04272     83.1 1.474e+04 9.208e-09
 67.06236     83.9 1.483e+04 9.927e-09
 67.08201     84.6 1.491e+04 1.042e-08
 67.10165     85.3 1.497e+04 1.074e-08
 67.12130     86.0 1.504e+04 1.093e-08
 67.14094     86.7 1.511e+04 1.110e-08
 67.15705     87.4 1.517e+04 1.123e-08
 67.16687     87.7 1.518e+04 1.116e-08
 67.18023     88.3 1.517e+04 1.101e-08
 67.19987     89.0 1.514e+04 1.063e-08
 67.21952     89.7 1.510e+04 1.016e-08
 67.23916     90.4 1.507e+04 9.708e-09
 67.25071     91.1 1.506e+04 9.249e-09
 67.26053     90.6 1.500e+04 8.622e-09
 67.27845     91.4 1.496e+04 7.820e-09
 67.29810     92.1 1.493e+04 6.886e-09
 67.31774     92.8 1.490e+04 5.855e-09
 67.33739     93.5 1.491e+04 4.848e-09
 67.36695     94.6 1.488e+04 3.147e-09
 67.40634     96.2 1.468e+04 2.550e-09
 67.44563     98.0 1.436e+04 2.291e-09
 67.48492    100.1 1.392e+04 2.265e-09
 67.52421    102.1 1.384e+04 2.275e-09
 67.55314    104.0 1.365e+04 2.437e-09
 67.57279    104.4 1.368e+04 1.884e-09
 67.60279    106.3 1.351e+04 2.168e-09
 67.64208    108.2 1.337e+04 2.519e-09
 67.68137    110.0 1.331e+04 2.873e-09
 67.72066    111.6 1.326e+04 3.191e-09
 67.75995    113.2 1.320e+04 3.359e-09
 67.79924    114.9 1.315e+04 3.327e-09
 67.83853    116.6 1.310e+04 3.135e-09
 67.87781    118.4 1.306e+04 2.801e-09
 67.91710    120.5 1.293e+04 2.493e-09
 67.94903    122.6 1.276e+04 2.312e-09
 67.96868    123.5 1.295e+04 3.431e-09
 67.99568    125.6 1.291e+04 3.082e-09
 68.03497    127.8 1.274e+04 2.900e-09
 68.07426    130.1 1.246e+04 2.971e-09
 68.11355    132.4 1.238e+04 3.062e-09
 68.13707    135.0 1.241e+04 3.096e-09
 68.15671    134.6 1.230e+04 3.283e-09
 68.19213    137.3 1.233e+04 3.555e-09
 68.23142    139.9 1.235e+04 4.081e-09
 68.27071    142.5 1.245e+04 5.050e-09
 68.31000    144.8 1.265e+04 6.538e-09
 68.34493    146.7 1.297e+04 8.415e-09
 68.36448    146.9 1.311e+04 8.498e-09
 68.37856    147.4 1.319e+04 9.707e-09
 68.39821    147.9 1.329e+04 1.151e-08
 68.41785    148.3 1.346e+04 1.446e-08
 68.43750    148.6 1.373e+04 1.947e-08
 68.45714    148.8 1.421e+04 2.903e-08
 68.47678    149.0 1.487e+04 4.788e-08
 68.49643    149.4 1.561e+04 7.892e-08
 68.51607    149.9 1.637e+04 1.167e-07
 68.53076    150.0 1.671e+04 1.416e-07
 68.54053    150.0 1.706e+04 1.708e-07
 68.55035    150.1 1.760e+04 2.169e-07
 68.55732    150.0 1.810e+04 2.789e-07
 68.56228    149.0 1.728e+04 1.258e-07
 68.57005    148.6 1.786e+04 1.587e-07
 68.57982    148.2 1.833e+04 2.043e-07
 68.58964    147.6 1.855e+04 2.452e-07
 68.59947    146.9 1.872e+04 2.706e-07
 68.60929    145.9 1.871e+04 2.672e-07
 68.61911    145.1 1.861e+04 2.557e-07
 68.63389    144.4 1.804e+04 1.841e-07
 68.65359    144.2 1.735e+04 1.420e-07
 68.67323    144.3 1.647e+04 9.872e-08
 68.69288    144.6 1.553e+04 6.476e-08
 68.71252    144.7 1.460e+04 4.272e-08
 68.73217    144.8 1.373e+04 2.942e-08
 68.75045    145.4 1.292e+04 2.111e-08
 68.76027    145.7 1.289e+04 2.410e-08
 68.77146    146.6 1.235e+04 1.742e-08
 68.79110    147.5 1.187e+04 1.251e-08
 68.82067    148.9 1.154e+04 8.615e-09
 68.86005    150.2 1.087e+04 5.115e-09
 68.89934    151.5 1.026e+04 3.970e-09
 68.93863    153.1 1.019e+04 4.041e-09
 68.97792    155.0 1.014e+04 4.332e-09
 69.01341    156.9 1.006e+04 4.715e-09
 69.03305    156.9 9.505e+03 2.435e-09
 69.05650    158.8 9.534e+03 2.880e-09
 69.09579    160.6 9.520e+03 3.241e-09
 69.13508    162.2 9.452e+03 3.450e-09
 69.15636    163.7 9.375e+03 3.314e-09
 69.17601    164.8 9.412e+03 3.574e-09
 69.21366    166.4 9.235e+03 3.408e-09
 69.25295    168.1 9.044e+03 2.947e-09
 69.29224    170.0 8.804e+03 2.457e-09
 69.33153    172.0 8.570e+03 2.032e-09
 69.37082    174.1 8.363e+03 1.720e-09
 69.41011    176.4 8.200e+03 1.498e-09
 69.44940    178.7 8.093e+03 1.340e-09
 69.48869    181.0 8.013e+03 1.235e-09
 69.52798    183.3 7.894e+03 1.215e-09
 69.55225    185.6 7.877e+03 1.217e-09
 69.57190    185.9 7.777e+03 9.345e-10
 69.60655    188.4 7.776e+03 9.386e-10
 69.64584    190.9 7.783e+03 9.584e-10
 69.68513    193.4 7.782e+03 1.005e-09
 69.72442    195.9 7.785e+03 1.081e-09
 69.76371    198.4 7.806e+03 1.191e-09
 69.80300    200.9 7.852e+03 1.350e-09
 69.84229    203.4 7.933e+03 1.582e-09
 69.88158    205.6 8.055e+03 1.907e-09
 69.90939    207.5 8.185e+03 2.285e-09
 69.92904    206.7 8.392e+03 2.836e-09
 69.94805    208.2 8.350e+03 2.900e-09
 69.95778    208.6 8.354e+03 2.906e-09
 69.96979    209.5 8.343e+03 3.046e-09
 69.98943    210.8 8.438e+03 3.434e-09
 70.00908    212.1 8.658e+03 4.120e-09
 70.02872    213.2 8.944e+03 4.984e-09
 70.04837    214.1 9.237e+03 5.890e-09
 70.06801    214.6 9.507e+03 6.760e-09
 70.08766    214.9 9.752e+03 7.606e-09
 70.10730    215.0 9.997e+03 8.509e-09
 70.12695    215.0 1.029e+04 9.692e-09
 70.14590    214.8 1.066e+04 1.154e-08
 70.15572    216.0 1.042e+04 1.042e-08
 70.16623    215.9 1.090e+04 1.292e-08
 70.18588    215.6 1.152e+04 1.715e-08
 70.20552    215.2 1.221e+04 2.369e-08
 70.22517    214.8 1.285e+04 3.150e-08
 70.24481    214.2 1.324e+04 3.555e-08
 70.26446    213.4 1.326e+04 3.528e-08
 70.28410    212.3 1.318e+04 3.302e-08
 70.30375    211.4 1.290e+04 2.798e-08
 70.32339    210.4 1.269e+04 2.393e-08
 70.34304    209.6 1.271e+04 2.366e-08
 70.35367    209.1 1.284e+04 2.474e-08
 70.35800    210.1 1.235e+04 1.762e-08
 70.36701    211.0 1.237e+04 1.796e-08
 70.38233    210.6 1.255e+04 1.874e-08
 70.40197    210.7 1.288e+04 2.174e-08
 70.42162    210.9 1.316e+04 2.597e-08
 70.44126    211.1 1.337e+04 3.018e-08
 70.46091    211.4 1.358e+04 3.510e-08
 70.48055    211.8 1.371e+04 3.732e-08
 70.50020    212.3 1.370e+04 3.676e-08
 70.51984    213.0 1.365e+04 3.464e-08
 70.53949    213.6 1.377e+04 3.247e-08
 70.55162    213.8 1.384e+04 3.232e-08
 70.56144    214.6 1.291e+04 2.870e-08
 70.57877    214.7 1.311e+04 2.926e-08
 70.59842    214.7 1.333e+04 3.033e-08
 70.61806    214.3 1.368e+04 3.314e-08
 70.63275    213.6 1.425e+04 3.856e-08
 70.64252    212.8 1.493e+04 4.731e-08
 70.65730    212.4 1.550e+04 6.254e-08
 70.67700    211.4 1.644e+04 9.920e-08
 70.69664    210.3 1.646e+04 1.084e-07
 70.71629    208.7 1.634e+04 1.050e-07
 70.73593    207.9 1.580e+04 8.853e-08
 70.74956    207.9 1.494e+04 6.330e-08
 70.75939    208.6 1.382e+04 3.765e-08
 70.77522    208.7 1.304e+04 2.923e-08
 70.79487    209.0 1.227e+04 2.184e-08
 70.80518    209.4 1.161e+04 1.647e-08
 70.81500    209.1 1.186e+04 1.889e-08
 70.83416    209.5 1.153e+04 1.526e-08
 70.85380    210.3 1.154e+04 1.481e-08
 70.87345    211.3 1.155e+04 1.484e-08
 70.89309    212.5 1.158e+04 1.525e-08
 70.91274    213.5 1.174e+04 1.638e-08
 70.93238    214.3 1.203e+04 1.768e-08
 70.94751    214.9 1.223e+04 1.787e-08
 70.95733    216.0 1.212e+04 2.022e-08
 70.97167    216.6 1.241e+04 2.174e-08
 70.99131    217.0 1.249e+04 2.153e-08
 71.01096    217.3 1.249e+04 2.051e-08
 71.03060    217.5 1.239e+04 1.917e-08
 71.05025    217.6 1.232e+04 1.873e-08
 71.06989    217.6 1.234e+04 1.917e-08
 71.08954    217.5 1.249e+04 2.116e-08
 71.10918    217.3 1.285e+04 2.485e-08
 71.12883    217.0 1.326e+04 2.806e-08
 71.14546    216.5 1.338e+04 2.823e-08
 71.15528    217.8 1.366e+04 3.201e-08
 71.16812    216.9 1.372e+04 3.192e-08
 71.18776    215.9 1.371e+04 3.055e-08
 71.20741    214.7 1.360e+04 2.780e-08
 71.22705    213.5 1.352e+04 2.500e-08
 71.24335    212.0 1.349e+04 2.300e-08
 71.25318    210.6 1.349e+04 2.365e-08
 71.26634    208.9 1.347e+04 2.236e-08
 71.28599    207.1 1.343e+04 2.155e-08
 71.30563    205.2 1.335e+04 2.098e-08
 71.32528    203.3 1.332e+04 2.106e-08
 71.34340    201.4 1.334e+04 2.175e-08
 71.35323    200.6 1.428e+04 3.130e-08
 71.36457    198.1 1.451e+04 3.380e-08
 71.38421    195.7 1.491e+04 4.042e-08
 71.40385    193.5 1.537e+04 5.023e-08
 71.42350    191.6 1.575e+04 6.010e-08
 71.44314    189.8 1.596e+04 6.637e-08
 71.46279    188.1 1.605e+04 6.843e-08
 71.48243    186.5 1.613e+04 6.831e-08
 71.50208    184.9 1.631e+04 6.645e-08
 71.52172    183.1 1.648e+04 6.328e-08
 71.54135    181.1 1.648e+04 5.845e-08
 71.56100    175.6 1.651e+04 4.969e-08
 71.58066    173.8 1.590e+04 3.884e-08
 71.60030    172.6 1.499e+04 2.902e-08
 71.61995    171.8 1.398e+04 2.199e-08
 71.63959    171.4 1.323e+04 1.925e-08
 71.65924    171.4 1.309e+04 1.942e-08
 71.67888    171.8 1.305e+04 2.052e-08
 71.69135    172.2 1.324e+04 2.428e-08
 71.70117    171.9 1.317e+04 2.364e-08
 71.71817    172.4 1.346e+04 2.681e-08
 71.73782    172.7 1.383e+04 3.088e-08
 71.74912    172.7 1.418e+04 3.515e-08
 71.75894    172.5 1.365e+04 2.096e-08
 71.77711    172.0 1.424e+04 2.285e-08
 71.79675    171.3 1.484e+04 2.694e-08
 71.81639    170.0 1.586e+04 3.869e-08
 71.83108    169.3 1.647e+04 4.997e-08
 71.84085    168.7 1.729e+04 6.399e-08
 71.84800    167.8 1.827e+04 9.160e-08
 71.85291    166.3 1.786e+04 1.071e-07
 71.86050    165.5 1.849e+04 2.015e-07
 71.87032    165.2 1.883e+04 4.142e-07
 71.88014    164.7 1.900e+04 8.050e-07
 71.88997    162.9 1.916e+04 1.174e-06
 71.89979    159.7 1.917e+04 1.178e-06
 71.90961    157.2 1.906e+04 9.599e-07
 71.91524    156.1 1.883e+04 5.597e-07
 71.92016    156.2 1.892e+04 5.856e-07
 71.92925    155.8 1.866e+04 2.963e-07
 71.93908    155.2 1.845e+04 1.367e-07
 71.94697    154.1 1.847e+04 7.053e-08
 71.95684    151.4 1.691e+04 1.928e-08
 71.97355    147.3 1.337e+04 1.204e-08
 71.99320    145.2 1.252e+04 1.173e-08
 72.01284    144.5 1.246e+04 1.190e-08
 72.03249    143.6 1.269e+04 1.285e-08
 72.05213    141.6 1.407e+04 1.609e-08
 72.07178    138.7 1.621e+04 3.293e-08
 72.09142    136.1 1.733e+04 6.584e-08
 72.10611    134.7 1.755e+04 8.862e-08
 72.11588    133.5 1.796e+04 1.167e-07
 72.12570    132.1 1.838e+04 1.551e-07
 72.13433    130.5 1.874e+04 1.934e-07
 72.13929    130.9 1.840e+04 1.530e-07
 72.14501    127.5 1.848e+04 1.526e-07
 72.15484    130.0 1.833e+04 1.267e-07
 72.17000    125.8 1.826e+04 1.274e-07
 72.18965    122.0 1.767e+04 1.151e-07
 72.20929    119.6 1.671e+04 8.820e-08
 72.22894    118.1 1.559e+04 5.732e-08
 72.24858    117.1 1.442e+04 3.506e-08
 72.26822    116.1 1.349e+04 2.233e-08
 72.28787    115.3 1.311e+04 1.791e-08
 72.30751    114.3 1.324e+04 1.865e-08
 72.32716    112.0 1.393e+04 2.451e-08
 72.34296    109.7 1.463e+04 3.661e-08
 72.35278    111.3 1.426e+04 2.741e-08
 72.35837    109.4 1.495e+04 3.840e-08
 72.36324    110.1 1.470e+04 3.621e-08
 72.37126    109.1 1.514e+04 4.661e-08
 72.38108    108.1 1.549e+04 5.801e-08
 72.39091    107.3 1.555e+04 6.157e-08
 72.40073    106.5 1.546e+04 5.815e-08
 72.41055    105.8 1.519e+04 5.278e-08
 72.42533    105.3 1.494e+04 4.556e-08
 72.44503    104.2 1.413e+04 2.520e-08
 72.46467    102.1 1.311e+04 1.235e-08
 72.48432    100.1 1.209e+04 8.074e-09
 72.50396     99.4 1.171e+04 7.494e-09
 72.52361     99.6 1.166e+04 7.396e-09
 72.54091     99.8 1.166e+04 7.315e-09
 72.55073    100.6 1.197e+04 8.142e-09
 72.56290    100.8 1.201e+04 8.510e-09
 72.57751    100.8 1.214e+04 9.142e-09
 72.58733    101.3 1.229e+04 1.016e-08
 72.60219    101.0 1.256e+04 1.157e-08
 72.62183    100.1 1.309e+04 1.487e-08
 72.64148     98.3 1.378e+04 2.159e-08
 72.66112     96.0 1.425e+04 3.056e-08
 72.68076     93.3 1.472e+04 3.934e-08
 72.69545     91.7 1.491e+04 4.233e-08
 72.70522     90.7 1.498e+04 4.314e-08
 72.72001     89.4 1.480e+04 3.946e-08
 72.73886     88.3 1.456e+04 3.340e-08
 72.74863     87.3 1.519e+04 4.365e-08
 72.75433     87.0 1.503e+04 4.014e-08
 72.76416     86.8 1.499e+04 3.918e-08
 72.77398     86.8 1.489e+04 3.633e-08
 72.78380     86.8 1.492e+04 3.575e-08
 72.79362     86.9 1.498e+04 3.543e-08
 72.80141     87.0 1.515e+04 3.673e-08
 72.80632     86.7 1.497e+04 3.282e-08
 72.81823     87.1 1.568e+04 5.275e-08
 72.83792     87.8 1.587e+04 5.918e-08
 72.85757     88.3 1.610e+04 6.587e-08
 72.87721     88.4 1.648e+04 8.167e-08
 72.89686     88.5 1.691e+04 1.062e-07
 72.91650     88.4 1.727e+04 1.195e-07
 72.93615     87.8 1.728e+04 1.146e-07
 72.94663     87.2 1.696e+04 8.995e-08
 72.95645     86.2 1.806e+04 1.438e-07
 72.97544     85.5 1.760e+04 9.781e-08
 72.99508     84.9 1.683e+04 5.266e-08
 73.01473     84.2 1.582e+04 2.468e-08
 73.02550     83.3 1.478e+04 1.326e-08
 73.03532     82.4 1.404e+04 1.132e-08
 73.05402     82.2 1.353e+04 9.931e-09
 73.07366     82.5 1.345e+04 9.796e-09
 73.09330     83.0 1.351e+04 1.008e-08
 73.11295     83.0 1.370e+04 1.135e-08
 73.13259     82.5 1.396e+04 1.437e-08
 73.14457     81.5 1.425e+04 2.000e-08
 73.15439     79.1 1.545e+04 4.028e-08
 73.17188     77.8 1.552e+04 4.472e-08
 73.19153     76.4 1.542e+04 4.123e-08
 73.21117     74.2 1.517e+04 3.217e-08
 73.23082     71.1 1.472e+04 2.687e-08
 73.25046     68.3 1.416e+04 2.654e-08
 73.27011     66.5 1.393e+04 2.655e-08
 73.28975     65.6 1.356e+04 2.551e-08
 73.30940     65.2 1.304e+04 2.078e-08
 73.32904     64.9 1.246e+04 1.508e-08
 73.34252     64.7 1.194e+04 1.098e-08
 73.35234     63.8 1.178e+04 9.142e-09
 73.37825     64.7 1.148e+04 6.877e-09
 73.41764     65.3 1.092e+04 4.758e-09
 73.45404     67.1 1.060e+04 3.996e-09
 73.47369     66.5 1.049e+04 3.786e-09
 73.49622     69.1 1.026e+04 3.113e-09
 73.53084     71.8 1.011e+04 2.707e-09
 73.55048     71.6 1.050e+04 3.643e-09
 73.56488     73.5 1.051e+04 3.781e-09
 73.58442     74.9 1.056e+04 3.933e-09
 73.60407     76.5 1.054e+04 3.962e-09
 73.62371     77.7 1.056e+04 4.040e-09
 73.64336     79.2 1.057e+04 4.130e-09
 73.66300     80.6 1.066e+04 4.332e-09
 73.68265     81.9 1.068e+04 4.367e-09
 73.70229     83.1 1.068e+04 4.364e-09
 73.72194     84.4 1.063e+04 4.304e-09
 73.73841     85.6 1.059e+04 4.164e-09
 73.74824     85.2 1.083e+04 5.285e-09
 73.76123     86.3 1.088e+04 5.008e-09
 73.78087     87.4 1.092e+04 4.916e-09
 73.80052     88.2 1.106e+04 5.024e-09
 73.82016     88.6 1.147e+04 5.650e-09
 73.83981     88.7 1.198e+04 7.520e-09
 73.85945     88.7 1.243e+04 1.123e-08
 73.87910     88.8 1.283e+04 1.703e-08
 73.89874     89.0 1.315e+04 2.358e-08
 73.91166     89.3 1.325e+04 2.747e-08
 73.92149     89.3 1.254e+04 1.821e-08
 73.93636     89.5 1.252e+04 1.976e-08
 73.94618     89.0 1.292e+04 2.377e-08
 73.95767     89.4 1.240e+04 1.841e-08
 73.97732     90.0 1.179e+04 1.258e-08
 73.99696     90.4 1.135e+04 8.118e-09
 74.01661     90.5 1.122e+04 5.345e-09
 74.03625     90.5 1.121e+04 4.245e-09
 74.05590     90.7 1.126e+04 4.240e-09
 74.07554     91.1 1.149e+04 4.452e-09
 74.09519     91.5 1.187e+04 5.369e-09
 74.11483     91.9 1.220e+04 7.566e-09
 74.13431     92.4 1.241e+04 1.170e-08
 74.14413     91.5 1.210e+04 1.812e-08
 74.15412     92.5 1.250e+04 2.682e-08
 74.17377     93.6 1.313e+04 3.822e-08
 74.19341     94.7 1.393e+04 5.514e-08
 74.21306     95.2 1.480e+04 6.870e-08
 74.23270     95.2 1.499e+04 6.720e-08
 74.25235     94.5 1.523e+04 5.876e-08
 74.27199     93.0 1.511e+04 4.331e-08
 74.29164     91.2 1.446e+04 2.829e-08
 74.31128     89.3 1.335e+04 1.816e-08
 74.33092     87.8 1.216e+04 1.292e-08
 74.34208     87.2 1.139e+04 1.070e-08
 74.35116     87.7 1.119e+04 8.690e-09
 74.35966     88.2 1.118e+04 8.815e-09
 74.37021     88.3 1.106e+04 8.331e-09
 74.38986     88.5 1.098e+04 8.091e-09
 74.40950     88.9 1.097e+04 8.097e-09
 74.42915     89.0 1.100e+04 8.231e-09
 74.44879     88.9 1.113e+04 8.853e-09
 74.46844     88.4 1.139e+04 1.083e-08
 74.48808     87.6 1.182e+04 1.494e-08
 74.50773     86.5 1.252e+04 2.175e-08
 74.52737     84.5 1.359e+04 3.248e-08
 74.54002     81.4 1.493e+04 5.033e-08
 74.54985     81.9 1.593e+04 7.604e-08
 74.56666     78.0 1.684e+04 1.033e-07
 74.58631     73.9 1.679e+04 9.975e-08
 74.60595     71.0 1.588e+04 7.303e-08
 74.62560     69.1 1.430e+04 3.660e-08
 74.64524     66.7 1.255e+04 1.467e-08
 74.66489     63.8 1.127e+04 8.306e-09
 74.68453     63.2 1.104e+04 7.996e-09
 74.70418     63.3 1.099e+04 8.178e-09
 74.72382     63.4 1.097e+04 8.321e-09
 74.73807     63.9 1.112e+04 1.028e-08
 74.74789     63.3 1.117e+04 8.297e-09
 74.76311     63.5 1.120e+04 8.270e-09
 74.79267     63.9 1.130e+04 7.860e-09
 74.83206     63.9 1.150e+04 6.574e-09
 74.86143     63.7 1.158e+04 5.768e-09
 74.88098     63.7 1.157e+04 5.247e-09
 74.90062     63.7 1.142e+04 4.842e-09
 74.92027     63.8 1.115e+04 4.425e-09
 74.93592     64.0 1.089e+04 4.087e-09
 74.94574     63.8 1.114e+04 3.669e-09
 74.95956     64.0 1.109e+04 3.688e-09
 74.97920     64.4 1.107e+04 3.844e-09
 74.99885     64.8 1.109e+04 4.182e-09
 75.01849     65.3 1.114e+04 4.674e-09
 75.03814     66.0 1.119e+04 5.254e-09
 75.05778     66.7 1.125e+04 5.738e-09
 75.07743     67.4 1.126e+04 5.821e-09
 75.09707     68.0 1.125e+04 5.773e-09
 75.11672     68.8 1.120e+04 5.555e-09
 75.13386     69.5 1.114e+04 5.235e-09
 75.14369     69.3 1.113e+04 5.746e-09
 75.15601     70.1 1.105e+04 5.328e-09
 75.17565     70.9 1.098e+04 5.139e-09
 75.19529     71.7 1.091e+04 5.082e-09
 75.21494     72.6 1.091e+04 5.111e-09
 75.23458     73.4 1.094e+04 5.256e-09
 75.24582     74.2 1.099e+04 5.537e-09
 75.25564     74.4 1.106e+04 6.192e-09
 75.27387     75.2 1.111e+04 6.615e-09
 75.29352     75.8 1.121e+04 6.823e-09
 75.31316     76.3 1.126e+04 6.817e-09
 75.33181     76.7 1.128e+04 6.757e-09
 75.34163     77.0 1.125e+04 6.101e-09
 75.35245     77.3 1.129e+04 6.068e-09
 75.37210     77.5 1.135e+04 5.889e-09
 75.39174     77.7 1.140e+04 5.550e-09
 75.41139     77.9 1.139e+04 5.108e-09
 75.43103     78.2 1.129e+04 4.578e-09
 75.45068     78.5 1.113e+04 4.007e-09
 75.47032     79.1 1.091e+04 3.449e-09
 75.48997     79.6 1.087e+04 2.762e-09
 75.50961     79.7 1.093e+04 2.608e-09
 75.52986     80.5 1.094e+04 2.382e-09
 75.54960     81.2 1.088e+04 2.291e-09
 75.57856     82.5 1.082e+04 2.339e-09
 75.61785     83.9 1.076e+04 2.442e-09
 75.65714     85.3 1.071e+04 2.486e-09
 75.68409     86.6 1.064e+04 2.462e-09
 75.69381     86.1 1.067e+04 2.556e-09
 75.70606     86.7 1.067e+04 2.608e-09
 75.72570     87.3 1.066e+04 2.697e-09
 75.73753     87.9 1.065e+04 2.868e-09
 75.74735     88.2 1.067e+04 2.631e-09
 75.76499     88.8 1.073e+04 2.761e-09
 75.78464     89.4 1.081e+04 2.915e-09
 75.80428     90.0 1.089e+04 3.088e-09
 75.82393     90.5 1.096e+04 3.296e-09
 75.84357     90.9 1.101e+04 3.583e-09
 75.86322     91.3 1.107e+04 4.031e-09
 75.88286     91.6 1.116e+04 4.749e-09
 75.90251     91.8 1.129e+04 5.854e-09
 75.92215     92.0 1.146e+04 7.395e-09
 75.93547     92.0 1.165e+04 9.230e-09
 75.94530     91.9 1.177e+04 9.583e-09
 75.96144     91.8 1.203e+04 1.243e-08
 75.98109     91.5 1.230e+04 1.540e-08
 76.00073     91.1 1.252e+04 1.777e-08
 76.02037     90.5 1.267e+04 1.893e-08
 76.04002     89.7 1.271e+04 1.935e-08
 76.05966     89.0 1.266e+04 1.900e-08
 76.07931     88.5 1.243e+04 1.745e-08
 76.09895     88.4 1.206e+04 1.437e-08
 76.11860     88.5 1.162e+04 1.056e-08
 76.13198     88.5 1.122e+04 7.044e-09
 76.13698     88.4 1.159e+04 1.123e-08
 76.14324     88.4 1.153e+04 8.692e-09
 76.15789     88.5 1.116e+04 5.864e-09
 76.17753     88.3 1.089e+04 4.120e-09
 76.19718     88.2 1.059e+04 3.273e-09
 76.21682     88.3 1.033e+04 2.994e-09
 76.23647     88.6 1.023e+04 3.018e-09
 76.25611     89.1 1.017e+04 3.157e-09
 76.27576     89.5 1.016e+04 3.545e-09
 76.29540     89.9 1.026e+04 4.234e-09
 76.31505     90.2 1.045e+04 5.431e-09
 76.33137     90.1 1.087e+04 7.637e-09
 76.34119     90.2 1.102e+04 8.268e-09
 76.35434     90.0 1.173e+04 1.303e-08
 76.37398     89.9 1.249e+04 2.054e-08
 76.39363     89.8 1.298e+04 2.700e-08
 76.40831     89.3 1.381e+04 3.712e-08
 76.41808     88.5 1.465e+04 5.054e-08
 76.42791     87.5 1.566e+04 7.633e-08
 76.43516     86.4 1.657e+04 1.297e-07
 76.44007     86.5 1.687e+04 1.036e-07
 76.44755     85.4 1.769e+04 1.803e-07
 76.45737     84.7 1.811e+04 3.061e-07
 76.46720     84.0 1.834e+04 4.454e-07
 76.47702     83.3 1.850e+04 5.041e-07
 76.48684     82.4 1.855e+04 4.653e-07
 76.49666     81.5 1.853e+04 3.432e-07
 76.50649     80.6 1.827e+04 2.433e-07
 76.51631     79.5 1.775e+04 1.551e-07
 76.52927     78.7 1.720e+04 1.076e-07
 76.53914     78.2 1.618e+04 7.185e-08
 76.55078     77.0 1.475e+04 3.804e-08
 76.57015     75.6 1.326e+04 1.927e-08
 76.57998     73.0 1.194e+04 1.085e-08
 76.59007     72.4 1.076e+04 6.837e-09
 76.60972     72.5 1.016e+04 5.011e-09
 76.62936     72.9 9.886e+03 3.975e-09
 76.64901     73.7 9.647e+03 3.277e-09
 76.67857     74.8 9.649e+03 3.045e-09
 76.71763     76.2 9.384e+03 2.881e-09
 76.73728     76.7 9.426e+03 2.836e-09
 76.75725     78.1 9.297e+03 2.813e-09
 76.79654     79.5 9.302e+03 2.861e-09
 76.83583     80.6 9.419e+03 3.033e-09
 76.87512     81.4 9.753e+03 3.681e-09
 76.91441     81.7 1.026e+04 4.902e-09
 76.95370     81.9 1.073e+04 6.484e-09
 76.99299     81.8 1.105e+04 7.879e-09
 77.01834     81.7 1.147e+04 8.082e-09
 77.03799     82.3 1.090e+04 4.966e-09
 77.07157     82.5 1.112e+04 5.029e-09
 77.11085     83.1 1.131e+04 5.174e-09
 77.13317     84.0 1.141e+04 5.667e-09
 77.15282     83.4 1.154e+04 7.388e-09
 77.18943     84.8 1.129e+04 7.836e-09
 77.22872     86.4 1.124e+04 7.687e-09
 77.26801     88.1 1.122e+04 7.479e-09
 77.29738     89.0 1.115e+04 7.229e-09
 77.31693     89.9 1.108e+04 6.985e-09
 77.33093     90.8 1.101e+04 6.785e-09
 77.34075     90.7 1.105e+04 7.249e-09
 77.35622     91.5 1.103e+04 7.343e-09
 77.37586     92.3 1.101e+04 7.472e-09
 77.39551     93.1 1.102e+04 7.625e-09
 77.41515     93.7 1.099e+04 7.780e-09
 77.43480     94.3 1.093e+04 7.891e-09
 77.45444     94.9 1.087e+04 7.968e-09
 77.46614     95.5 1.082e+04 7.974e-09
 77.47596     95.4 1.082e+04 8.006e-09
 77.49373     96.0 1.073e+04 7.985e-09
 77.51338     96.5 1.061e+04 7.832e-09
 77.52887     97.1 1.050e+04 7.588e-09
 77.53869     96.5 1.045e+04 7.414e-09
 77.55267     97.1 1.033e+04 6.958e-09
 77.57231     97.7 1.021e+04 6.683e-09
 77.59196     98.4 1.014e+04 6.651e-09
 77.61160     99.0 1.014e+04 6.666e-09
 77.63125     99.7 1.015e+04 6.777e-09
 77.65089    100.3 1.022e+04 7.106e-09
 77.67054    100.9 1.035e+04 7.656e-09
 77.69018    101.5 1.053e+04 8.383e-09
 77.70982    102.0 1.072e+04 9.358e-09
 77.72682    102.5 1.097e+04 1.069e-08
 77.73664    102.6 1.095e+04 1.190e-08
 77.74911    103.1 1.125e+04 1.409e-08
 77.76876    103.1 1.156e+04 1.666e-08
 77.78840    103.0 1.190e+04 1.966e-08
 77.80805    102.6 1.234e+04 2.361e-08
 77.82769    101.6 1.291e+04 2.912e-08
 77.84734    100.2 1.354e+04 3.621e-08
 77.86698     98.8 1.406e+04 4.377e-08
 77.88663     97.6 1.411e+04 4.326e-08
 77.90431     96.7 1.405e+04 3.855e-08
 77.91413     96.9 1.464e+04 5.407e-08
 77.92477     96.1 1.455e+04 4.656e-08
 77.93459     96.6 1.496e+04 6.409e-08
 77.94556     96.2 1.466e+04 5.095e-08
 77.96521     96.0 1.401e+04 3.250e-08
 77.98485     95.7 1.320e+04 1.814e-08
 78.00450     95.3 1.232e+04 1.014e-08
 78.02414     95.0 1.148e+04 6.682e-09
 78.04379     95.2 1.089e+04 5.376e-09
 78.06343     95.8 1.069e+04 4.990e-09
 78.08308     97.0 1.068e+04 4.970e-09
 78.10272     98.2 1.073e+04 5.000e-09
 78.12236     99.4 1.086e+04 5.154e-09
 78.13254    100.4 1.114e+04 5.736e-09
 78.14236    100.8 1.143e+04 7.095e-09
 78.16165    101.0 1.170e+04 8.193e-09
 78.18130    100.8 1.207e+04 1.119e-08
 78.20094    100.2 1.280e+04 1.951e-08
 78.22059     99.7 1.362e+04 3.401e-08
 78.23146     99.3 1.405e+04 4.303e-08
 78.23632     99.4 1.408e+04 4.308e-08
 78.24505     98.9 1.460e+04 5.549e-08
 78.25487     98.6 1.507e+04 7.227e-08
 78.26469     98.5 1.547e+04 8.593e-08
 78.27451     98.3 1.576e+04 8.828e-08
 78.28434     97.6 1.572e+04 8.662e-08
 78.29416     96.9 1.543e+04 7.625e-08
 78.30398     96.3 1.493e+04 6.308e-08
 78.31380     96.0 1.434e+04 5.105e-08
 78.32363     95.5 1.387e+04 4.240e-08
 78.33043     94.8 1.315e+04 3.112e-08
 78.34030     95.0 1.384e+04 4.081e-08
 78.35230     93.9 1.285e+04 3.007e-08
 78.36212     94.7 1.352e+04 3.832e-08
 78.37775     94.5 1.346e+04 3.818e-08
 78.39739     94.4 1.364e+04 4.186e-08
 78.41208     94.4 1.383e+04 4.571e-08
 78.42185     94.4 1.389e+04 4.776e-08
 78.42936     94.5 1.415e+04 5.281e-08
 78.43427     94.2 1.436e+04 5.613e-08
 78.44149     94.0 1.489e+04 6.852e-08
 78.45132     94.1 1.533e+04 8.378e-08
 78.46114     94.4 1.574e+04 1.010e-07
 78.47096     94.6 1.610e+04 1.176e-07
 78.48078     94.7 1.631e+04 1.298e-07
 78.49061     95.1 1.647e+04 1.387e-07
 78.50043     95.5 1.674e+04 1.485e-07
 78.51025     95.5 1.700e+04 1.569e-07
 78.52007     95.4 1.699e+04 1.598e-07
 78.52833     95.6 1.694e+04 1.610e-07
 78.53820     95.2 1.704e+04 1.666e-07
 78.55455     95.8 1.701e+04 1.728e-07
 78.57419     96.4 1.704e+04 1.857e-07
 78.59384     96.8 1.732e+04 2.125e-07
 78.60852     96.8 1.758e+04 2.447e-07
 78.61830     97.0 1.777e+04 2.662e-07
 78.62731     96.9 1.790e+04 2.707e-07
 78.63222     96.6 1.786e+04 2.178e-07
 78.63794     96.5 1.788e+04 2.155e-07
 78.64776     96.4 1.793e+04 2.103e-07
 78.65759     96.3 1.795e+04 1.958e-07
 78.67237     96.8 1.782e+04 1.824e-07
 78.69206     96.1 1.781e+04 1.182e-07
 78.70675     95.1 1.782e+04 7.997e-08
 78.71652     93.9 1.779e+04 6.029e-08
 78.72628     92.2 1.768e+04 5.797e-08
 78.73119     90.9 1.778e+04 6.088e-08
 78.73617     87.0 1.945e+04 7.612e-08
 78.74599     80.8 2.174e+04 1.703e-07
 78.75581     75.1 2.038e+04 5.727e-07
 78.76563     70.5 1.915e+04 1.133e-06
 78.77546     68.0 1.885e+04 1.124e-06
 78.78528     68.1 1.852e+04 8.315e-07
 78.79510     68.8 1.841e+04 3.926e-07
 78.80025     67.9 1.874e+04 6.878e-08
 78.81012     65.6 1.913e+04 1.009e-07
 78.82958     61.1 1.624e+04 2.336e-08
 78.84922     59.8 1.344e+04 1.652e-08
 78.86887     60.3 1.266e+04 1.365e-08
 78.88851     61.8 1.242e+04 1.209e-08
 78.90816     63.6 1.243e+04 1.210e-08
 78.92432     65.1 1.253e+04 1.265e-08
 78.93415     65.3 1.244e+04 1.231e-08
 78.94744     66.1 1.265e+04 1.411e-08
 78.96709     66.8 1.308e+04 1.914e-08
 78.98673     67.4 1.395e+04 3.122e-08
 79.00638     67.8 1.507e+04 5.477e-08
 79.02602     68.1 1.603e+04 9.108e-08
 79.04567     68.4 1.671e+04 1.312e-07
 79.06531     68.3 1.695e+04 1.396e-07
 79.08496     68.1 1.680e+04 1.289e-07
 79.10460     68.2 1.622e+04 9.346e-08
 79.12227     68.4 1.533e+04 5.617e-08
 79.13209     68.3 1.439e+04 2.799e-08
 79.14389     68.0 1.373e+04 1.665e-08
 79.16354     67.8 1.318e+04 1.028e-08
 79.18318     67.8 1.271e+04 6.922e-09
 79.20283     68.2 1.236e+04 4.984e-09
 79.22247     69.3 1.224e+04 3.611e-09
 79.23846     69.8 1.231e+04 2.924e-09
 79.24829     69.3 1.212e+04 2.783e-09
 79.27168     70.5 1.196e+04 2.102e-09
 79.31107     72.3 1.150e+04 1.755e-09
 79.35036     74.5 1.130e+04 1.758e-09
 79.38965     76.7 1.126e+04 1.830e-09
 79.42894     78.8 1.129e+04 2.020e-09
 79.46823     80.8 1.140e+04 2.227e-09
 79.50752     82.5 1.149e+04 2.426e-09
 79.52818     84.1 1.161e+04 2.620e-09
 79.54783     84.1 1.173e+04 3.218e-09
 79.58610     85.4 1.192e+04 3.306e-09
 79.62538     86.4 1.208e+04 3.512e-09
 79.66467     87.1 1.247e+04 4.181e-09
 79.68656     86.8 1.269e+04 4.769e-09
 79.70620     85.3 1.261e+04 5.106e-09
 79.74325     83.8 1.309e+04 8.277e-09
 79.77262     81.8 1.345e+04 1.329e-08
 79.79217     80.3 1.377e+04 2.062e-08
 79.81181     78.7 1.389e+04 2.375e-08
 79.83146     77.0 1.380e+04 2.246e-08
 79.85110     76.0 1.327e+04 1.583e-08
 79.87075     75.2 1.297e+04 1.140e-08
 79.90031     74.1 1.236e+04 4.282e-09
 79.92408     73.2 1.197e+04 1.742e-09
 79.94372     74.6 1.237e+04 2.207e-09
 79.97899     74.2 1.179e+04 1.390e-09
 80.01828     74.7 1.156e+04 1.368e-09
 80.05757     75.8 1.152e+04 1.405e-09
 80.09686     76.7 1.160e+04 1.618e-09
 80.13615     77.5 1.168e+04 2.427e-09
 80.17544     78.1 1.184e+04 4.228e-09
 80.21473     78.7 1.204e+04 7.212e-09
 80.25402     79.2 1.216e+04 1.059e-08
 80.29331     79.7 1.209e+04 1.158e-08
 80.31997     80.4 1.204e+04 1.115e-08
 80.33961     81.8 1.180e+04 7.401e-09
 80.37189     82.6 1.173e+04 7.280e-09
 80.40126     83.1 1.167e+04 7.165e-09
 80.42080     83.6 1.166e+04 7.032e-09
 80.44045     84.1 1.161e+04 6.893e-09
 80.46009     84.7 1.147e+04 6.700e-09
 80.47974     85.4 1.128e+04 6.202e-09
 80.49938     86.3 1.108e+04 5.511e-09
 80.51772     87.3 1.088e+04 4.633e-09
 80.52754     87.6 1.086e+04 4.614e-09
 80.53867     88.5 1.073e+04 4.051e-09
 80.56290     89.7 1.049e+04 3.065e-09
 80.58254     90.6 1.068e+04 3.611e-09
 80.60753     92.6 1.068e+04 3.337e-09
 80.64691     94.9 1.059e+04 2.676e-09
 80.68620     97.3 1.057e+04 2.097e-09
 80.71586     99.6 1.060e+04 1.675e-09
 80.73541    100.0 1.054e+04 2.132e-09
 80.75476    101.4 1.056e+04 1.934e-09
 80.77441    102.2 1.057e+04 1.827e-09
 80.79405    103.6 1.058e+04 1.750e-09
 80.81370    104.4 1.060e+04 1.726e-09
 80.83334    105.6 1.062e+04 1.758e-09
 80.85299    106.4 1.064e+04 1.790e-09
 80.87263    107.4 1.065e+04 1.875e-09
 80.89228    108.3 1.070e+04 2.168e-09
 80.91192    109.1 1.089e+04 2.803e-09
 80.92344    109.8 1.121e+04 3.825e-09
 80.93326    109.6 1.138e+04 4.870e-09
 80.95121    109.8 1.170e+04 6.536e-09
 80.97086    109.7 1.202e+04 8.415e-09
 80.99050    109.5 1.235e+04 1.011e-08
 81.01015    108.9 1.265e+04 1.102e-08
 81.02061    108.1 1.286e+04 1.118e-08
 81.03044    106.9 1.380e+04 2.127e-08
 81.04943    105.8 1.384e+04 2.130e-08
 81.06908    104.9 1.388e+04 2.198e-08
 81.08872    104.4 1.397e+04 2.474e-08
 81.10837    104.3 1.412e+04 2.952e-08
 81.12138    104.5 1.423e+04 3.338e-08
 81.13121    104.6 1.416e+04 3.273e-08
 81.14766    104.9 1.428e+04 3.616e-08
 81.16730    105.3 1.426e+04 3.579e-08
 81.18695    105.9 1.405e+04 3.225e-08
 81.20659    106.6 1.369e+04 2.619e-08
 81.22624    107.4 1.330e+04 2.049e-08
 81.24588    108.3 1.299e+04 1.581e-08
 81.26553    109.2 1.274e+04 1.198e-08
 81.28517    110.2 1.249e+04 9.168e-09
 81.30482    111.3 1.230e+04 7.306e-09
 81.31933    112.3 1.213e+04 6.124e-09
 81.32915    112.7 1.237e+04 8.932e-09
 81.34411    113.8 1.221e+04 7.630e-09
 81.36375    114.9 1.203e+04 6.854e-09
 81.38340    116.0 1.184e+04 6.679e-09
 81.40304    117.0 1.177e+04 6.718e-09
 81.42269    118.0 1.170e+04 6.880e-09
 81.44233    119.1 1.164e+04 7.209e-09
 81.45878    120.0 1.161e+04 7.720e-09
 81.46861    119.6 1.170e+04 7.405e-09
 81.48162    120.4 1.182e+04 8.387e-09
 81.50126    121.2 1.206e+04 1.012e-08
 81.51728    121.4 1.245e+04 1.308e-08
 81.52710    121.0 1.306e+04 1.920e-08
 81.54055    120.8 1.368e+04 2.789e-08
 81.56020    120.6 1.427e+04 3.912e-08
 81.57984    120.3 1.474e+04 4.731e-08
 81.59949    119.5 1.480e+04 4.660e-08
 81.61913    118.4 1.461e+04 3.939e-08
 81.63878    116.8 1.410e+04 2.751e-08
 81.65842    114.7 1.336e+04 1.765e-08
 81.67807    112.2 1.254e+04 1.189e-08
 81.69771    109.9 1.191e+04 9.206e-09
 81.71523    108.3 1.159e+04 7.931e-09
 81.72505    107.7 1.172e+04 9.833e-09
 81.74692    105.6 1.129e+04 6.603e-09
 81.78631    103.0 1.113e+04 5.926e-09
 81.82560    100.2 1.122e+04 6.257e-09
 81.86489     97.2 1.162e+04 7.608e-09
 81.90355     93.9 1.179e+04 8.090e-09
 81.92309     93.1 1.194e+04 9.976e-09
 81.93345     91.8 1.170e+04 8.769e-09
 81.95309     90.7 1.156e+04 7.665e-09
 81.98266     89.3 1.145e+04 6.162e-09
 82.02205     89.0 1.104e+04 3.805e-09
 82.06134     89.2 1.075e+04 2.537e-09
 82.10063     90.0 1.049e+04 1.888e-09
 82.13991     91.5 1.028e+04 1.500e-09
 82.17920     93.2 1.014e+04 1.271e-09
 82.21849     95.1 1.012e+04 1.240e-09
 82.25778     96.8 1.015e+04 1.280e-09
 82.29707     98.1 1.034e+04 1.480e-09
 82.31908     98.3 1.066e+04 1.887e-09
 82.32881     98.5 1.062e+04 2.167e-09
 82.34495     98.4 1.077e+04 2.264e-09
 82.35487     99.2 1.070e+04 2.273e-09
 82.36573     99.0 1.083e+04 2.490e-09
 82.38528     98.7 1.098e+04 2.820e-09
 82.40492     98.5 1.114e+04 3.252e-09
 82.42457     98.2 1.130e+04 3.597e-09
 82.44421     97.9 1.146e+04 3.804e-09
 82.46386     97.5 1.162e+04 4.047e-09
 82.48350     97.0 1.173e+04 4.598e-09
 82.50315     96.4 1.179e+04 5.675e-09
 82.51684     96.2 1.188e+04 7.303e-09
 82.52666     95.8 1.201e+04 9.528e-09
 82.54244     95.7 1.214e+04 1.090e-08
 82.56208     95.7 1.216e+04 1.088e-08
 82.58173     95.7 1.214e+04 1.022e-08
 82.60137     95.8 1.203e+04 8.867e-09
 82.62102     95.7 1.190e+04 7.510e-09
 82.64066     95.4 1.204e+04 6.330e-09
 82.66031     95.1 1.226e+04 6.105e-09
 82.67995     94.8 1.275e+04 6.181e-09
 82.69960     94.5 1.330e+04 6.681e-09
 82.71478     94.1 1.342e+04 8.079e-09
 82.72461     92.4 1.286e+04 2.005e-08
 82.73888     93.2 1.284e+04 2.674e-08
 82.75853     94.6 1.314e+04 3.464e-08
 82.77817     96.0 1.397e+04 3.956e-08
 82.79294     96.9 1.490e+04 3.876e-08
 82.80276     97.1 1.427e+04 3.293e-08
 82.81746     97.5 1.497e+04 2.807e-08
 82.83711     97.4 1.543e+04 2.202e-08
 82.85675     97.0 1.540e+04 1.811e-08
 82.87640     96.6 1.468e+04 1.660e-08
 82.89604     96.5 1.389e+04 1.712e-08
 82.91273     96.6 1.361e+04 1.822e-08
 82.92255     96.3 1.244e+04 1.277e-08
 82.93533     97.0 1.277e+04 1.765e-08
 82.95498     97.8 1.318e+04 2.430e-08
 82.97462     98.6 1.356e+04 3.018e-08
 82.99427     99.1 1.370e+04 3.119e-08
 83.01391     99.6 1.365e+04 3.041e-08
 83.03356    100.2 1.344e+04 2.741e-08
 83.05320    100.9 1.317e+04 2.311e-08
 83.07285    101.6 1.298e+04 1.893e-08
 83.09249    102.2 1.291e+04 1.598e-08
 83.11068    102.7 1.292e+04 1.403e-08
 83.13042    102.8 1.269e+04 1.112e-08
 83.16144    103.4 1.257e+04 9.217e-09
 83.20073    103.8 1.234e+04 6.745e-09
 83.23131    104.5 1.201e+04 4.070e-09
 83.25095    104.6 1.207e+04 6.083e-09
 83.27931    105.3 1.173e+04 2.931e-09
 83.31860    106.0 1.156e+04 1.461e-09
 83.35789    107.0 1.145e+04 1.243e-09
 83.39718    108.7 1.145e+04 1.241e-09
 83.43647    110.4 1.151e+04 1.273e-09
 83.47576    112.1 1.167e+04 1.417e-09
 83.50677    113.6 1.182e+04 1.690e-09
 83.52641    112.9 1.173e+04 1.804e-09
 83.55434    114.5 1.184e+04 2.103e-09
 83.59363    115.8 1.199e+04 2.156e-09
 83.63292    116.8 1.202e+04 2.114e-09
 83.67221    117.5 1.206e+04 1.932e-09
 83.71150    117.8 1.199e+04 1.667e-09
 83.75079    118.0 1.185e+04 1.534e-09
 83.79008    118.3 1.183e+04 1.546e-09
 83.82936    118.6 1.182e+04 1.662e-09
 83.86865    118.8 1.194e+04 1.903e-09
 83.90266    119.0 1.208e+04 2.129e-09
 83.92230    119.5 1.198e+04 2.088e-09
 83.94723    119.7 1.211e+04 2.249e-09
 83.98652    119.8 1.215e+04 2.232e-09
 84.02581    119.8 1.222e+04 2.173e-09
 84.05518    119.6 1.225e+04 2.195e-09
 84.07473    119.3 1.227e+04 2.335e-09
 84.09437    119.1 1.228e+04 2.768e-09
 84.11023    119.0 1.226e+04 3.492e-09
 84.12006    119.7 1.236e+04 3.356e-09
 84.12710    119.5 1.242e+04 4.230e-09
 84.13692    119.5 1.261e+04 5.011e-09
 84.15331    119.1 1.270e+04 6.505e-09
 84.17295    118.9 1.289e+04 8.074e-09
 84.19260    118.4 1.320e+04 8.615e-09
 84.21224    117.6 1.326e+04 8.449e-09
 84.23189    116.6 1.333e+04 7.600e-09
 84.25153    115.6 1.329e+04 6.160e-09
 84.27118    114.4 1.317e+04 4.796e-09
 84.29082    113.3 1.303e+04 3.817e-09
 84.30818    112.3 1.295e+04 3.219e-09
 84.31800    112.1 1.297e+04 4.814e-09
 84.33011    111.2 1.295e+04 4.859e-09
 84.34976    110.4 1.299e+04 5.205e-09
 84.36940    109.3 1.330e+04 6.268e-09
 84.38905    107.9 1.373e+04 8.227e-09
 84.40869    106.4 1.396e+04 1.084e-08
 84.42833    105.2 1.395e+04 1.331e-08
 84.44798    104.3 1.387e+04 1.356e-08
 84.46762    103.7 1.375e+04 1.295e-08
 84.48727    103.2 1.366e+04 1.122e-08
 84.50613    102.5 1.377e+04 9.671e-09
 84.51595    100.2 1.408e+04 9.353e-09
 84.52656     98.9 1.398e+04 9.641e-09
 84.54620     97.9 1.364e+04 1.128e-08
 84.56527     97.3 1.339e+04 1.485e-08
 84.57509     96.7 1.377e+04 1.929e-08
 84.58549     96.3 1.392e+04 2.495e-08
 84.60514     96.1 1.423e+04 3.164e-08
 84.62478     95.8 1.457e+04 3.801e-08
 84.64443     95.2 1.491e+04 4.278e-08
 84.66407     94.0 1.521e+04 4.783e-08
 84.68372     92.3 1.538e+04 5.350e-08
 84.70336     90.7 1.530e+04 5.581e-08
 84.71390     89.5 1.511e+04 5.443e-08
 84.72372     89.5 1.451e+04 3.767e-08
 84.74265     88.8 1.439e+04 3.802e-08
 84.76230     88.5 1.394e+04 3.373e-08
 84.78194     88.1 1.336e+04 2.451e-08
 84.80159     87.6 1.275e+04 1.586e-08
 84.82123     87.0 1.221e+04 1.024e-08
 84.85079     87.6 1.194e+04 8.596e-09
 84.89018     87.0 1.126e+04 6.979e-09
 84.92947     86.7 1.112e+04 7.086e-09
 84.96876     86.2 1.099e+04 7.723e-09
 85.00363     85.4 1.106e+04 8.901e-09
 85.02328     83.3 1.069e+04 7.321e-09
 85.04734     81.6 1.067e+04 7.121e-09
 85.08663     79.0 1.055e+04 6.191e-09
 85.10999     75.8 1.024e+04 4.872e-09
 85.12963     76.5 1.052e+04 5.879e-09
 85.16521     73.7 9.938e+03 4.946e-09
 85.20450     71.2 9.577e+03 4.265e-09
 85.23387     70.1 9.473e+03 4.004e-09
 85.25341     69.3 9.407e+03 3.895e-09
 85.27306     68.5 9.396e+03 3.900e-09
 85.29270     67.7 9.397e+03 3.975e-09
 85.30774     67.2 9.412e+03 4.172e-09
 85.31756     67.1 9.616e+03 4.339e-09
 85.33199     66.5 9.752e+03 4.834e-09
 85.35164     66.1 9.955e+03 5.765e-09
 85.37128     65.4 1.028e+04 7.691e-09
 85.39093     64.5 1.079e+04 1.179e-08
 85.41057     63.7 1.174e+04 2.038e-08
 85.43022     63.5 1.299e+04 3.612e-08
 85.44986     62.9 1.446e+04 5.767e-08
 85.46125     60.2 1.691e+04 9.592e-08
 85.47107     59.5 1.724e+04 8.358e-08
 85.48419     54.3 1.941e+04 1.551e-07
 85.49397     50.8 1.952e+04 2.381e-07
 85.50379     48.2 1.903e+04 2.579e-07
 85.51050     45.9 1.875e+04 2.508e-07
 85.51541     44.4 1.880e+04 3.762e-07
 85.52343     42.8 1.838e+04 2.627e-07
 85.53326     41.9 1.803e+04 1.736e-07
 85.54804     39.5 1.718e+04 1.022e-07
 85.56773     38.3 1.538e+04 4.649e-08
 85.58738     37.0 1.320e+04 2.247e-08
 85.60702     35.9 1.132e+04 1.263e-08
 85.62667     35.7 1.025e+04 8.355e-09
 85.64631     36.0 9.683e+03 6.183e-09
 85.66595     36.4 9.381e+03 4.926e-09
 85.68560     36.8 9.169e+03 4.110e-09
 85.70363     37.2 9.056e+03 3.645e-09
 85.71345     36.7 9.023e+03 3.365e-09
 85.72489     37.1 8.977e+03 3.137e-09
 85.74453     37.6 8.992e+03 3.115e-09
 85.76418     38.0 8.967e+03 3.119e-09
 85.78382     38.7 9.052e+03 3.276e-09
 85.80347     39.1 9.087e+03 3.355e-09
 85.83303     40.1 9.267e+03 3.744e-09
 85.87242     41.1 9.333e+03 3.835e-09
 85.89962     42.1 9.430e+03 3.957e-09
 85.90933     41.6 9.336e+03 3.356e-09
 85.92142     40.7 9.788e+03 3.899e-09
 85.94108     41.3 9.821e+03 3.737e-09
 85.96063     41.1 1.027e+04 4.135e-09
 85.98027     40.8 1.093e+04 5.665e-09
 85.99992     40.7 1.144e+04 8.283e-09
 86.01956     40.8 1.185e+04 1.208e-08
 86.03921     41.1 1.228e+04 1.699e-08
 86.05885     41.1 1.269e+04 2.245e-08
 86.07850     40.7 1.342e+04 2.959e-08
 86.09814     38.9 1.486e+04 4.364e-08
 86.10935     35.8 1.683e+04 7.597e-08
 86.11917     32.0 1.686e+04 7.073e-08
 86.13743     28.9 1.746e+04 1.082e-07
 86.15707     26.7 1.716e+04 1.186e-07
 86.17672     25.4 1.679e+04 1.082e-07
 86.19636     24.3 1.623e+04 8.058e-08
 86.21601     22.7 1.522e+04 5.376e-08
 86.23565     21.8 1.384e+04 3.782e-08
 86.25530     21.9 1.285e+04 3.027e-08
 86.27494     22.5 1.231e+04 2.588e-08
 86.29459     23.4 1.199e+04 2.272e-08
 86.30730     24.3 1.179e+04 2.045e-08
 86.31712     22.6 1.144e+04 1.764e-08
 86.33388     22.8 1.113e+04 1.532e-08
 86.34741     23.1 1.071e+04 1.317e-08
 86.35724     21.1 1.014e+04 1.103e-08
 86.37317     19.7 1.081e+04 1.010e-08
 86.39281      7.5 2.006e+04 2.047e-08
 86.40622     -4.1 2.458e+04 5.636e-08
 86.41108     -4.9 2.343e+04 6.399e-08
 86.41727    -10.7 2.016e+04 2.319e-07
 86.42709    -13.0 1.825e+04 5.974e-07
 86.43691    -12.8 1.772e+04 1.148e-06
 86.44674    -10.9 1.737e+04 1.647e-06
 86.45656     -9.4 1.776e+04 1.424e-06
 86.46638     -8.9 1.856e+04 7.361e-07
 86.47620    -11.5 2.266e+04 2.081e-07
 86.48603    -20.7 2.239e+04 4.554e-08
 86.49585    -32.5 1.308e+04 1.595e-08
 86.50519    -34.4 1.105e+04 1.225e-08
 86.51506    -31.4 1.180e+04 1.397e-08
 86.53032    -32.2 1.001e+04 9.727e-09
 86.54997    -31.6 9.520e+03 8.115e-09
 86.56961    -30.5 9.243e+03 7.001e-09
 86.58926    -29.3 8.858e+03 5.793e-09
 86.60890    -28.0 8.478e+03 4.732e-09
 86.62855    -26.6 8.220e+03 3.947e-09
 86.64819    -25.2 8.052e+03 3.352e-09
 86.66784    -24.8 7.933e+03 3.171e-09
 86.69346    -22.3 7.913e+03 3.052e-09
 86.71321    -21.4 7.952e+03 3.113e-09
 86.73679    -18.7 7.894e+03 2.995e-09
 86.77596    -16.1 7.920e+03 3.114e-09
 86.81525    -13.9 7.702e+03 2.754e-09
 86.85466    -11.6 7.884e+03 3.133e-09
 86.89395     -9.3 8.035e+03 3.276e-09
 86.93324     -7.4 7.978e+03 3.220e-09
 86.97253     -5.4 7.930e+03 2.949e-09
 87.01182     -3.8 7.766e+03 2.667e-09
 87.05111     -2.0 7.809e+03 2.677e-09
 87.08946     -0.0 7.838e+03 2.614e-09
 87.10910     -0.2 7.875e+03 2.598e-09
 87.12969      1.7 7.853e+03 2.374e-09
 87.16897      3.8 7.908e+03 2.329e-09
 87.20826      5.5 8.252e+03 2.611e-09
 87.23367      6.2 8.564e+03 3.151e-09
 87.24340      6.3 8.506e+03 3.010e-09
 87.25718      6.6 8.664e+03 3.328e-09
 87.27683      7.0 9.101e+03 4.621e-09
 87.29647      7.9 9.342e+03 5.753e-09
 87.30685      8.5 9.704e+03 7.068e-09
 87.31667      8.4 9.558e+03 6.615e-09
 87.33576      9.1 9.811e+03 7.192e-09
 87.35540      9.5 1.004e+04 7.393e-09
 87.37505      9.7 1.016e+04 7.578e-09
 87.39469      9.6 1.041e+04 8.246e-09
 87.41434      9.6 1.051e+04 8.502e-09
 87.43398      9.4 1.074e+04 9.329e-09
 87.45363      9.2 1.092e+04 1.011e-08
 87.47327      9.0 1.116e+04 1.139e-08
 87.49292      8.2 1.173e+04 1.388e-08
 87.50480      3.1 1.428e+04 2.630e-08
 87.51462      2.3 1.453e+04 2.874e-08
 87.53221     -0.1 1.573e+04 7.274e-08
 87.55185     -0.7 1.566e+04 8.636e-08
 87.57150     -0.2 1.508e+04 6.128e-08
 87.59114     -1.9 1.457e+04 3.355e-08
 87.61079     -4.8 1.296e+04 1.759e-08
 87.63043     -6.3 1.179e+04 1.118e-08
 87.65008     -6.5 1.158e+04 1.044e-08
 87.67185     -5.4 1.116e+04 8.583e-09
 87.69159     -6.8 1.054e+04 6.049e-09
 87.71903     -5.5 1.003e+04 4.127e-09
 87.75832     -4.0 9.681e+03 2.594e-09
 87.79761     -3.0 9.580e+03 1.712e-09
 87.83690     -2.2 9.496e+03 1.477e-09
 87.87619     -1.0 9.472e+03 1.425e-09
 87.90089      0.4 9.478e+03 1.341e-09
 87.92053      0.2 9.467e+03 1.338e-09
 87.95477      1.5 9.549e+03 1.148e-09
 87.99405      2.3 9.675e+03 1.001e-09
 88.03334      3.1 9.744e+03 9.841e-10
 88.07263      3.7 9.862e+03 1.035e-09
 88.11192      4.2 9.968e+03 1.169e-09
 88.15121      4.6 1.008e+04 1.359e-09
 88.19050      5.2 1.027e+04 1.507e-09
 88.22979      5.1 1.052e+04 1.728e-09
 88.26908      4.0 1.108e+04 2.210e-09
 88.29678      2.5 1.168e+04 3.628e-09
 88.31643      2.4 1.209e+04 6.009e-09
 88.33774     -0.9 1.300e+04 7.918e-09
 88.35729     -3.9 1.361e+04 1.190e-08
 88.37693     -7.0 1.411e+04 2.223e-08
 88.39658     -8.3 1.428e+04 3.686e-08
 88.41622     -7.8 1.386e+04 4.096e-08
 88.43587     -5.7 1.335e+04 2.194e-08
 88.45551     -6.5 1.323e+04 7.224e-09
 88.47516    -10.4 1.308e+04 2.571e-09
 88.49453    -12.1 1.169e+04 2.046e-09
 88.50436    -12.5 1.158e+04 1.988e-09
 88.51445    -12.1 1.135e+04 1.858e-09
 88.53409    -11.2 1.186e+04 1.818e-09
 88.55374    -11.3 1.187e+04 1.925e-09
 88.56773    -10.9 1.186e+04 2.446e-09
 88.58748    -10.9 1.188e+04 2.161e-09
 88.61277    -10.7 1.193e+04 2.778e-09
 88.63231    -10.6 1.208e+04 3.303e-09
 88.65196    -10.5 1.202e+04 4.346e-09
 88.67160    -10.1 1.191e+04 5.224e-09
 88.69125     -9.8 1.207e+04 5.624e-09
 88.70230     -9.8 1.202e+04 5.691e-09
 88.71213    -10.4 1.200e+04 5.396e-09
 88.73054    -10.6 1.199e+04 5.145e-09
 88.75018    -10.8 1.194e+04 5.142e-09
 88.76983    -11.0 1.184e+04 5.461e-09
 88.78947    -11.1 1.186e+04 5.611e-09
 88.80912    -10.9 1.180e+04 6.205e-09
 88.82876    -10.7 1.178e+04 6.356e-09
 88.84841    -10.3 1.177e+04 6.159e-09
 88.86805    -10.1 1.170e+04 6.003e-09
 88.89762    -10.1 1.160e+04 5.160e-09
 88.92708     -9.4 1.181e+04 5.239e-09
 88.94663     -9.4 1.192e+04 5.547e-09
 88.96628     -9.3 1.196e+04 6.793e-09
 88.98592     -8.6 1.185e+04 7.675e-09
 89.00557     -7.7 1.176e+04 7.346e-09
 89.01573     -6.9 1.183e+04 6.031e-09
 89.02555     -7.5 1.178e+04 3.741e-09
 89.04485     -7.5 1.184e+04 2.850e-09
 89.06450     -7.7 1.170e+04 2.504e-09
 89.08414     -7.5 1.151e+04 2.438e-09
 89.09820     -7.4 1.158e+04 2.602e-09
 89.10802     -7.4 1.161e+04 3.369e-09
 89.12343     -7.7 1.183e+04 4.334e-09
 89.14308     -8.5 1.239e+04 6.514e-09
 89.16272     -9.8 1.302e+04 1.215e-08
 89.18237    -10.2 1.351e+04 2.294e-08
 89.20201    -10.8 1.432e+04 3.165e-08
 89.22166    -12.9 1.537e+04 4.130e-08
 89.24130    -16.0 1.606e+04 5.692e-08
 89.26095    -17.5 1.598e+04 8.072e-08
 89.28059    -19.4 1.618e+04 7.337e-08
 89.29614    -22.8 1.594e+04 5.594e-08
 89.30597    -22.8 1.582e+04 4.432e-08
 89.31988    -26.6 1.569e+04 6.270e-08
 89.33953    -27.4 1.604e+04 9.924e-08
 89.35917    -27.6 1.643e+04 1.098e-07
 89.37882    -29.7 1.627e+04 7.628e-08
 89.39846    -33.0 1.536e+04 5.822e-08
 89.41811    -34.7 1.482e+04 5.553e-08
 89.43775    -35.2 1.466e+04 5.130e-08
 89.45390    -35.4 1.428e+04 3.971e-08
 89.46372    -35.0 1.372e+04 3.606e-08
 89.47704    -34.8 1.348e+04 2.930e-08
 89.49409    -34.8 1.286e+04 2.054e-08
 89.50391    -35.4 1.307e+04 1.988e-08
 89.51633    -35.9 1.232e+04 1.229e-08
 89.53597    -36.2 1.163e+04 8.186e-09
 89.55562    -36.2 1.123e+04 6.285e-09
 89.57526    -36.0 1.098e+04 5.388e-09
 89.59491    -35.5 1.089e+04 5.109e-09
 89.61455    -34.8 1.100e+04 5.194e-09
 89.63420    -34.3 1.110e+04 5.484e-09
 89.65384    -33.8 1.121e+04 5.902e-09
 89.67349    -33.3 1.139e+04 6.445e-09
 89.69204    -33.0 1.150e+04 6.751e-09
 89.70186    -34.0 1.140e+04 6.098e-09
 89.71278    -33.7 1.139e+04 5.643e-09
 89.73242    -33.4 1.149e+04 4.675e-09
 89.75207    -33.6 1.170e+04 3.270e-09
 89.77171    -34.4 1.185e+04 2.050e-09
 89.79136    -35.9 1.157e+04 1.655e-09
 89.81100    -36.9 1.140e+04 1.610e-09
 89.83065    -37.9 1.122e+04 1.553e-09
 89.85029    -38.0 1.120e+04 1.544e-09
 89.86993    -39.0 1.160e+04 1.874e-09
 89.88958    -43.9 1.296e+04 3.096e-09
 89.89981    -49.5 1.327e+04 8.743e-09
 89.90229    -49.2 1.294e+04 7.612e-09
 89.91171    -49.8 1.309e+04 7.914e-09
 89.92887    -52.5 1.321e+04 1.690e-08
 89.94851    -53.9 1.352e+04 2.174e-08
 89.96816    -56.6 1.367e+04 1.884e-08
 89.98780    -61.3 1.326e+04 8.529e-09
 90.00745    -66.6 1.279e+04 6.250e-09
 90.02709    -69.9 1.266e+04 6.254e-09
 90.04674    -72.5 1.278e+04 8.164e-09
 90.06638    -74.8 1.294e+04 1.017e-08
 90.08603    -77.2 1.296e+04 1.112e-08
 90.09775    -79.8 1.281e+04 1.109e-08
 90.10758    -78.3 1.296e+04 1.201e-08
 90.12532    -81.0 1.258e+04 1.062e-08
 90.14496    -83.3 1.224e+04 9.213e-09
 90.16461    -85.3 1.203e+04 7.993e-09
 90.18425    -87.3 1.186e+04 6.759e-09
 90.20390    -89.3 1.164e+04 5.502e-09
 90.22354    -91.3 1.141e+04 4.412e-09
 90.24319    -93.4 1.123e+04 3.678e-09
 90.26283    -95.5 1.116e+04 3.396e-09
 90.28247    -97.5 1.116e+04 3.359e-09
 90.29570    -99.6 1.117e+04 3.709e-09
 90.30552    -98.6 1.111e+04 3.422e-09
 90.32176   -100.5 1.103e+04 4.318e-09
 90.34006   -102.4 1.097e+04 5.189e-09
 90.34988   -102.0 1.097e+04 4.912e-09
 90.36105   -104.0 1.091e+04 5.236e-09
 90.38070   -106.3 1.084e+04 5.292e-09
 90.40034   -108.4 1.053e+04 5.181e-09
 90.41999   -110.2 1.030e+04 4.902e-09
 90.43963   -111.8 1.013e+04 4.600e-09
 90.45928   -113.2 9.997e+03 4.238e-09
 90.47892   -114.5 9.878e+03 3.853e-09
 90.49365   -115.9 9.801e+03 3.597e-09
 90.50347   -115.1 9.774e+03 3.657e-09
 90.51821   -116.7 9.757e+03 3.550e-09
 90.53786   -118.3 9.739e+03 3.632e-09
 90.55750   -120.0 9.941e+03 4.283e-09
 90.57715   -121.5 1.019e+04 5.226e-09
 90.59679   -122.9 1.035e+04 5.913e-09
 90.61644   -124.3 1.038e+04 6.071e-09
 90.63608   -125.4 1.027e+04 5.858e-09
 90.65573   -126.3 9.965e+03 4.694e-09
 90.67537   -126.9 9.628e+03 3.597e-09
 90.69169   -127.3 9.344e+03 2.880e-09
 90.71144   -126.3 9.307e+03 2.742e-09
 90.74432   -126.6 8.854e+03 1.980e-09
 90.78361   -126.4 8.418e+03 1.362e-09
 90.82290   -125.8 8.096e+03 9.511e-10
 90.86219   -125.0 7.933e+03 7.222e-10
 90.90148   -124.3 7.861e+03 6.098e-10
 90.94077   -123.5 7.823e+03 5.601e-10
 90.98006   -122.7 7.804e+03 5.335e-10
 91.01935   -121.9 7.796e+03 5.070e-10
 91.05864   -121.1 7.796e+03 4.729e-10
 91.08768   -120.2 7.809e+03 4.315e-10
 91.10733   -119.6 7.829e+03 5.058e-10
 91.13722   -118.8 7.848e+03 4.631e-10
 91.17651   -118.0 7.877e+03 4.189e-10
 91.21580   -117.2 7.912e+03 3.874e-10
 91.23624   -116.4 7.931e+03 3.787e-10
 91.25588   -115.7 7.992e+03 3.588e-10
 91.29438   -115.1 8.009e+03 3.566e-10
 91.33367   -114.5 8.108e+03 3.822e-10
 91.37295   -113.9 8.185e+03 4.536e-10
 91.41224   -113.3 8.269e+03 5.282e-10
 91.45153   -112.7 8.394e+03 5.717e-10
 91.48358   -112.1 8.467e+03 5.800e-10
 91.50322   -112.0 8.488e+03 6.926e-10
 91.53011   -111.5 8.576e+03 6.468e-10
 91.56940   -110.9 8.684e+03 5.468e-10
 91.60869   -110.5 8.758e+03 4.896e-10
 91.64798   -110.4 8.780e+03 4.809e-10
 91.68727   -110.6 9.041e+03 5.524e-10
 91.72656   -110.9 9.219e+03 7.922e-10
 91.76585   -111.1 9.414e+03 1.053e-09
 91.80514   -111.5 9.681e+03 1.178e-09
 91.84443   -111.9 9.819e+03 1.185e-09
 91.87947   -112.1 1.008e+04 1.126e-09
 91.89912   -113.3 1.036e+04 1.855e-09
 91.92301   -113.4 1.052e+04 2.063e-09
 91.96230   -112.8 1.067e+04 2.241e-09
 92.00159   -111.8 1.085e+04 2.450e-09
 92.04088   -110.7 1.104e+04 2.665e-09
 92.08017   -109.4 1.118e+04 2.824e-09
 92.11258   -107.9 1.129e+04 2.872e-09
 92.13222   -106.8 1.127e+04 2.947e-09
 92.15875   -105.2 1.137e+04 2.908e-09
 92.19803   -103.6 1.146e+04 2.838e-09
 92.23732   -101.9 1.154e+04 2.770e-09
 92.27537   -100.5 1.164e+04 2.737e-09
 92.29501   -101.6 1.187e+04 3.322e-09
 92.31590   -101.2 1.195e+04 3.286e-09
 92.35519   -101.5 1.267e+04 3.677e-09
 92.39448   -102.3 1.298e+04 6.995e-09
 92.42385   -102.7 1.344e+04 1.177e-08
 92.44340   -103.7 1.403e+04 1.830e-08
 92.46304   -104.8 1.451e+04 2.795e-08
 92.48269   -105.8 1.477e+04 3.516e-08
 92.49276   -106.9 1.484e+04 3.742e-08
 92.50259   -107.4 1.488e+04 3.870e-08
 92.52198   -108.4 1.460e+04 3.759e-08
 92.54162   -109.1 1.417e+04 3.091e-08
 92.56038   -109.6 1.366e+04 2.464e-08
 92.57020   -107.7 1.406e+04 2.772e-08
 92.58091   -108.1 1.374e+04 2.460e-08
 92.60056   -108.3 1.331e+04 2.195e-08
 92.62020   -108.3 1.289e+04 1.803e-08
 92.63985   -108.1 1.242e+04 1.380e-08
 92.65949   -107.9 1.194e+04 9.364e-09
 92.67914   -107.8 1.148e+04 5.710e-09
 92.69071   -107.8 1.110e+04 3.296e-09
 92.70053   -108.4 1.094e+04 2.553e-09
 92.71843   -108.5 1.069e+04 1.761e-09
 92.74799   -108.3 1.043e+04 1.471e-09
 92.78738   -106.5 1.011e+04 1.283e-09
 92.82667   -104.5 1.004e+04 1.239e-09
 92.86596   -102.6 9.836e+03 1.422e-09
 92.90525   -100.9 9.982e+03 1.863e-09
 92.94454    -99.3 1.017e+04 2.746e-09
 92.98383    -97.8 1.048e+04 4.153e-09
 93.00857    -96.5 1.085e+04 6.177e-09
 93.02821    -96.1 1.081e+04 5.796e-09
 93.06240    -94.9 1.102e+04 7.343e-09
 93.08680    -94.0 1.106e+04 7.738e-09
 93.10644    -93.7 1.085e+04 6.777e-09
 93.14098    -92.6 1.079e+04 6.800e-09
 93.18027    -91.1 1.053e+04 6.340e-09
 93.21956    -89.5 1.043e+04 6.022e-09
 93.25885    -88.4 1.050e+04 6.078e-09
 93.28465    -88.5 1.072e+04 7.477e-09
 93.29437    -87.5 1.054e+04 6.279e-09
 93.30777    -87.6 1.103e+04 8.502e-09
 93.32741    -87.9 1.170e+04 1.309e-08
 93.34706    -88.9 1.315e+04 2.567e-08
 93.36670    -89.7 1.446e+04 4.633e-08
 93.38635    -90.7 1.542e+04 6.780e-08
 93.40599    -92.2 1.585e+04 7.848e-08
 93.42564    -94.3 1.583e+04 7.612e-08
 93.44528    -96.6 1.516e+04 5.381e-08
 93.45636    -99.9 1.414e+04 3.403e-08
 93.46619   -101.4 1.286e+04 2.125e-08
 93.48250   -105.1 1.246e+04 1.759e-08
 93.49232   -105.2 1.252e+04 1.758e-08
 93.50422   -110.1 1.264e+04 1.722e-08
 93.52386   -116.1 1.391e+04 2.363e-08
 93.54351   -121.5 1.498e+04 4.001e-08
 93.56315   -126.2 1.544e+04 5.476e-08
 93.58280   -130.3 1.547e+04 5.872e-08
 93.60244   -133.5 1.500e+04 5.588e-08
 93.62209   -135.8 1.412e+04 4.065e-08
 93.64173   -137.3 1.330e+04 2.945e-08
 93.66137   -138.0 1.270e+04 2.259e-08
 93.68044   -138.3 1.240e+04 1.885e-08
 93.69027   -138.7 1.240e+04 1.912e-08
 93.70066   -138.8 1.233e+04 1.810e-08
 93.72031   -138.3 1.233e+04 1.794e-08
 93.73995   -137.7 1.242e+04 1.818e-08
 93.75960   -137.0 1.256e+04 1.875e-08
 93.77924   -136.2 1.262e+04 1.899e-08
 93.79889   -135.3 1.262e+04 1.870e-08
 93.81853   -134.1 1.248e+04 1.694e-08
 93.83818   -132.7 1.226e+04 1.469e-08
 93.85782   -131.1 1.207e+04 1.270e-08
 93.87747   -129.5 1.197e+04 1.127e-08
 93.88821   -127.9 1.191e+04 1.028e-08
 93.89546   -128.3 1.174e+04 9.248e-09
 93.90436   -128.2 1.156e+04 8.846e-09
 93.91676   -126.5 1.149e+04 8.198e-09
 93.93640   -124.5 1.148e+04 7.929e-09
 93.95605   -122.4 1.149e+04 7.886e-09
 93.97569   -120.3 1.155e+04 7.933e-09
 93.99534   -118.3 1.163e+04 8.042e-09
 94.01498   -116.4 1.180e+04 8.298e-09
 94.03463   -115.4 1.245e+04 9.051e-09
 94.05427   -115.0 1.402e+04 1.407e-08
 94.07391   -114.8 1.625e+04 3.071e-08
 94.08616   -114.4 1.849e+04 8.332e-08
 94.09598   -112.8 1.626e+04 3.804e-08
 94.11320   -112.3 1.860e+04 8.089e-08
 94.12339   -112.6 2.074e+04 1.433e-07
 94.12825   -113.6 2.068e+04 1.723e-07
 94.13766   -114.7 1.985e+04 5.005e-07
 94.14748   -115.0 1.863e+04 1.449e-06
 94.15731   -114.8 1.775e+04 3.406e-06
 94.16713   -114.4 1.724e+04 6.021e-06
 94.17695   -116.0 1.697e+04 9.190e-06
 94.18504   -120.3 1.698e+04 9.426e-06
 94.18992   -120.0 1.603e+04 2.430e-05
 94.19409   -122.1 1.608e+04 2.297e-05
 94.19900   -124.7 1.635e+04 1.857e-05
 94.20391   -126.7 1.672e+04 1.387e-05
 94.20883   -128.6 1.744e+04 7.921e-06
 94.21622   -130.1 1.807e+04 4.954e-06
 94.22606   -133.6 2.046e+04 1.494e-06
 94.23589   -136.7 2.251e+04 4.402e-07
 94.24571   -138.7 2.158e+04 2.641e-07
 94.25553   -139.6 2.045e+04 2.376e-07
 94.26535   -139.8 1.968e+04 2.506e-07
 94.27518   -139.8 1.933e+04 2.696e-07
 94.28401   -140.0 1.921e+04 2.967e-07
 94.28892   -139.2 1.909e+04 3.463e-07
 94.29482   -139.2 1.907e+04 3.735e-07
 94.30464   -139.2 1.902e+04 4.277e-07
 94.31447   -139.3 1.894e+04 5.013e-07
 94.32429   -139.6 1.883e+04 5.933e-07
 94.33411   -139.8 1.866e+04 6.707e-07
 94.34243   -140.1 1.853e+04 6.991e-07
 94.34734   -139.1 1.870e+04 1.826e-07
 94.35376   -139.3 1.848e+04 2.141e-07
 94.36358   -139.3 1.832e+04 2.411e-07
 94.37340   -139.3 1.822e+04 2.623e-07
 94.38298   -139.5 1.820e+04 2.767e-07
 94.38789   -138.5 1.826e+04 4.413e-07
 94.39304   -138.4 1.826e+04 4.739e-07
 94.40287   -138.5 1.831e+04 4.857e-07
 94.41269   -139.1 1.843e+04 4.268e-07
 94.42251   -139.8 1.837e+04 3.446e-07
 94.43233   -140.7 1.815e+04 2.573e-07
 94.44216   -141.7 1.781e+04 1.900e-07
 94.45198   -142.7 1.740e+04 1.478e-07
 94.46180   -143.6 1.699e+04 1.227e-07
 94.47162   -144.5 1.673e+04 1.072e-07
 94.48201   -145.9 1.649e+04 9.189e-08
 94.49188   -143.9 1.674e+04 1.016e-07
 94.50610   -147.1 1.573e+04 6.491e-08
 94.52574   -150.6 1.478e+04 4.343e-08
 94.54539   -154.4 1.338e+04 2.917e-08
 94.56503   -157.2 1.229e+04 2.197e-08
 94.58468   -159.4 1.133e+04 1.765e-08
 94.60432   -160.9 1.084e+04 1.500e-08
 94.62397   -162.1 1.039e+04 1.255e-08
 94.64361   -163.0 9.920e+03 1.044e-08
 94.66326   -163.7 9.498e+03 8.689e-09
 94.68000   -164.3 9.092e+03 7.200e-09
 94.68982   -164.0 9.119e+03 7.407e-09
 94.70255   -164.4 8.792e+03 6.301e-09
 94.72219   -164.8 8.516e+03 5.426e-09
 94.74184   -165.2 8.293e+03 4.739e-09
 94.76148   -165.6 8.109e+03 4.195e-09
 94.78070   -166.1 7.954e+03 3.764e-09
 94.79052   -165.8 7.829e+03 3.344e-09
 94.80077   -166.2 7.704e+03 3.051e-09
 94.82042   -166.5 7.618e+03 2.864e-09
 94.84006   -166.7 7.575e+03 2.794e-09
 94.85971   -167.0 7.568e+03 2.781e-09
 94.87795   -167.9 7.597e+03 2.805e-09
 94.88777   -168.4 7.635e+03 2.969e-09
 94.89899   -171.9 8.058e+03 3.264e-09
 94.91864   -177.7 1.119e+04 7.179e-09
 94.93828   -182.8 1.482e+04 2.382e-08
 94.95793   -186.7 1.644e+04 6.239e-08
 94.97757   -190.0 1.704e+04 1.149e-07
 94.99722   -192.8 1.711e+04 1.469e-07
 95.01686   -195.2 1.706e+04 1.514e-07
 95.03651   -197.1 1.662e+04 1.356e-07
 95.05615   -198.9 1.594e+04 8.747e-08
 95.07580   -200.8 1.489e+04 4.776e-08
 95.08572   -203.0 1.334e+04 2.615e-08
 95.09554   -203.1 1.253e+04 1.991e-08
 95.11509   -204.7 1.134e+04 1.491e-08
 95.13473   -205.5 1.086e+04 1.320e-08
 95.15438   -205.9 1.072e+04 1.244e-08
 95.17402   -206.2 1.063e+04 1.155e-08
 95.19367   -206.6 1.052e+04 1.024e-08
 95.21331   -207.1 1.037e+04 8.727e-09
 95.22869   -207.8 1.022e+04 7.329e-09
 95.23851   -207.4 1.044e+04 9.085e-09
 95.25260   -208.1 1.029e+04 7.539e-09
 95.27225   -208.9 1.015e+04 6.319e-09
 95.28366   -209.5 1.004e+04 5.458e-09
 95.29349   -209.4 9.941e+03 5.311e-09
 95.31153   -209.9 9.885e+03 4.814e-09
 95.33118   -210.1 9.830e+03 4.453e-09
 95.35082   -210.2 9.756e+03 4.112e-09
 95.37047   -210.2 9.666e+03 3.742e-09
 95.39011   -210.0 9.556e+03 3.354e-09
 95.40976   -209.6 9.458e+03 3.029e-09
 95.42940   -209.2 9.419e+03 2.861e-09
 95.45897   -209.0 9.410e+03 2.724e-09
 95.48181   -208.2 9.306e+03 2.480e-09
 95.50145   -207.5 9.206e+03 2.346e-09
 95.53765   -206.1 9.073e+03 2.175e-09
 95.57693   -204.3 9.030e+03 2.109e-09
 95.61622   -202.5 9.025e+03 2.100e-09
 95.65551   -200.8 9.066e+03 2.110e-09
 95.67688   -199.5 9.449e+03 2.270e-09
 95.69652   -197.3 9.250e+03 2.356e-09
 95.73409   -196.0 9.621e+03 2.639e-09
 95.77338   -195.4 1.026e+04 3.663e-09
 95.81267   -195.3 1.101e+04 6.240e-09
 95.85196   -195.5 1.176e+04 1.089e-08
 95.87760   -196.2 1.231e+04 1.671e-08
 95.88733   -196.2 1.248e+04 1.807e-08
 95.90088   -196.4 1.268e+04 1.990e-08
 95.92052   -196.7 1.280e+04 2.085e-08
 95.94017   -197.1 1.281e+04 2.079e-08
 95.95981   -197.5 1.280e+04 1.994e-08
 95.97946   -198.0 1.279e+04 1.896e-08
 95.99910   -198.7 1.282e+04 1.847e-08
 96.01875   -199.7 1.285e+04 1.842e-08
 96.03839   -201.0 1.326e+04 1.916e-08
 96.05804   -202.4 1.362e+04 2.322e-08
 96.07545   -203.9 1.395e+04 2.891e-08
 96.08528   -204.8 1.389e+04 2.941e-08
 96.09733   -206.2 1.393e+04 3.144e-08
 96.11485   -207.3 1.390e+04 3.171e-08
 96.12467   -208.0 1.394e+04 3.215e-08
 96.13662   -208.9 1.353e+04 2.364e-08
 96.15626   -209.7 1.315e+04 1.637e-08
 96.17590   -210.5 1.285e+04 1.127e-08
 96.19555   -211.2 1.262e+04 8.354e-09
 96.21519   -211.7 1.244e+04 6.981e-09
 96.23484   -211.9 1.232e+04 6.441e-09
 96.25448   -211.9 1.230e+04 6.110e-09
 96.27340   -211.9 1.224e+04 5.856e-09
 96.28322   -211.5 1.213e+04 5.040e-09
 96.29377   -211.1 1.206e+04 4.808e-09
 96.31342   -210.4 1.201e+04 4.309e-09
 96.33306   -209.5 1.204e+04 3.625e-09
 96.36263   -208.2 1.223e+04 2.760e-09
 96.40201   -207.6 1.230e+04 2.328e-09
 96.44130   -206.0 1.227e+04 1.783e-09
 96.48059   -203.9 1.228e+04 1.372e-09
 96.51988   -201.7 1.236e+04 1.094e-09
 96.55322   -199.3 1.248e+04 9.104e-10
 96.57286   -199.7 1.249e+04 9.805e-10
 96.59846   -197.2 1.259e+04 8.464e-10
 96.63775   -194.7 1.270e+04 7.503e-10
 96.66949   -192.1 1.279e+04 6.877e-10
 96.68913   -191.6 1.272e+04 7.099e-10
 96.71633   -189.0 1.279e+04 6.751e-10
 96.75562   -186.5 1.282e+04 6.542e-10
 96.79491   -184.0 1.285e+04 6.408e-10
 96.83420   -181.5 1.287e+04 6.382e-10
 96.87349   -179.1 1.286e+04 6.403e-10
 96.91278   -176.7 1.284e+04 6.589e-10
 96.95207   -174.5 1.284e+04 7.107e-10
 96.99136   -172.3 1.282e+04 7.990e-10
 97.03065   -170.3 1.280e+04 9.173e-10
 97.06538   -168.3 1.280e+04 1.041e-09
 97.08503   -167.6 1.275e+04 8.849e-10
 97.10923   -165.6 1.278e+04 9.959e-10
 97.14852   -163.8 1.288e+04 1.058e-09
 97.18781   -162.0 1.295e+04 1.069e-09
 97.22709   -160.2 1.301e+04 1.058e-09
 97.26638   -158.5 1.313e+04 9.863e-10
 97.30567   -156.7 1.315e+04 9.127e-10
 97.34496   -154.9 1.310e+04 8.699e-10
 97.38425   -153.0 1.308e+04 8.600e-10
 97.42354   -151.3 1.299e+04 8.965e-10
 97.44920   -149.6 1.290e+04 9.783e-10
 97.46729   -149.5 1.289e+04 1.205e-09
 97.48092   -148.1 1.307e+04 9.360e-10
 97.50212   -146.4 1.292e+04 1.142e-09
 97.54141   -144.6 1.278e+04 1.328e-09
 97.58070   -142.8 1.270e+04 1.398e-09
 97.61999   -140.9 1.261e+04 1.389e-09
 97.65928   -138.8 1.254e+04 1.193e-09
 97.69857   -136.7 1.257e+04 9.933e-10
 97.73786   -134.6 1.263e+04 8.333e-10
 97.77715   -132.4 1.269e+04 7.325e-10
 97.81644   -130.1 1.273e+04 6.761e-10
 97.85573   -127.7 1.275e+04 6.495e-10
 97.87682   -125.3 1.277e+04 6.412e-10
 97.89646   -124.1 1.274e+04 9.038e-10
 97.93431   -121.7 1.280e+04 9.017e-10
 97.97360   -119.3 1.288e+04 1.040e-09
 98.01289   -117.0 1.286e+04 1.319e-09
 98.05218   -114.8 1.283e+04 1.657e-09
 98.09146   -112.6 1.283e+04 1.944e-09
 98.13075   -110.6 1.284e+04 2.098e-09
 98.17004   -108.5 1.283e+04 2.134e-09
 98.20933   -106.4 1.290e+04 2.013e-09
 98.24862   -104.3 1.298e+04 1.783e-09
 98.27271   -102.3 1.306e+04 1.610e-09
 98.29235   -101.6 1.309e+04 1.888e-09
 98.32554    -99.8 1.317e+04 1.729e-09
 98.34519   -100.3 1.321e+04 2.291e-09
 98.36649    -98.7 1.321e+04 2.118e-09
 98.40578    -97.0 1.318e+04 1.936e-09
 98.44507    -95.3 1.310e+04 1.789e-09
 98.48436    -93.7 1.297e+04 1.689e-09
 98.52365    -92.3 1.289e+04 1.655e-09
 98.56294    -91.2 1.288e+04 1.657e-09
 98.60223    -90.5 1.285e+04 1.922e-09
 98.64152    -90.2 1.269e+04 2.693e-09
 98.66860    -89.9 1.262e+04 4.093e-09
 98.68825    -89.7 1.241e+04 2.632e-09
 98.72010    -89.2 1.235e+04 3.461e-09
 98.75939    -88.8 1.230e+04 4.530e-09
 98.79868    -88.3 1.235e+04 5.946e-09
 98.83797    -87.8 1.261e+04 8.002e-09
 98.87726    -87.0 1.296e+04 1.085e-08
 98.90662    -85.3 1.291e+04 1.132e-08
 98.92617    -84.6 1.297e+04 1.292e-08
 98.94582    -83.9 1.295e+04 1.453e-08
 98.96546    -83.2 1.291e+04 1.532e-08
 98.98511    -82.3 1.285e+04 1.544e-08
 99.00475    -81.2 1.263e+04 1.429e-08
 99.02440    -80.2 1.248e+04 1.319e-08
 99.04404    -79.3 1.239e+04 1.221e-08
 99.06369    -78.4 1.234e+04 1.142e-08
 99.07412    -77.6 1.243e+04 1.102e-08
 99.08395    -76.7 1.267e+04 1.374e-08
 99.10297    -76.3 1.385e+04 1.432e-08
 99.12262    -76.3 1.768e+04 1.639e-08
 99.14226    -77.3 2.200e+04 2.767e-08
 99.15695    -75.8 2.354e+04 1.935e-08
 99.16672    -77.1 2.319e+04 3.725e-08
 99.17300    -78.8 2.267e+04 6.530e-08
 99.17791    -78.5 2.212e+04 1.026e-07
 99.18637    -80.2 2.073e+04 2.049e-07
 99.19619    -81.6 1.959e+04 3.732e-07
 99.20601    -82.3 1.895e+04 6.027e-07
 99.21583    -82.8 1.865e+04 8.979e-07
 99.22566    -83.2 1.862e+04 1.171e-06
 99.23106    -83.8 1.873e+04 1.337e-06
 99.23597    -81.5 1.896e+04 7.005e-07
 99.24530    -82.3 1.902e+04 9.218e-07
 99.25512    -83.1 1.915e+04 1.012e-06
 99.26495    -83.8 1.929e+04 9.459e-07
 99.27197    -84.3 1.948e+04 7.950e-07
 99.27688    -84.8 1.946e+04 8.590e-07
 99.28459    -85.0 1.967e+04 6.859e-07
 99.29441    -85.0 1.987e+04 5.362e-07
 99.30424    -85.2 2.003e+04 4.197e-07
 99.31406    -85.6 2.001e+04 3.292e-07
 99.32388    -85.9 1.977e+04 2.578e-07
 99.33370    -85.9 1.952e+04 2.074e-07
 99.34353    -85.7 1.936e+04 1.774e-07
 99.35831    -85.3 1.885e+04 1.552e-07
 99.37800    -85.1 1.764e+04 1.029e-07
 99.39765    -84.8 1.686e+04 7.574e-08
 99.41729    -83.9 1.624e+04 5.839e-08
 99.43694    -83.0 1.587e+04 4.682e-08
 99.45658    -82.2 1.566e+04 3.898e-08
 99.47002    -81.7 1.566e+04 3.376e-08
 99.47984    -81.0 1.563e+04 4.516e-08
 99.49587    -80.7 1.562e+04 4.438e-08
 99.51551    -80.7 1.585e+04 4.602e-08
 99.53516    -81.1 1.625e+04 5.111e-08
 99.55480    -81.7 1.659e+04 5.597e-08
 99.57445    -82.5 1.670e+04 5.684e-08
 99.59409    -83.4 1.651e+04 5.287e-08
 99.61374    -84.1 1.590e+04 4.347e-08
 99.63338    -84.4 1.516e+04 3.316e-08
 99.65303    -84.8 1.451e+04 2.537e-08
 99.66797    -85.1 1.405e+04 1.998e-08
 99.67444    -84.6 1.420e+04 1.953e-08
 99.67915    -83.6 1.486e+04 2.665e-08
 99.69232    -84.2 1.432e+04 1.988e-08
 99.71196    -84.8 1.389e+04 1.612e-08
 99.73161    -85.6 1.358e+04 1.396e-08
 99.75125    -86.3 1.338e+04 1.283e-08
 99.77090    -87.1 1.332e+04 1.238e-08
 99.79054    -87.9 1.328e+04 1.220e-08
 99.81019    -88.5 1.323e+04 1.190e-08
 99.82983    -89.0 1.312e+04 1.114e-08
 99.84948    -89.5 1.297e+04 1.060e-08
 99.86591    -89.8 1.288e+04 1.042e-08
 99.87573    -89.0 1.285e+04 9.260e-09
 99.88877    -89.3 1.281e+04 9.023e-09
 99.90841    -89.6 1.279e+04 9.025e-09
 99.92805    -90.0 1.281e+04 1.008e-08
 99.94770    -90.6 1.299e+04 1.286e-08
 99.96734    -91.2 1.329e+04 1.729e-08
 99.98699    -91.8 1.362e+04 2.274e-08
100.00663    -92.6 1.387e+04 2.715e-08
